,EEG.AF3,EEG.F7,EEG.F3,EEG.FC5,EEG.T7,EEG.P7,EEG.O1,EEG.O2,EEG.P8,EEG.T8,EEG.FC6,EEG.F4,EEG.F8,EEG.AF4
0,108.20507799999996,113.3334960000002,109.10253900000043,108.58984400000008,111.41015599999992,133.46142599999985,132.17968800000017,126.2822270000006,144.48730499999965,92.43603499999972,120.38476599999922,115.64111300000059,92.82031300000017,113.46142599999985
1,106.53857400000015,110.64111300000059,107.43603499999972,108.7177729999994,121.53857400000015,141.6665039999998,139.7436520000001,131.79492200000004,149.87158199999976,100.76904300000024,120.12841800000024,115.51269500000035,92.30761700000039,108.9741210000002
2,110.12841800000024,115.51269500000035,110.12841800000024,110.64111300000059,133.20507799999996,144.3588869999994,139.7436520000001,131.79492200000004,149.23095699999976,109.35888699999941,124.10253900000043,117.17968800000017,96.53857400000015,109.74365200000011
3,115.25634799999989,124.10253900000043,114.48730499999965,113.46142599999985,137.56396500000028,136.6665039999998,129.61523400000078,125.12841800000024,142.17968800000017,112.05126999999993,130.38476599999922,118.7177729999994,102.82031300000017,113.9741210000002
4,121.0258789999998,133.0771479999994,117.30761700000039,116.2822270000006,136.15380900000036,123.3334960000002,115.38476599999922,115.76904300000024,133.20507799999996,109.23095699999976,137.56396500000028,120.64111300000059,111.6665039999998,111.9228520000006
5,127.05126999999993,140.0,118.46142599999985,118.3334960000002,135.2563479999999,113.0771479999994,105.51269500000035,110.0,127.69238299999961,107.05126999999993,145.0,124.61523400000078,123.7177729999994,104.87158199999976
6,131.9228520000006,142.05126999999993,119.87158199999976,119.10253900000043,137.17968800000017,109.74365200000011,102.94873000000007,110.38476599999922,127.69238299999961,109.35888699999941,150.76904300000024,130.2563479999999,136.0258789999998,105.0
7,133.9741210000002,138.7177729999994,121.0258789999998,117.43603499999972,138.58984400000008,110.64111300000059,104.87158199999976,113.9741210000002,130.6411130000006,116.6665039999998,153.7177729999994,134.3588869999994,144.23095699999976,113.84619099999964
8,135.12841800000024,134.3588869999994,120.12841800000024,114.10253900000043,137.05126999999993,111.6665039999998,107.30761700000039,116.2822270000006,133.20507799999996,126.6665039999998,155.38476599999922,135.51269500000035,148.46142599999985,118.0771479999994
9,137.17968800000017,133.0771479999994,118.0771479999994,111.2822270000006,133.7177729999994,111.2822270000006,107.94873000000007,115.64111300000059,133.58984400000008,135.12841800000024,158.84619099999964,134.7436520000001,150.51269500000035,111.41015599999992
10,137.05126999999993,131.9228520000006,116.2822270000006,110.64111300000059,129.87158199999976,108.20507799999996,106.0258789999998,112.94873000000007,131.9228520000006,136.9228520000006,162.6923829999996,132.43603499999972,149.48730499999965,104.74365200000011
11,130.0,124.74365200000011,114.10253900000043,110.64111300000059,126.79492200000004,103.58984400000008,102.56396500000028,109.74365200000011,128.9741210000002,130.6411130000006,163.20507799999996,127.56396500000028,141.79492200000004,107.43603499999972
12,117.43603499999972,111.53857400000015,109.74365200000011,109.10253900000043,127.82031300000017,101.41015599999992,101.2822270000006,107.69238299999961,126.79492200000004,122.82031300000017,159.87158199999976,120.25634799999989,129.23095699999976,112.82031300000017
13,106.9228520000006,100.12841800000024,105.25634799999989,106.53857400000015,136.0258789999998,104.48730499999965,104.61523400000078,107.82031300000017,127.05126999999993,123.46142599999985,156.79492200000004,113.7177729999994,118.3334960000002,111.9228520000006
14,103.7177729999994,96.6665039999998,104.23095699999976,105.64111300000059,148.58984400000008,109.74365200000011,108.84619099999964,109.48730499999965,129.48730499999965,135.38476599999922,158.0771479999994,110.89746099999957,112.94873000000007,110.0
15,104.61523400000078,99.74365200000011,105.25634799999989,107.17968800000017,157.05126999999993,108.9741210000002,106.2822270000006,109.61523400000078,131.2822270000006,152.17968800000017,162.43603499999972,110.0,110.12841800000024,114.35888699999941
16,103.46142599999985,102.69238299999961,103.0771479999994,108.9741210000002,157.05126999999993,99.23095699999976,93.46142599999985,105.76904300000024,130.6411130000006,165.6411130000006,165.6411130000006,107.05126999999993,105.12841800000024,119.61523400000078
17,98.20507799999996,101.6665039999998,96.2822270000006,110.25634799999989,153.0771479999994,88.3334960000002,77.82031300000017,100.0,129.61523400000078,174.10253900000043,166.0258789999998,100.89746099999957,97.43603499999972,117.05126999999993
18,90.0,97.05126999999993,90.64111300000059,111.9228520000006,149.7436520000001,85.0,71.6665039999998,96.9228520000006,130.89746099999957,179.48730499999965,164.87158199999976,94.61523400000078,89.23095699999976,111.41015599999992
19,78.7177729999994,88.84619099999964,90.38476599999922,113.58984400000008,145.0,87.94873000000007,77.82031300000017,98.0771479999994,134.3588869999994,181.0258789999998,162.17968800000017,89.74365200000011,80.64111300000059,112.94873000000007
20,62.05126999999993,76.53857400000015,91.0258789999998,111.2822270000006,135.89746099999957,87.94873000000007,83.9741210000002,99.87158199999976,136.2822270000006,177.3076170000004,155.6411130000006,81.6665039999998,68.7177729999994,118.58984400000008
21,41.53857400000015,63.46142599999985,84.74365200000011,103.46142599999985,127.43603499999972,80.38476599999922,76.53857400000015,97.69238299999961,134.48730499999965,173.7177729999994,145.76904300000024,66.6665039999998,54.61523400000078,116.53857400000015
22,26.538574000000153,56.153809000000365,74.10253900000043,96.2822270000006,127.30761700000039,69.87158199999976,58.974121000000196,92.05126999999993,132.3076170000004,180.0,140.2563479999999,51.153809000000365,45.51269500000035,107.69238299999961
23,30.384765999999217,61.025878999999804,71.79492200000004,98.20507799999996,135.38476599999922,65.25634799999989,53.46142599999985,89.74365200000011,135.76904300000024,199.87158199999976,151.15380900000036,50.897460999999566,50.38476599999922,104.35888699999941
24,58.7177729999994,80.38476599999922,86.0258789999998,111.41015599999992,142.94873000000007,71.79492200000004,78.58984400000008,96.53857400000015,147.3076170000004,227.6923829999996,181.79492200000004,76.0258789999998,73.3334960000002,109.61523400000078
25,100.64111300000059,108.46142599999985,110.76904300000024,127.17968800000017,137.3076170000004,87.30761700000039,126.6665039999998,111.15380900000036,161.79492200000004,251.9228520000006,218.3334960000002,115.89746099999957,108.20507799999996,112.69238299999961
26,132.43603499999972,130.6411130000006,130.38476599999922,133.20507799999996,105.0,101.53857400000015,166.2822270000006,124.10253900000043,169.61523400000078,258.20507799999996,238.46142599999985,144.61523400000078,140.0,109.35888699999941
27,136.0258789999998,132.82031300000017,133.9741210000002,125.51269500000035,40.897460999999566,101.15380900000036,171.6665039999998,126.79492200000004,164.3588869999994,233.20507799999996,232.6923829999996,143.46142599999985,153.3334960000002,108.46142599999985
28,117.05126999999993,116.15380900000036,124.23095699999976,111.79492200000004,-41.025634999999966,80.89746099999957,146.6665039999998,119.48730499999965,148.20507799999996,176.15380900000036,217.17968800000017,120.64111300000059,145.76904300000024,113.9741210000002
29,101.53857400000015,98.9741210000002,113.58984400000008,104.61523400000078,-106.92309599999999,48.846190999999635,118.46142599999985,111.15380900000036,130.6411130000006,106.6665039999998,218.84619099999964,103.84619099999964,131.15380900000036,116.2822270000006
30,112.05126999999993,101.0258789999998,113.58984400000008,110.51269500000035,-118.07690400000001,21.282227000000603,108.9741210000002,109.35888699999941,120.76904300000024,57.05126999999993,247.05126999999993,113.9741210000002,127.43603499999972,110.12841800000024
31,149.61523400000078,128.7177729999994,124.74365200000011,125.0,-52.948729999999614,11.282227000000603,115.0,113.84619099999964,121.6665039999998,49.48730499999965,285.0,147.43603499999972,145.12841800000024,104.74365200000011
32,198.9741210000002,177.82031300000017,137.3076170000004,138.3334960000002,79.35888699999941,23.077147999999397,117.17968800000017,118.0771479999994,130.2563479999999,82.30761700000039,310.12841800000024,182.6923829999996,185.89746099999957,109.10253900000043
33,245.89746099999957,240.89746099999957,141.15380900000036,145.38476599999922,235.76904300000024,53.333496000000196,103.3334960000002,117.05126999999993,141.53857400000015,134.61523400000078,318.46142599999985,201.9228520000006,246.0258789999998,115.89746099999957
34,285.2563479999999,307.05126999999993,137.3076170000004,148.9741210000002,349.10253900000043,91.41015599999992,80.76904300000024,112.30761700000039,150.2563479999999,177.82031300000017,323.20507799999996,204.87158199999976,314.6152340000008,114.74365200000011
35,315.6411130000006,356.2822270000006,136.41015599999992,153.84619099999964,357.82031300000017,120.76904300000024,67.94873000000007,108.58984400000008,151.15380900000036,188.0771479999994,334.3588869999994,204.48730499999965,371.4101559999999,110.12841800000024
36,335.2563479999999,368.3334960000002,146.9228520000006,159.87158199999976,246.9228520000006,127.17968800000017,77.94873000000007,108.46142599999985,141.9228520000006,156.9228520000006,347.3076170000004,213.20507799999996,396.53857400000015,111.9228520000006
37,344.3588869999994,340.6411130000006,165.6411130000006,161.41015599999992,69.35888699999941,109.87158199999976,107.17968800000017,111.15380900000036,124.61523400000078,99.74365200000011,348.9741210000002,231.9228520000006,387.82031300000017,116.9228520000006
38,346.0258789999998,294.87158199999976,180.12841800000024,153.46142599999985,-79.48706099999981,81.9228520000006,134.7436520000001,113.3334960000002,105.0,48.974121000000196,329.3588869999994,248.58984400000008,365.2563479999999,114.74365200000011
39,342.5639650000003,261.4101559999999,178.7177729999994,136.6665039999998,-119.61547900000005,59.74365200000011,135.38476599999922,110.38476599999922,87.94873000000007,32.69238299999961,287.3076170000004,246.6665039999998,354.87158199999976,107.69238299999961
40,336.4101559999999,260.2563479999999,158.58984400000008,118.9741210000002,-32.30761700000039,53.7177729999994,98.84619099999964,100.38476599999922,75.25634799999989,55.76904300000024,235.38476599999922,219.87158199999976,369.6152340000008,106.9228520000006
41,335.89746099999957,295.2563479999999,130.51269500000035,111.9228520000006,132.17968800000017,67.17968800000017,45.25634799999989,87.43603499999972,68.7177729999994,99.87158199999976,200.2563479999999,184.61523400000078,405.3847659999992,112.94873000000007
42,351.9228520000006,354.10253900000043,113.58984400000008,122.30761700000039,281.79492200000004,93.84619099999964,13.461425999999847,81.6665039999998,70.64111300000059,137.6923829999996,206.41015599999992,170.12841800000024,446.53857400000015,114.48730499999965
43,382.5639650000003,408.84619099999964,120.25634799999989,143.9741210000002,332.82031300000017,116.2822270000006,27.05126999999993,88.9741210000002,78.84619099999964,147.17968800000017,250.2563479999999,191.9228520000006,472.05126999999993,109.35888699999941
44,407.3076170000004,426.79492200000004,144.48730499999965,158.9741210000002,258.84619099999964,114.74365200000011,72.30761700000039,103.84619099999964,84.61523400000078,121.79492200000004,294.10253900000043,233.9741210000002,465.12841800000024,107.56396500000028
45,406.4101559999999,395.6411130000006,166.53857400000015,153.46142599999985,110.51269500000035,84.23095699999976,115.76904300000024,114.23095699999976,80.64111300000059,75.38476599999922,296.53857400000015,263.20507799999996,428.7177729999994,112.82031300000017
46,383.84619099999964,337.4360349999997,173.20507799999996,131.15380900000036,-16.28198199999997,43.589844000000085,137.05126999999993,114.48730499999965,68.9741210000002,37.30761700000039,250.89746099999957,262.4360349999997,389.87158199999976,115.25634799999989
47,362.17968800000017,291.79492200000004,167.6923829999996,111.2822270000006,-47.051270000000386,20.25634799999989,139.3588869999994,109.35888699999941,58.846190999999635,34.102539000000434,189.61523400000078,242.05126999999993,379.48730499999965,110.25634799999989
48,356.4101559999999,281.6665039999998,159.61523400000078,108.3334960000002,20.897460999999566,26.410155999999915,131.2822270000006,105.38476599999922,55.64111300000059,67.82031300000017,149.10253900000043,221.0258789999998,402.17968800000017,107.17968800000017
49,359.6152340000008,297.4360349999997,150.89746099999957,118.0771479999994,124.35888699999941,51.410155999999915,113.20507799999996,102.43603499999972,55.897460999999566,112.43603499999972,138.7177729999994,206.53857400000015,431.9228520000006,112.82031300000017
50,356.79492200000004,313.46142599999985,137.94873000000007,125.12841800000024,189.7436520000001,75.38476599999922,85.76904300000024,97.56396500000028,53.7177729999994,136.9228520000006,141.0258789999998,194.87158199999976,438.84619099999964,118.3334960000002
51,343.0771479999994,313.5898440000001,122.94873000000007,119.87158199999976,188.7177729999994,86.6665039999998,58.7177729999994,91.9228520000006,48.7177729999994,129.7436520000001,136.2822270000006,184.10253900000043,416.15380900000036,114.48730499999965
52,323.20507799999996,296.9228520000006,113.20507799999996,105.89746099999957,144.3588869999994,85.25634799999989,43.7177729999994,89.23095699999976,43.333496000000196,104.48730499999965,116.0258789999998,176.15380900000036,378.3334960000002,108.0771479999994
53,301.15380900000036,268.5898440000001,111.15380900000036,92.94873000000007,98.84619099999964,76.53857400000015,41.410155999999915,90.0,38.0771479999994,83.58984400000008,84.87158199999976,169.61523400000078,342.05126999999993,109.48730499999965
54,279.10253900000043,234.7436520000001,111.41015599999992,87.69238299999961,81.53857400000015,67.56396500000028,42.69238299999961,90.76904300000024,32.30761700000039,80.25634799999989,54.61523400000078,161.79492200000004,316.9228520000006,114.61523400000078
55,263.7177729999994,205.76904300000024,111.2822270000006,93.0771479999994,96.9228520000006,65.25634799999989,44.102539000000434,90.25634799999989,28.846190999999635,92.05126999999993,41.2822270000006,156.41015599999992,308.0771479999994,113.58984400000008
56,264.23095699999976,193.7177729999994,115.76904300000024,108.3334960000002,128.84619099999964,71.53857400000015,52.30761700000039,92.43603499999972,32.56396500000028,107.05126999999993,53.46142599999985,162.94873000000007,316.2822270000006,108.84619099999964
57,280.89746099999957,202.43603499999972,129.61523400000078,126.9228520000006,152.56396500000028,81.2822270000006,74.10253900000043,100.64111300000059,44.102539000000434,116.53857400000015,80.51269500000035,184.3588869999994,331.9228520000006,110.64111300000059
58,300.3847659999992,221.53857400000015,146.2822270000006,136.79492200000004,150.76904300000024,87.05126999999993,103.84619099999964,112.43603499999972,56.410155999999915,122.56396500000028,95.38476599999922,208.9741210000002,337.05126999999993,117.17968800000017
59,305.0,232.6923829999996,154.10253900000043,129.3588869999994,125.89746099999957,86.15380900000036,125.12841800000024,120.76904300000024,61.2822270000006,131.0258789999998,78.58984400000008,219.10253900000043,317.82031300000017,117.05126999999993
60,284.7436520000001,221.6665039999998,147.43603499999972,107.94873000000007,94.23095699999976,79.48730499999965,123.84619099999964,119.48730499999965,55.51269500000035,140.2563479999999,36.025878999999804,206.2822270000006,274.3588869999994,109.35888699999941
61,245.0,188.20507799999996,131.2822270000006,86.0258789999998,69.61523400000078,66.53857400000015,99.74365200000011,108.84619099999964,42.82031300000017,140.0,-6.281981999999971,177.56396500000028,222.17968800000017,105.64111300000059
62,203.46142599999985,146.79492200000004,115.0,75.38476599999922,55.64111300000059,47.30761700000039,68.20507799999996,94.87158199999976,30.384765999999217,125.25634799999989,-26.28198199999997,148.9741210000002,184.10253900000043,109.23095699999976
63,179.48730499999965,118.9741210000002,105.89746099999957,78.58984400000008,53.46142599999985,28.333496000000196,49.35888699999941,86.0258789999998,25.25634799999989,105.12841800000024,-21.923095999999987,133.46142599999985,176.15380900000036,110.0
64,179.48730499999965,118.3334960000002,106.15380900000036,90.76904300000024,68.3334960000002,21.794922000000042,51.79492200000004,87.05126999999993,29.871581999999762,94.10253900000043,-7.820557000000008,133.7177729999994,194.87158199999976,103.9741210000002
65,192.56396500000028,139.3588869999994,112.43603499999972,104.10253900000043,99.87158199999976,33.846190999999635,67.17968800000017,95.64111300000059,40.64111300000059,95.25634799999989,-0.256347999999889,142.17968800000017,216.9228520000006,100.64111300000059
66,201.2822270000006,162.43603499999972,117.94873000000007,112.82031300000017,133.0771479999994,58.0771479999994,80.25634799999989,104.61523400000078,49.35888699999941,99.74365200000011,-4.230713000000378,149.10253900000043,219.23095699999976,105.76904300000024
67,198.58984400000008,170.12841800000024,118.84619099999964,115.25634799999989,146.41015599999992,81.9228520000006,84.48730499999965,108.58984400000008,50.25634799999989,99.48730499999965,-12.435790999999426,151.41015599999992,198.84619099999964,110.25634799999989
68,191.15380900000036,160.51269500000035,118.84619099999964,114.10253900000043,132.17968800000017,96.2822270000006,85.89746099999957,108.46142599999985,44.87158199999976,97.43603499999972,-15.641113000000132,153.58984400000008,175.2563479999999,106.6665039999998
69,187.94873000000007,144.61523400000078,123.20507799999996,112.69238299999961,105.25634799999989,99.61523400000078,91.41015599999992,108.3334960000002,40.25634799999989,103.84619099999964,-13.461425999999847,158.84619099999964,169.10253900000043,102.43603499999972
70,189.10253900000043,135.38476599999922,130.51269500000035,110.51269500000035,90.64111300000059,95.51269500000035,99.61523400000078,109.23095699999976,41.666503999999804,125.25634799999989,-14.102538999999979,162.82031300000017,183.58984400000008,106.9228520000006
71,187.56396500000028,136.79492200000004,131.79492200000004,104.48730499999965,102.30761700000039,88.7177729999994,102.69238299999961,109.35888699999941,48.974121000000196,155.2563479999999,-22.564209000000574,158.3334960000002,203.7177729999994,113.58984400000008
72,177.05126999999993,142.56396500000028,122.69238299999961,95.51269500000035,131.79492200000004,82.17968800000017,96.0258789999998,107.05126999999993,56.153809000000365,173.58984400000008,-35.89746100000002,145.0,208.20507799999996,112.05126999999993
73,156.79492200000004,139.87158199999976,108.58984400000008,88.9741210000002,154.3588869999994,73.7177729999994,82.69238299999961,103.58984400000008,56.79492200000004,158.46142599999985,-50.1281740000004,130.0,183.58984400000008,105.76904300000024
74,130.76904300000024,120.76904300000024,97.56396500000028,88.20507799999996,149.23095699999976,59.35888699999941,69.35888699999941,100.38476599999922,49.102539000000434,108.3334960000002,-66.02563499999997,119.87158199999976,133.0771479999994,105.76904300000024
75,106.6665039999998,91.79492200000004,91.6665039999998,90.64111300000059,117.05126999999993,40.76904300000024,61.025878999999804,97.43603499999972,37.17968800000017,49.102539000000434,-82.56420900000057,114.61523400000078,78.3334960000002,110.89746099999957
76,92.94873000000007,71.9228520000006,89.48730499999965,92.30761700000039,80.76904300000024,28.589844000000085,59.61523400000078,94.87158199999976,29.102539000000434,16.794922000000042,-90.0,111.0258789999998,47.69238299999961,110.89746099999957
77,91.9228520000006,73.46142599999985,90.25634799999989,93.46142599999985,66.0258789999998,33.333496000000196,63.20507799999996,93.46142599999985,30.128418000000238,27.56396500000028,-77.94872999999961,107.17968800000017,54.35888699999941,106.15380900000036
78,96.53857400000015,89.61523400000078,93.58984400000008,96.2822270000006,79.23095699999976,53.974121000000196,66.6665039999998,93.3334960000002,38.20507799999996,64.74365200000011,-49.74365200000011,102.94873000000007,86.0258789999998,106.2822270000006
79,98.3334960000002,101.9228520000006,97.43603499999972,100.76904300000024,104.35888699999941,77.94873000000007,66.6665039999998,94.10253900000043,47.43603499999972,96.2822270000006,-23.333252000000357,100.12841800000024,116.6665039999998,111.79492200000004
80,96.15380900000036,98.9741210000002,100.38476599999922,105.38476599999922,119.48730499999965,92.17968800000017,66.6665039999998,96.2822270000006,53.589844000000085,103.3334960000002,-15.897461000000021,101.6665039999998,128.20507799999996,112.17968800000017
81,94.35888699999941,85.25634799999989,104.23095699999976,108.0771479999994,113.3334960000002,92.17968800000017,72.17968800000017,101.15380900000036,56.666503999999804,91.79492200000004,-30.25634799999989,108.84619099999964,119.23095699999976,105.51269500000035
82,94.10253900000043,72.69238299999961,109.10253900000043,107.56396500000028,92.56396500000028,82.05126999999993,82.94873000000007,107.56396500000028,58.20507799999996,81.0258789999998,-55.0,117.17968800000017,99.48730499999965,102.94873000000007
83,93.3334960000002,72.05126999999993,111.9228520000006,103.84619099999964,76.41015599999992,71.0258789999998,92.82031300000017,111.2822270000006,58.589844000000085,84.48730499999965,-73.33325200000036,119.74365200000011,81.79492200000004,109.10253900000043
84,93.0771479999994,87.69238299999961,110.12841800000024,100.0,83.9741210000002,69.10253900000043,98.20507799999996,110.64111300000059,57.82031300000017,100.64111300000059,-72.05127000000039,115.0,77.56396500000028,113.58984400000008
85,96.79492200000004,113.0771479999994,107.30761700000039,100.51269500000035,116.0258789999998,78.9741210000002,101.53857400000015,108.58984400000008,56.410155999999915,116.53857400000015,-50.76928699999962,110.12841800000024,88.9741210000002,109.23095699999976
86,103.0771479999994,130.51269500000035,108.84619099999964,105.89746099999957,151.2822270000006,91.9228520000006,105.12841800000024,109.10253900000043,54.61523400000078,116.53857400000015,-24.230713000000378,111.9228520000006,104.35888699999941,104.74365200000011
87,103.84619099999964,123.9741210000002,113.0771479999994,110.12841800000024,162.94873000000007,95.51269500000035,105.51269500000035,111.9228520000006,52.17968800000017,94.23095699999976,-15.0,117.82031300000017,105.51269500000035,108.7177729999994
88,92.94873000000007,94.74365200000011,112.17968800000017,106.41015599999992,144.10253900000043,86.0258789999998,96.6665039999998,112.05126999999993,49.102539000000434,58.846190999999635,-33.974365000000034,118.9741210000002,84.23095699999976,113.9741210000002
89,73.84619099999964,62.30761700000039,103.0771479999994,96.15380900000036,113.0771479999994,73.3334960000002,79.35888699999941,106.6665039999998,46.9228520000006,30.128418000000238,-68.84619099999964,110.51269500000035,51.53857400000015,110.64111300000059
90,55.897460999999566,46.2822270000006,92.30761700000039,87.82031300000017,93.58984400000008,69.61523400000078,62.43603499999972,97.82031300000017,47.17968800000017,25.769043000000238,-93.46142599999985,96.79492200000004,27.82031300000017,104.35888699999941
91,46.410155999999915,50.0,87.30761700000039,88.20507799999996,92.17968800000017,77.56396500000028,55.51269500000035,90.25634799999989,49.23095699999976,50.12841800000024,-90.89746100000002,85.12841800000024,25.769043000000238,105.89746099999957
92,46.153809000000365,62.05126999999993,88.84619099999964,95.38476599999922,98.46142599999985,90.25634799999989,60.76904300000024,87.17968800000017,51.2822270000006,91.6665039999998,-66.66674799999964,79.48730499999965,42.82031300000017,112.43603499999972
93,52.30761700000039,70.12841800000024,92.82031300000017,102.43603499999972,100.64111300000059,99.23095699999976,72.43603499999972,88.3334960000002,53.589844000000085,129.10253900000043,-39.8718259999996,80.12841800000024,66.53857400000015,113.20507799999996
94,60.38476599999922,70.25634799999989,97.43603499999972,105.12841800000024,96.6665039999998,99.87158199999976,82.94873000000007,92.56396500000028,56.9228520000006,140.2563479999999,-26.025634999999966,85.64111300000059,82.17968800000017,109.10253900000043
95,66.6665039999998,65.89746099999957,103.0771479999994,105.25634799999989,92.56396500000028,93.7177729999994,88.84619099999964,97.82031300000017,60.897460999999566,115.76904300000024,-26.538574000000153,94.61523400000078,81.6665039999998,110.0
96,69.10253900000043,63.974121000000196,108.3334960000002,106.41015599999992,95.38476599999922,87.82031300000017,91.41015599999992,102.30761700000039,63.974121000000196,69.35888699999941,-33.974365000000034,103.9741210000002,67.56396500000028,115.0
97,67.82031300000017,67.69238299999961,109.74365200000011,109.61523400000078,106.6665039999998,88.7177729999994,92.94873000000007,104.23095699999976,65.0,32.82031300000017,-42.948729999999614,107.56396500000028,49.87158199999976,113.7177729999994
98,61.666503999999804,73.84619099999964,105.12841800000024,111.41015599999992,119.61523400000078,96.0258789999998,91.41015599999992,102.43603499999972,63.846190999999635,32.56396500000028,-53.46142599999985,100.0,37.43603499999972,105.51269500000035
99,50.64111300000059,75.38476599999922,96.2822270000006,108.0771479999994,124.87158199999976,101.79492200000004,84.10253900000043,97.69238299999961,61.410155999999915,67.43603499999972,-64.8718259999996,83.0771479999994,33.333496000000196,102.05126999999993
100,39.87158199999976,71.2822270000006,87.56396500000028,100.12841800000024,121.0258789999998,100.76904300000024,75.38476599999922,93.9741210000002,58.974121000000196,110.89746099999957,-70.51293900000019,67.30761700000039,37.56396500000028,107.56396500000028
101,38.7177729999994,68.84619099999964,84.23095699999976,92.82031300000017,117.69238299999961,96.9228520000006,75.12841800000024,95.51269500000035,58.0771479999994,135.2563479999999,-63.846190999999635,65.38476599999922,50.0,111.2822270000006
102,50.12841800000024,73.46142599999985,89.10253900000043,91.2822270000006,124.61523400000078,97.82031300000017,87.82031300000017,102.82031300000017,59.61523400000078,131.6665039999998,-48.07690400000001,79.48730499999965,66.15380900000036,107.56396500000028
103,64.35888699999941,80.76904300000024,98.9741210000002,95.64111300000059,138.46142599999985,103.3334960000002,105.0,110.76904300000024,62.17968800000017,110.64111300000059,-36.025634999999966,97.43603499999972,75.0,105.25634799999989
104,67.30761700000039,81.2822270000006,105.64111300000059,100.51269500000035,145.38476599999922,106.15380900000036,112.94873000000007,113.0771479999994,63.7177729999994,89.10253900000043,-37.051270000000386,103.3334960000002,67.43603499999972,111.0258789999998
105,56.9228520000006,72.56396500000028,103.9741210000002,102.05126999999993,135.89746099999957,102.17968800000017,107.82031300000017,108.84619099999964,64.87158199999976,80.76904300000024,-45.89746100000002,93.9741210000002,47.30761700000039,116.41015599999992
106,45.12841800000024,63.589844000000085,98.46142599999985,102.69238299999961,116.15380900000036,96.41015599999992,100.25634799999989,103.46142599999985,68.20507799999996,90.25634799999989,-47.30761700000039,82.43603499999972,31.025878999999804,113.3334960000002
107,44.35888699999941,63.7177729999994,98.20507799999996,106.6665039999998,100.64111300000059,95.76904300000024,102.30761700000039,103.3334960000002,73.9741210000002,110.64111300000059,-33.20507799999996,82.94873000000007,31.922852000000603,108.9741210000002
108,53.333496000000196,72.05126999999993,105.12841800000024,112.69238299999961,98.3334960000002,101.53857400000015,113.3334960000002,108.20507799999996,78.84619099999964,126.79492200000004,-11.794922000000042,96.15380900000036,47.69238299999961,112.43603499999972
109,60.76904300000024,78.9741210000002,110.51269500000035,114.23095699999976,107.69238299999961,109.35888699999941,121.15380900000036,112.30761700000039,78.7177729999994,126.9228520000006,0.769043000000238,109.10253900000043,64.10253900000043,118.20507799999996
110,57.82031300000017,76.53857400000015,106.6665039999998,107.82031300000017,120.0,114.61523400000078,115.51269500000035,111.0258789999998,73.9741210000002,113.58984400000008,-5.128174000000399,108.7177729999994,68.9741210000002,115.51269500000035
111,44.74365200000011,64.10253900000043,95.51269500000035,97.56396500000028,126.2822270000006,114.74365200000011,97.17968800000017,104.74365200000011,68.3334960000002,99.61523400000078,-26.28198199999997,93.7177729999994,60.12841800000024,107.82031300000017
112,28.846190999999635,48.20507799999996,85.25634799999989,90.51269500000035,122.17968800000017,109.61523400000078,76.79492200000004,97.56396500000028,65.38476599999922,94.48730499999965,-49.74365200000011,73.84619099999964,44.102539000000434,106.41015599999992
113,19.74365200000011,38.846190999999635,81.79492200000004,90.76904300000024,111.6665039999998,102.69238299999961,66.9228520000006,94.10253900000043,66.41015599999992,97.82031300000017,-60.76928699999962,62.05126999999993,31.025878999999804,111.0258789999998
114,23.205077999999958,42.30761700000039,86.2822270000006,97.05126999999993,103.46142599999985,99.87158199999976,73.46142599999985,96.41015599999992,70.64111300000059,103.7177729999994,-52.30761700000039,65.12841800000024,28.461425999999847,111.6665039999998
115,35.64111300000059,54.74365200000011,95.38476599999922,104.87158199999976,102.56396500000028,102.43603499999972,89.87158199999976,102.69238299999961,75.25634799999989,106.9228520000006,-31.923095999999987,79.10253900000043,35.0,107.69238299999961
116,45.12841800000024,63.20507799999996,103.3334960000002,108.46142599999985,105.38476599999922,105.0,102.05126999999993,108.20507799999996,77.17968800000017,104.74365200000011,-16.794922000000042,91.41015599999992,40.897460999999566,108.20507799999996
117,43.589844000000085,59.74365200000011,103.9741210000002,105.38476599999922,107.17968800000017,102.69238299999961,102.05126999999993,109.10253900000043,75.38476599999922,98.58984400000008,-17.69238299999961,92.56396500000028,38.46142599999985,113.58984400000008
118,35.64111300000059,49.87158199999976,97.69238299999961,99.23095699999976,108.0771479999994,98.84619099999964,95.0,106.9228520000006,72.82031300000017,93.84619099999964,-27.820557000000008,85.12841800000024,30.641113000000587,112.30761700000039
119,32.05126999999993,45.38476599999922,91.53857400000015,96.6665039999998,110.89746099999957,100.0,92.43603499999972,105.64111300000059,73.20507799999996,94.48730499999965,-31.923095999999987,79.74365200000011,26.410155999999915,102.56396500000028
120,36.9228520000006,49.48730499999965,92.56396500000028,100.51269500000035,114.23095699999976,106.2822270000006,98.58984400000008,106.9228520000006,76.41015599999992,99.61523400000078,-23.205077999999958,82.30761700000039,29.871581999999762,97.56396500000028
121,44.87158199999976,56.410155999999915,98.84619099999964,107.30761700000039,115.0,111.79492200000004,106.6665039999998,107.69238299999961,79.61523400000078,103.7177729999994,-9.102538999999979,88.46142599999985,37.30761700000039,104.74365200000011
122,50.12841800000024,60.64111300000059,103.3334960000002,111.15380900000036,113.7177729999994,112.69238299999961,108.58984400000008,105.76904300000024,80.89746099999957,103.84619099999964,0.38476599999921746,91.53857400000015,43.974121000000196,113.0771479999994
123,52.05126999999993,62.17968800000017,103.20507799999996,111.15380900000036,113.7177729999994,110.64111300000059,104.35888699999941,102.30761700000039,81.2822270000006,100.89746099999957,2.9487300000000687,90.64111300000059,47.94873000000007,112.05126999999993
124,51.79492200000004,61.79492200000004,101.6665039999998,109.61523400000078,114.48730499999965,107.17968800000017,98.7177729999994,100.89746099999957,81.9228520000006,97.43603499999972,2.1796880000001693,88.58984400000008,47.82031300000017,107.56396500000028
125,48.46142599999985,58.333496000000196,100.51269500000035,108.3334960000002,111.9228520000006,102.30761700000039,94.74365200000011,101.6665039999998,82.56396500000028,95.12841800000024,0.512695000000349,86.9228520000006,41.666503999999804,108.84619099999964
126,43.589844000000085,52.82031300000017,98.46142599999985,106.9228520000006,106.0258789999998,97.05126999999993,92.69238299999961,102.56396500000028,83.0771479999994,95.76904300000024,-0.6411130000005869,85.0,32.30761700000039,112.43603499999972
127,41.53857400000015,49.74365200000011,95.89746099999957,105.51269500000035,102.17968800000017,94.74365200000011,92.17968800000017,102.30761700000039,84.61523400000078,100.51269500000035,1.153809000000365,83.3334960000002,27.05126999999993,110.64111300000059
128,44.74365200000011,51.025878999999804,96.15380900000036,105.0,102.82031300000017,95.76904300000024,92.17968800000017,101.9228520000006,87.69238299999961,106.53857400000015,7.307617000000391,83.3334960000002,30.0,107.69238299999961
129,49.23095699999976,52.82031300000017,99.87158199999976,105.25634799999989,103.58984400000008,96.6665039999998,91.0258789999998,101.9228520000006,91.53857400000015,108.3334960000002,15.128418000000238,84.35888699999941,37.43603499999972,111.41015599999992
130,50.0,50.51269500000035,102.30761700000039,104.87158199999976,99.35888699999941,95.38476599999922,88.46142599999985,102.05126999999993,95.12841800000024,105.38476599999922,21.282227000000603,83.9741210000002,43.20507799999996,116.6665039999998
131,47.69238299999961,45.897460999999566,100.38476599999922,103.7177729999994,92.30761700000039,94.10253900000043,87.30761700000039,102.05126999999993,98.58984400000008,103.7177729999994,26.282227000000603,82.69238299999961,45.12841800000024,112.69238299999961
132,46.79492200000004,43.846190999999635,96.9228520000006,103.9741210000002,89.23095699999976,95.51269500000035,90.89746099999957,103.20507799999996,103.20507799999996,109.10253900000043,33.46142599999985,84.10253900000043,45.12841800000024,102.94873000000007
133,49.23095699999976,45.76904300000024,97.17968800000017,106.9228520000006,93.46142599999985,97.94873000000007,98.20507799999996,106.0258789999998,108.58984400000008,118.84619099999964,43.589844000000085,89.74365200000011,45.25634799999989,101.41015599999992
134,53.7177729999994,49.48730499999965,101.0258789999998,111.0258789999998,103.58984400000008,99.35888699999941,104.74365200000011,109.23095699999976,113.20507799999996,126.41015599999992,53.846190999999635,96.9228520000006,45.38476599999922,109.74365200000011
135,58.0771479999994,53.0771479999994,104.23095699999976,113.0771479999994,115.64111300000059,100.76904300000024,106.79492200000004,111.79492200000004,116.79492200000004,128.46142599999985,61.153809000000365,101.53857400000015,46.2822270000006,115.0
136,59.87158199999976,55.12841800000024,104.61523400000078,112.56396500000028,123.84619099999964,104.23095699999976,105.25634799999989,113.20507799999996,120.76904300000024,127.30761700000039,65.64111300000059,101.79492200000004,47.43603499999972,111.53857400000015
137,56.53857400000015,52.94873000000007,103.84619099999964,111.0258789999998,122.17968800000017,107.56396500000028,103.46142599999985,113.0771479999994,125.38476599999922,125.38476599999922,69.48730499999965,99.10253900000043,46.666503999999804,108.20507799999996
138,49.23095699999976,45.51269500000035,104.10253900000043,110.12841800000024,110.12841800000024,107.43603499999972,106.79492200000004,112.17968800000017,129.23095699999976,123.7177729999994,75.76904300000024,96.9228520000006,42.43603499999972,110.76904300000024
139,45.0,38.589844000000085,106.6665039999998,111.41015599999992,98.58984400000008,105.89746099999957,118.9741210000002,112.17968800000017,131.9228520000006,124.48730499999965,87.82031300000017,98.9741210000002,38.974121000000196,111.6665039999998
140,50.25634799999989,39.48730499999965,112.30761700000039,115.12841800000024,100.89746099999957,109.10253900000043,137.43603499999972,115.12841800000024,133.9741210000002,130.38476599999922,104.87158199999976,106.6665039999998,41.79492200000004,106.2822270000006
141,59.74365200000011,46.9228520000006,118.20507799999996,119.23095699999976,118.46142599999985,118.0771479999994,150.38476599999922,119.87158199999976,135.38476599999922,138.46142599999985,119.10253900000043,114.10253900000043,48.46142599999985,103.46142599999985
142,59.74365200000011,49.74365200000011,117.56396500000028,118.7177729999994,137.17968800000017,126.0258789999998,144.87158199999976,121.6665039999998,134.87158199999976,140.6411130000006,120.64111300000059,111.0258789999998,48.589844000000085,109.23095699999976
143,42.69238299999961,39.61523400000078,104.48730499999965,110.89746099999957,140.6411130000006,126.41015599999992,118.9741210000002,116.79492200000004,131.9228520000006,132.05126999999993,107.56396500000028,92.94873000000007,35.51269500000035,114.35888699999941
144,15.128418000000238,20.0,83.3334960000002,99.48730499999965,125.76904300000024,119.61523400000078,86.53857400000015,107.30761700000039,128.58984400000008,118.20507799999996,88.7177729999994,67.30761700000039,14.358886999999413,109.23095699999976
145,-8.076904000000013,1.9228520000006029,66.41015599999992,92.30761700000039,103.3334960000002,110.89746099999957,65.64111300000059,98.9741210000002,127.43603499999972,108.0771479999994,75.64111300000059,47.17968800000017,-3.077147999999397,101.0258789999998
146,-16.41015600000037,-5.0,63.20507799999996,93.9741210000002,88.84619099999964,104.61523400000078,65.38476599999922,95.64111300000059,129.23095699999976,106.79492200000004,74.61523400000078,41.410155999999915,-8.205077999999958,102.05126999999993
147,-7.435790999999426,2.4360349999997197,72.82031300000017,102.56396500000028,92.94873000000007,105.12841800000024,80.89746099999957,97.69238299999961,133.3334960000002,114.48730499999965,85.76904300000024,49.87158199999976,1.153809000000365,108.84619099999964
148,13.077147999999397,21.538574000000153,87.17968800000017,112.05126999999993,115.51269500000035,115.0,99.74365200000011,103.20507799999996,138.9741210000002,129.87158199999976,104.87158199999976,65.38476599999922,21.282227000000603,109.87158199999976
149,32.82031300000017,42.30761700000039,97.43603499999972,116.41015599999992,142.6923829999996,130.0,108.84619099999964,108.7177729999994,144.10253900000043,147.6923829999996,123.46142599999985,78.3334960000002,41.9228520000006,105.51269500000035
150,39.102539000000434,52.05126999999993,98.3334960000002,113.0771479999994,155.12841800000024,137.82031300000017,102.17968800000017,110.64111300000059,145.51269500000035,156.53857400000015,132.05126999999993,80.76904300000024,50.51269500000035,106.0258789999998
151,30.897460999999566,46.53857400000015,91.41015599999992,105.89746099999957,142.43603499999972,128.58984400000008,87.43603499999972,107.82031300000017,141.0258789999998,146.79492200000004,129.23095699999976,73.46142599999985,43.333496000000196,111.41015599999992
152,22.69238299999961,35.38476599999922,86.2822270000006,103.84619099999964,113.20507799999996,107.30761700000039,81.9228520000006,104.48730499999965,133.7177729999994,121.9228520000006,126.41015599999992,68.3334960000002,31.794922000000042,111.79492200000004
153,31.025878999999804,33.333496000000196,95.12841800000024,113.84619099999964,87.69238299999961,91.15380900000036,98.7177729999994,106.79492200000004,129.7436520000001,97.94873000000007,138.3334960000002,79.61523400000078,31.666503999999804,106.6665039999998
154,57.05126999999993,45.64111300000059,118.7177729999994,132.6923829999996,81.9228520000006,93.7177729999994,132.82031300000017,115.89746099999957,132.82031300000017,91.0258789999998,166.53857400000015,107.82031300000017,47.43603499999972,106.41015599999992
155,84.35888699999941,63.46142599999985,141.9228520000006,146.0258789999998,97.17968800000017,113.7177729999994,163.3334960000002,126.15380900000036,139.7436520000001,104.61523400000078,196.0258789999998,135.76904300000024,67.69238299999961,113.0771479999994
156,93.20507799999996,74.35888699999941,145.76904300000024,141.6665039999998,123.0771479999994,138.46142599999985,169.61523400000078,130.2563479999999,144.48730499999965,128.46142599999985,206.79492200000004,142.56396500000028,77.69238299999961,116.0258789999998
157,76.15380900000036,71.53857400000015,125.38476599999922,120.12841800000024,145.38476599999922,153.0771479999994,146.6665039999998,125.25634799999989,142.82031300000017,146.41015599999992,189.61523400000078,120.38476599999922,70.12841800000024,110.64111300000059
158,41.153809000000365,56.53857400000015,92.30761700000039,94.10253900000043,151.53857400000015,148.84619099999964,106.15380900000036,113.46142599999985,134.7436520000001,146.15380900000036,151.79492200000004,79.74365200000011,48.46142599999985,107.30761700000039
159,5.512695000000349,37.43603499999972,63.974121000000196,77.43603499999972,137.43603499999972,128.46142599999985,67.94873000000007,100.12841800000024,124.23095699999976,127.17968800000017,112.43603499999972,41.410155999999915,23.077147999999397,112.56396500000028
160,-12.948729999999614,25.769043000000238,52.17968800000017,76.41015599999992,112.05126999999993,106.0258789999998,48.846190999999635,90.38476599999922,116.79492200000004,102.05126999999993,92.43603499999972,23.846190999999635,7.307617000000391,117.17968800000017
161,-6.153809000000365,29.102539000000434,60.25634799999989,88.84619099999964,91.53857400000015,97.43603499999972,55.25634799999989,88.46142599999985,116.6665039999998,87.82031300000017,101.15380900000036,33.333496000000196,9.487304999999651,112.82031300000017
162,18.333496000000196,43.974121000000196,81.41015599999992,107.05126999999993,85.76904300000024,106.9228520000006,79.35888699999941,95.12841800000024,123.20507799999996,92.05126999999993,128.7177729999994,59.74365200000011,26.282227000000603,106.2822270000006
163,43.333496000000196,58.846190999999635,102.43603499999972,121.15380900000036,92.05126999999993,123.9741210000002,105.0,105.89746099999957,131.0258789999998,107.30761700000039,154.61523400000078,84.10253900000043,44.48730499999965,107.94873000000007
164,55.25634799999989,64.23095699999976,110.64111300000059,124.61523400000078,100.38476599999922,133.84619099999964,119.10253900000043,114.35888699999941,135.38476599999922,119.23095699999976,164.10253900000043,92.56396500000028,53.20507799999996,113.58984400000008
165,53.974121000000196,60.38476599999922,105.0,118.7177729999994,103.9741210000002,130.12841800000024,119.61523400000078,117.43603499999972,135.51269500000035,117.82031300000017,160.0,86.53857400000015,52.56396500000028,113.20507799999996
166,47.56396500000028,53.7177729999994,95.64111300000059,110.76904300000024,102.43603499999972,118.0771479999994,112.82031300000017,116.15380900000036,133.3334960000002,103.84619099999964,154.48730499999965,78.46142599999985,48.46142599999985,109.48730499999965
167,42.94873000000007,48.974121000000196,92.17968800000017,107.05126999999993,98.84619099999964,107.05126999999993,105.38476599999922,112.94873000000007,130.0,86.41015599999992,154.87158199999976,77.82031300000017,44.87158199999976,111.0258789999998
168,41.9228520000006,47.69238299999961,94.87158199999976,107.94873000000007,97.56396500000028,104.74365200000011,100.25634799999989,109.48730499999965,126.41015599999992,77.30761700000039,158.3334960000002,83.84619099999964,43.20507799999996,115.25634799999989
169,44.74365200000011,50.12841800000024,98.58984400000008,110.64111300000059,101.9228520000006,112.30761700000039,98.3334960000002,107.17968800000017,123.7177729999994,83.84619099999964,159.10253900000043,90.76904300000024,45.38476599999922,112.17968800000017
170,50.38476599999922,55.38476599999922,101.6665039999998,113.84619099999964,110.51269500000035,124.61523400000078,100.89746099999957,107.17968800000017,123.84619099999964,102.94873000000007,156.0258789999998,95.12841800000024,52.05126999999993,104.10253900000043
171,57.30761700000039,62.17968800000017,105.76904300000024,116.79492200000004,118.46142599999985,133.9741210000002,107.56396500000028,109.74365200000011,127.05126999999993,123.20507799999996,153.7177729999994,98.46142599999985,60.897460999999566,103.0771479999994
172,63.46142599999985,70.0,109.74365200000011,117.69238299999961,122.56396500000028,136.9228520000006,115.89746099999957,113.58984400000008,131.6665039999998,134.10253900000043,156.53857400000015,102.69238299999961,68.20507799999996,110.51269500000035
173,67.94873000000007,79.48730499999965,110.0,114.87158199999976,124.48730499999965,135.12841800000024,121.79492200000004,116.15380900000036,135.51269500000035,133.0771479999994,164.10253900000043,106.9228520000006,71.53857400000015,114.23095699999976
174,70.64111300000059,89.48730499999965,106.0258789999998,110.64111300000059,126.6665039999998,132.05126999999993,122.30761700000039,116.15380900000036,137.05126999999993,124.35888699999941,170.2563479999999,108.46142599999985,71.41015599999992,108.9741210000002
175,71.2822270000006,95.12841800000024,102.30761700000039,110.12841800000024,127.17968800000017,128.0771479999994,118.7177729999994,114.74365200000011,136.0258789999998,114.10253900000043,170.38476599999922,106.9228520000006,69.23095699999976,104.48730499999965
176,71.41015599999992,92.69238299999961,103.46142599999985,115.38476599999922,123.46142599999985,123.20507799999996,116.53857400000015,114.48730499999965,133.9741210000002,109.23095699999976,166.0258789999998,105.51269500000035,68.0771479999994,107.43603499999972
177,74.23095699999976,86.41015599999992,110.0,122.82031300000017,117.56396500000028,121.0258789999998,121.9228520000006,117.43603499999972,133.9741210000002,115.25634799999989,165.38476599999922,108.9741210000002,71.53857400000015,110.25634799999989
178,80.0,82.82031300000017,118.7177729999994,125.89746099999957,113.84619099999964,124.74365200000011,134.23095699999976,123.0771479999994,137.56396500000028,130.2563479999999,173.58984400000008,117.94873000000007,78.7177729999994,106.79492200000004
179,82.43603499999972,83.0771479999994,124.48730499999965,121.53857400000015,112.82031300000017,131.6665039999998,144.48730499999965,127.56396500000028,141.53857400000015,142.56396500000028,184.87158199999976,125.38476599999922,82.43603499999972,104.74365200000011
180,74.74365200000011,81.6665039999998,121.79492200000004,111.15380900000036,110.12841800000024,133.9741210000002,142.82031300000017,126.6665039999998,140.76904300000024,139.61523400000078,186.9228520000006,122.43603499999972,74.87158199999976,111.15380900000036
181,58.589844000000085,74.87158199999976,109.10253900000043,100.0,103.20507799999996,127.82031300000017,128.3334960000002,119.35888699999941,133.58984400000008,120.25634799999989,173.46142599999985,106.79492200000004,57.94873000000007,118.0771479999994
182,43.46142599999985,65.12841800000024,92.82031300000017,94.10253900000043,94.35888699999941,116.6665039999998,110.12841800000024,110.25634799999989,124.10253900000043,97.30761700000039,150.2563479999999,86.41015599999992,42.30761700000039,115.51269500000035
183,36.410155999999915,56.2822270000006,83.20507799999996,95.89746099999957,87.30761700000039,106.0258789999998,97.82031300000017,104.61523400000078,117.82031300000017,84.35888699999941,128.9741210000002,71.9228520000006,35.12841800000024,108.84619099999964
184,35.76904300000024,49.23095699999976,84.48730499999965,102.69238299999961,84.35888699999941,99.23095699999976,93.3334960000002,103.9741210000002,116.53857400000015,84.10253900000043,117.05126999999993,67.94873000000007,34.35888699999941,109.23095699999976
185,37.30761700000039,45.12841800000024,91.2822270000006,108.7177729999994,86.6665039999998,97.94873000000007,93.46142599999985,105.76904300000024,118.9741210000002,91.0258789999998,115.25634799999989,71.15380900000036,33.846190999999635,114.10253900000043
186,38.846190999999635,46.410155999999915,95.51269500000035,109.87158199999976,93.20507799999996,103.3334960000002,94.61523400000078,106.79492200000004,122.56396500000028,98.7177729999994,121.2822270000006,76.0258789999998,32.05126999999993,113.0771479999994
187,40.25634799999989,52.56396500000028,94.74365200000011,106.6665039999998,99.61523400000078,112.56396500000028,94.61523400000078,105.12841800000024,125.25634799999989,102.82031300000017,130.51269500000035,78.46142599999985,30.641113000000587,106.79492200000004
188,40.38476599999922,57.94873000000007,91.53857400000015,101.6665039999998,100.12841800000024,118.7177729999994,92.94873000000007,101.2822270000006,125.38476599999922,100.38476599999922,138.3334960000002,76.53857400000015,31.282227000000603,106.0258789999998
189,40.0,57.94873000000007,89.35888699999941,97.43603499999972,94.74365200000011,118.46142599999985,91.15380900000036,97.69238299999961,122.94873000000007,93.58984400000008,142.94873000000007,72.30761700000039,35.12841800000024,111.41015599999992
190,42.94873000000007,55.0,90.25634799999989,96.53857400000015,90.76904300000024,116.0258789999998,93.58984400000008,98.20507799999996,120.76904300000024,90.12841800000024,147.05126999999993,71.41015599999992,44.23095699999976,112.43603499999972
191,50.897460999999566,53.974121000000196,95.51269500000035,101.2822270000006,94.23095699999976,117.30761700000039,101.6665039999998,104.35888699999941,121.6665039999998,95.64111300000059,152.56396500000028,77.17968800000017,57.43603499999972,106.9228520000006
192,59.102539000000434,56.025878999999804,102.56396500000028,109.74365200000011,103.20507799999996,121.41015599999992,110.51269500000035,112.82031300000017,125.25634799999989,106.9228520000006,156.15380900000036,86.15380900000036,67.94873000000007,105.25634799999989
193,61.9228520000006,59.23095699999976,105.89746099999957,116.6665039999998,110.25634799999989,123.58984400000008,114.10253900000043,117.69238299999961,128.58984400000008,116.15380900000036,153.46142599999985,91.2822270000006,70.51269500000035,110.89746099999957
194,61.2822270000006,65.12841800000024,102.82031300000017,117.69238299999961,112.05126999999993,122.94873000000007,113.0771479999994,117.05126999999993,130.51269500000035,120.64111300000059,147.6923829999996,91.0258789999998,68.58984400000008,113.3334960000002
195,63.46142599999985,75.25634799999989,98.0771479999994,113.46142599999985,110.0,122.82031300000017,113.58984400000008,114.35888699999941,132.17968800000017,123.0771479999994,146.15380900000036,90.51269500000035,70.0,107.05126999999993
196,69.35888699999941,84.35888699999941,98.3334960000002,108.0771479999994,104.23095699999976,123.58984400000008,117.82031300000017,113.58984400000008,134.10253900000043,123.46142599999985,150.89746099999957,93.20507799999996,74.87158199999976,102.05126999999993
197,72.30761700000039,83.3334960000002,103.84619099999964,104.74365200000011,93.58984400000008,121.41015599999992,121.15380900000036,114.74365200000011,134.48730499999965,117.69238299999961,155.89746099999957,97.05126999999993,75.25634799999989,106.41015599999992
198,68.58984400000008,70.38476599999922,108.9741210000002,104.74365200000011,82.30761700000039,115.51269500000035,119.48730499999965,115.38476599999922,132.17968800000017,105.76904300000024,155.0,98.0771479999994,67.05126999999993,112.56396500000028
199,61.79492200000004,55.38476599999922,109.48730499999965,107.82031300000017,81.0258789999998,111.15380900000036,114.10253900000043,114.74365200000011,129.10253900000043,95.38476599999922,149.10253900000043,96.2822270000006,56.9228520000006,110.38476599999922
200,57.43603499999972,49.74365200000011,106.41015599999992,111.41015599999992,95.51269500000035,112.94873000000007,108.58984400000008,113.58984400000008,127.82031300000017,94.35888699999941,142.56396500000028,93.7177729999994,53.46142599999985,105.38476599999922
201,55.64111300000059,55.76904300000024,101.53857400000015,111.41015599999992,117.43603499999972,119.23095699999976,103.58984400000008,111.9228520000006,128.7177729999994,101.15380900000036,136.53857400000015,90.51269500000035,57.69238299999961,107.69238299999961
202,53.846190999999635,67.17968800000017,95.64111300000059,106.0258789999998,130.6411130000006,124.48730499999965,98.3334960000002,109.35888699999941,130.38476599999922,107.69238299999961,130.0,85.76904300000024,63.333496000000196,113.58984400000008
203,52.30761700000039,76.9228520000006,90.38476599999922,99.48730499999965,125.25634799999989,125.51269500000035,94.23095699999976,106.6665039999998,131.15380900000036,107.56396500000028,123.7177729999994,81.0258789999998,65.51269500000035,113.0771479999994
204,52.43603499999972,80.0,89.35888699999941,98.58984400000008,104.48730499999965,122.56396500000028,92.43603499999972,105.12841800000024,130.89746099999957,100.89746099999957,120.76904300000024,79.48730499999965,62.43603499999972,107.69238299999961
205,53.589844000000085,75.51269500000035,93.58984400000008,105.25634799999989,82.43603499999972,117.69238299999961,92.69238299999961,104.87158199999976,129.7436520000001,91.6665039999998,122.43603499999972,82.05126999999993,55.897460999999566,107.94873000000007
206,55.51269500000035,68.7177729999994,99.10253900000043,114.35888699999941,74.61523400000078,114.10253900000043,94.35888699999941,105.0,128.84619099999964,86.6665039999998,128.58984400000008,86.79492200000004,50.76904300000024,112.94873000000007
207,60.25634799999989,67.43603499999972,102.30761700000039,119.23095699999976,87.94873000000007,115.64111300000059,99.48730499999965,106.15380900000036,129.7436520000001,90.64111300000059,137.82031300000017,92.05126999999993,53.589844000000085,112.56396500000028
208,68.0771479999994,74.10253900000043,104.35888699999941,118.0771479999994,112.69238299999961,122.17968800000017,108.3334960000002,109.35888699999941,133.20507799999996,102.17968800000017,146.9228520000006,97.17968800000017,65.0,106.0258789999998
209,73.58984400000008,81.41015599999992,107.17968800000017,113.58984400000008,127.43603499999972,127.69238299999961,117.05126999999993,113.7177729999994,137.6923829999996,112.17968800000017,150.76904300000024,100.12841800000024,76.0258789999998,104.61523400000078
210,72.43603499999972,82.43603499999972,109.87158199999976,109.87158199999976,119.10253900000043,125.89746099999957,120.51269500000035,115.89746099999957,140.38476599999922,113.3334960000002,147.05126999999993,99.48730499999965,77.82031300000017,111.15380900000036
211,68.20507799999996,79.61523400000078,110.25634799999989,109.87158199999976,97.56396500000028,118.84619099999964,119.61523400000078,114.48730499999965,141.2822270000006,108.3334960000002,140.6411130000006,97.69238299999961,72.69238299999961,114.87158199999976
212,70.12841800000024,82.30761700000039,110.51269500000035,115.0,86.6665039999998,114.48730499999965,120.0,112.56396500000028,142.43603499999972,107.17968800000017,140.76904300000024,100.64111300000059,72.05126999999993,110.38476599999922
213,81.15380900000036,93.7177729999994,113.3334960000002,122.43603499999972,99.87158199999976,117.69238299999961,124.61523400000078,113.7177729999994,144.87158199999976,114.87158199999976,150.0,110.25634799999989,81.9228520000006,107.43603499999972
214,93.3334960000002,105.89746099999957,116.6665039999998,125.89746099999957,127.56396500000028,125.89746099999957,129.23095699999976,117.43603499999972,146.6665039999998,125.51269500000035,161.0258789999998,120.38476599999922,95.12841800000024,112.43603499999972
215,96.15380900000036,107.94873000000007,114.74365200000011,120.38476599999922,147.05126999999993,131.79492200000004,126.53857400000015,119.48730499999965,145.12841800000024,128.9741210000002,163.0771479999994,121.41015599999992,99.23095699999976,117.05126999999993
216,85.25634799999989,96.41015599999992,106.53857400000015,108.0771479999994,142.17968800000017,130.0,113.9741210000002,116.79492200000004,140.12841800000024,120.64111300000059,151.9228520000006,109.61523400000078,88.0771479999994,113.20507799999996
217,65.38476599999922,76.41015599999992,96.79492200000004,96.0258789999998,114.35888699999941,119.23095699999976,95.0,110.25634799999989,134.23095699999976,103.84619099999964,131.9228520000006,90.25634799999989,66.0258789999998,107.30761700000039
218,45.64111300000059,58.20507799999996,90.25634799999989,90.64111300000059,80.89746099999957,103.58984400000008,77.69238299999961,103.58984400000008,130.51269500000035,86.79492200000004,112.82031300000017,72.94873000000007,44.74365200000011,108.84619099999964
219,35.76904300000024,51.79492200000004,87.82031300000017,93.46142599999985,62.43603499999972,92.56396500000028,69.74365200000011,100.38476599999922,131.15380900000036,77.56396500000028,104.74365200000011,66.0258789999998,35.51269500000035,112.82031300000017
220,40.38476599999922,60.64111300000059,89.23095699999976,102.05126999999993,68.9741210000002,94.10253900000043,74.23095699999976,102.69238299999961,135.89746099999957,79.35888699999941,111.79492200000004,72.17968800000017,42.69238299999961,110.64111300000059
221,55.12841800000024,77.56396500000028,95.25634799999989,112.30761700000039,91.6665039999998,107.17968800000017,86.41015599999992,108.7177729999994,141.79492200000004,87.82031300000017,128.3334960000002,86.9228520000006,58.974121000000196,106.0258789999998
222,67.82031300000017,88.84619099999964,103.7177729999994,118.58984400000008,110.89746099999957,121.15380900000036,97.69238299999961,113.46142599999985,144.61523400000078,95.38476599999922,142.56396500000028,100.38476599999922,71.41015599999992,108.7177729999994
223,70.76904300000024,87.30761700000039,109.10253900000043,117.05126999999993,114.10253900000043,126.6665039999998,102.82031300000017,113.0771479999994,142.6923829999996,98.46142599999985,145.76904300000024,104.87158199999976,73.46142599999985,115.51269500000035
224,67.17968800000017,78.20507799999996,109.10253900000043,109.74365200000011,105.0,123.46142599999985,104.23095699999976,108.84619099999964,138.46142599999985,100.38476599999922,139.87158199999976,101.0258789999998,70.64111300000059,115.0
225,66.0258789999998,72.94873000000007,107.69238299999961,104.23095699999976,95.89746099999957,118.46142599999985,107.56396500000028,105.76904300000024,136.2822270000006,104.61523400000078,133.46142599999985,96.6665039999998,71.53857400000015,107.82031300000017
226,71.79492200000004,76.79492200000004,110.0,106.2822270000006,94.48730499999965,117.05126999999993,115.0,107.56396500000028,137.17968800000017,109.10253900000043,133.0771479999994,98.7177729999994,77.82031300000017,105.76904300000024
227,81.2822270000006,86.79492200000004,115.38476599999922,114.61523400000078,100.0,121.53857400000015,123.0771479999994,112.69238299999961,139.7436520000001,110.0,138.9741210000002,106.2822270000006,84.61523400000078,111.41015599999992
228,88.7177729999994,97.56396500000028,118.58984400000008,122.17968800000017,108.20507799999996,130.51269500000035,127.05126999999993,116.9228520000006,141.53857400000015,106.41015599999992,147.3076170000004,113.3334960000002,87.43603499999972,113.9741210000002
229,89.74365200000011,104.61523400000078,116.79492200000004,123.20507799999996,114.87158199999976,139.48730499999965,123.84619099999964,117.43603499999972,141.9228520000006,100.76904300000024,152.56396500000028,114.10253900000043,85.89746099999957,109.10253900000043
230,82.94873000000007,104.87158199999976,111.15380900000036,117.43603499999972,116.53857400000015,141.6665039999998,113.7177729999994,113.58984400000008,140.6411130000006,93.9741210000002,150.12841800000024,107.43603499999972,80.51269500000035,106.6665039999998
231,71.15380900000036,98.58984400000008,104.35888699999941,109.61523400000078,112.30761700000039,133.3334960000002,100.76904300000024,107.94873000000007,138.58984400000008,86.15380900000036,139.61523400000078,96.41015599999992,73.3334960000002,111.41015599999992
232,62.43603499999972,90.76904300000024,98.9741210000002,105.76904300000024,107.17968800000017,120.25634799999989,91.6665039999998,104.10253900000043,137.17968800000017,80.64111300000059,128.0771479999994,88.20507799999996,69.10253900000043,114.10253900000043
233,64.61523400000078,88.9741210000002,98.84619099999964,109.23095699999976,107.82031300000017,112.56396500000028,92.30761700000039,105.0,138.3334960000002,82.30761700000039,124.48730499999965,89.23095699999976,72.43603499999972,108.58984400000008
234,77.17968800000017,94.48730499999965,106.2822270000006,118.20507799999996,115.89746099999957,115.12841800000024,102.05126999999993,110.25634799999989,142.05126999999993,91.6665039999998,132.3076170000004,99.74365200000011,82.43603499999972,103.3334960000002
235,91.79492200000004,102.82031300000017,117.30761700000039,125.76904300000024,126.53857400000015,124.23095699999976,114.74365200000011,116.53857400000015,146.41015599999992,103.46142599999985,146.41015599999992,113.46142599999985,92.82031300000017,107.30761700000039
236,100.38476599999922,109.10253900000043,124.35888699999941,125.76904300000024,133.84619099999964,133.3334960000002,123.84619099999964,120.76904300000024,148.9741210000002,111.79492200000004,158.7177729999994,122.43603499999972,98.0771479999994,113.58984400000008
237,100.64111300000059,112.30761700000039,122.82031300000017,118.20507799999996,134.7436520000001,138.20507799999996,125.64111300000059,122.05126999999993,149.48730499999965,114.35888699999941,164.3588869999994,123.3334960000002,97.30761700000039,112.17968800000017
238,94.61523400000078,112.05126999999993,116.15380900000036,109.61523400000078,128.20507799999996,136.0258789999998,120.38476599999922,121.15380900000036,147.82031300000017,110.51269500000035,162.17968800000017,117.43603499999972,92.43603499999972,107.82031300000017
239,86.9228520000006,108.84619099999964,110.38476599999922,106.9228520000006,116.53857400000015,126.2822270000006,112.17968800000017,118.84619099999964,145.12841800000024,102.17968800000017,155.2563479999999,109.61523400000078,86.79492200000004,110.89746099999957
240,84.35888699999941,106.6665039999998,109.61523400000078,111.41015599999992,108.0771479999994,113.46142599999985,108.7177729999994,116.6665039999998,143.20507799999996,95.64111300000059,149.7436520000001,105.51269500000035,86.79492200000004,117.56396500000028
241,91.41015599999992,109.61523400000078,113.7177729999994,118.9741210000002,110.0,106.41015599999992,114.61523400000078,116.2822270000006,143.9741210000002,98.0771479999994,150.6411130000006,108.46142599999985,96.9228520000006,116.41015599999992
242,102.82031300000017,115.76904300000024,119.87158199999976,123.20507799999996,118.9741210000002,109.61523400000078,125.76904300000024,117.94873000000007,146.9228520000006,109.48730499999965,157.05126999999993,115.76904300000024,113.0771479999994,108.0771479999994
243,107.69238299999961,117.17968800000017,123.46142599999985,120.12841800000024,122.30761700000039,118.84619099999964,131.41015599999992,119.35888699999941,148.20507799999996,119.48730499999965,161.79492200000004,120.38476599999922,122.17968800000017,104.61523400000078
244,101.0258789999998,110.38476599999922,121.0258789999998,111.9228520000006,112.69238299999961,126.6665039999998,125.64111300000059,117.82031300000017,145.2563479999999,118.7177729999994,160.38476599999922,118.3334960000002,116.15380900000036,108.3334960000002
245,90.89746099999957,102.56396500000028,114.23095699999976,106.0258789999998,99.10253900000043,130.38476599999922,114.35888699999941,114.48730499999965,140.38476599999922,109.48730499999965,156.0258789999998,113.20507799999996,101.9228520000006,109.87158199999976
246,88.3334960000002,103.46142599999985,110.12841800000024,108.58984400000008,97.43603499999972,132.3076170000004,108.58984400000008,112.82031300000017,137.94873000000007,102.17968800000017,154.10253900000043,111.41015599999992,93.0771479999994,106.2822270000006
247,94.10253900000043,112.69238299999961,111.9228520000006,118.0771479999994,112.17968800000017,132.94873000000007,110.76904300000024,113.58984400000008,138.9741210000002,101.9228520000006,154.3588869999994,113.9741210000002,95.12841800000024,106.0258789999998
248,99.74365200000011,120.38476599999922,115.38476599999922,125.38476599999922,132.56396500000028,130.0,114.10253900000043,114.61523400000078,140.89746099999957,104.87158199999976,152.17968800000017,115.25634799999989,101.41015599999992,111.6665039999998
249,99.10253900000043,120.64111300000059,114.10253900000043,123.20507799999996,145.12841800000024,124.48730499999965,112.43603499999972,113.9741210000002,141.41015599999992,105.76904300000024,146.41015599999992,112.17968800000017,103.84619099999964,113.3334960000002
250,94.23095699999976,116.15380900000036,108.3334960000002,113.7177729999994,144.87158199999976,120.76904300000024,105.89746099999957,112.69238299999961,140.6411130000006,104.74365200000011,141.2822270000006,107.05126999999993,101.0258789999998,106.53857400000015
251,89.23095699999976,111.2822270000006,103.84619099999964,105.64111300000059,134.7436520000001,121.15380900000036,98.3334960000002,112.05126999999993,139.48730499999965,104.10253900000043,140.38476599999922,104.48730499999965,96.2822270000006,101.9228520000006
252,86.2822270000006,107.94873000000007,104.10253900000043,105.25634799999989,120.76904300000024,122.43603499999972,92.56396500000028,111.53857400000015,137.94873000000007,103.46142599999985,142.17968800000017,104.87158199999976,92.69238299999961,107.43603499999972
253,86.41015599999992,107.17968800000017,107.05126999999993,111.6665039999998,109.87158199999976,121.79492200000004,90.38476599999922,109.74365200000011,136.2822270000006,101.41015599999992,143.7177729999994,106.9228520000006,92.43603499999972,114.48730499999965
254,91.15380900000036,110.89746099999957,110.64111300000059,119.87158199999976,106.79492200000004,118.9741210000002,93.9741210000002,107.82031300000017,135.89746099999957,98.46142599999985,144.3588869999994,110.25634799999989,97.05126999999993,112.56396500000028
255,98.7177729999994,117.56396500000028,114.61523400000078,124.48730499999965,110.25634799999989,115.25634799999989,102.30761700000039,107.94873000000007,137.56396500000028,96.53857400000015,144.3588869999994,115.0,104.35888699999941,106.79492200000004
256,104.23095699999976,122.94873000000007,118.3334960000002,123.20507799999996,114.74365200000011,111.41015599999992,111.6665039999998,111.15380900000036,140.2563479999999,97.05126999999993,143.46142599999985,119.23095699999976,109.87158199999976,107.56396500000028
257,106.2822270000006,124.74365200000011,119.74365200000011,117.69238299999961,118.58984400000008,111.0258789999998,118.84619099999964,115.89746099999957,142.82031300000017,101.41015599999992,142.3076170000004,121.53857400000015,112.43603499999972,111.53857400000015
258,108.20507799999996,126.53857400000015,119.35888699999941,113.7177729999994,125.76904300000024,118.46142599999985,124.35888699999941,120.64111300000059,145.38476599999922,111.15380900000036,143.9741210000002,123.46142599999985,115.89746099999957,109.61523400000078
259,111.41015599999992,130.0,119.61523400000078,115.89746099999957,137.43603499999972,132.6923829999996,128.46142599999985,123.84619099999964,147.82031300000017,123.0771479999994,148.9741210000002,127.05126999999993,121.53857400000015,104.48730499999965
260,110.51269500000035,130.0,120.12841800000024,121.41015599999992,145.51269500000035,143.7177729999994,126.9228520000006,123.58984400000008,147.94873000000007,128.46142599999985,152.17968800000017,128.7177729999994,123.20507799999996,106.2822270000006
261,100.0,121.2822270000006,116.0258789999998,123.0771479999994,139.61523400000078,141.79492200000004,116.15380900000036,118.7177729999994,143.58984400000008,120.89746099999957,148.3334960000002,122.69238299999961,114.61523400000078,113.3334960000002
262,85.25634799999989,107.82031300000017,106.6665039999998,118.20507799999996,121.15380900000036,128.20507799999996,101.53857400000015,112.17968800000017,136.6665039999998,104.74365200000011,139.48730499999965,111.0258789999998,100.12841800000024,113.84619099999964
263,79.10253900000043,100.51269500000035,99.61523400000078,112.82031300000017,103.46142599999985,114.10253900000043,94.87158199999976,109.48730499999965,132.82031300000017,92.69238299999961,134.10253900000043,103.46142599999985,91.53857400000015,107.43603499999972
264,87.56396500000028,105.51269500000035,102.82031300000017,113.58984400000008,98.46142599999985,109.23095699999976,102.82031300000017,113.0771479999994,135.38476599999922,92.56396500000028,137.94873000000007,107.69238299999961,95.51269500000035,105.38476599999922
265,103.0771479999994,117.17968800000017,113.46142599999985,118.9741210000002,106.41015599999992,114.23095699999976,119.10253900000043,119.74365200000011,142.17968800000017,101.41015599999992,148.20507799999996,119.87158199999976,107.05126999999993,110.64111300000059
266,113.0771479999994,125.76904300000024,121.0258789999998,121.41015599999992,118.9741210000002,123.46142599999985,131.53857400000015,123.58984400000008,147.3076170000004,109.87158199999976,156.79492200000004,128.9741210000002,115.64111300000059,112.82031300000017
267,111.15380900000036,125.38476599999922,119.10253900000043,116.79492200000004,127.94873000000007,130.6411130000006,132.6923829999996,122.17968800000017,147.43603499999972,111.2822270000006,157.3076170000004,127.69238299999961,115.25634799999989,107.69238299999961
268,100.12841800000024,117.43603499999972,111.0258789999998,108.46142599999985,130.76904300000024,132.3076170000004,124.74365200000011,117.82031300000017,142.94873000000007,105.38476599999922,149.23095699999976,117.94873000000007,107.05126999999993,104.74365200000011
269,89.35888699999941,108.3334960000002,103.3334960000002,103.0771479999994,130.51269500000035,130.2563479999999,116.41015599999992,114.87158199999976,137.6923829999996,97.56396500000028,137.3076170000004,107.82031300000017,98.46142599999985,110.12841800000024
270,88.20507799999996,105.89746099999957,101.15380900000036,105.0,132.82031300000017,129.7436520000001,116.15380900000036,116.2822270000006,136.0258789999998,95.51269500000035,129.87158199999976,105.51269500000035,98.7177729999994,114.48730499999965
271,99.74365200000011,112.94873000000007,106.41015599999992,113.7177729999994,140.38476599999922,134.87158199999976,126.6665039999998,122.17968800000017,140.38476599999922,103.7177729999994,133.58984400000008,113.9741210000002,111.2822270000006,109.61523400000078
272,116.6665039999998,124.10253900000043,117.17968800000017,123.9741210000002,148.9741210000002,141.41015599999992,142.05126999999993,129.23095699999976,148.46142599999985,118.46142599999985,147.05126999999993,128.46142599999985,128.84619099999964,103.0771479999994
273,127.05126999999993,129.61523400000078,126.9228520000006,129.23095699999976,150.76904300000024,141.2822270000006,152.56396500000028,133.20507799999996,154.48730499999965,131.0258789999998,160.76904300000024,138.7177729999994,138.20507799999996,104.87158199999976
274,124.74365200000011,125.64111300000059,128.20507799999996,125.38476599999922,142.94873000000007,132.56396500000028,152.3076170000004,131.9228520000006,154.3588869999994,136.0258789999998,165.51269500000035,137.82031300000017,133.3334960000002,109.87158199999976
275,113.9741210000002,116.6665039999998,120.38476599999922,115.12841800000024,131.15380900000036,121.9228520000006,142.56396500000028,126.9228520000006,148.9741210000002,134.23095699999976,158.7177729999994,127.43603499999972,120.25634799999989,108.0771479999994
276,102.43603499999972,109.61523400000078,110.0,105.89746099999957,122.82031300000017,117.43603499999972,128.3334960000002,121.2822270000006,142.6923829999996,128.3334960000002,144.61523400000078,114.74365200000011,108.0771479999994,103.7177729999994
277,93.7177729999994,106.53857400000015,102.94873000000007,102.17968800000017,119.48730499999965,119.74365200000011,113.9741210000002,116.53857400000015,138.3334960000002,118.46142599999985,130.12841800000024,105.64111300000059,100.64111300000059,107.43603499999972
278,87.94873000000007,106.2822270000006,99.35888699999941,103.84619099999964,118.0771479999994,124.35888699999941,102.94873000000007,112.82031300000017,136.53857400000015,105.76904300000024,121.9228520000006,101.0258789999998,97.05126999999993,115.89746099999957
279,86.41015599999992,107.82031300000017,97.82031300000017,107.69238299999961,116.15380900000036,127.30761700000039,99.10253900000043,110.76904300000024,137.05126999999993,94.74365200000011,124.23095699999976,100.76904300000024,97.43603499999972,116.6665039999998
280,90.25634799999989,110.51269500000035,99.74365200000011,111.41015599999992,114.48730499999965,127.17968800000017,103.9741210000002,111.6665039999998,139.3588869999994,90.25634799999989,135.12841800000024,104.87158199999976,102.17968800000017,108.84619099999964
281,97.05126999999993,111.9228520000006,106.53857400000015,113.9741210000002,113.7177729999994,124.10253900000043,114.87158199999976,115.25634799999989,141.53857400000015,92.05126999999993,146.41015599999992,112.82031300000017,108.58984400000008,103.9741210000002
282,103.20507799999996,110.64111300000059,114.87158199999976,114.61523400000078,115.12841800000024,120.38476599999922,125.38476599999922,119.35888699999941,142.05126999999993,96.53857400000015,149.7436520000001,121.41015599999992,112.43603499999972,106.41015599999992
283,106.6665039999998,109.10253900000043,118.9741210000002,114.10253900000043,120.38476599999922,120.51269500000035,130.12841800000024,122.30761700000039,140.76904300000024,101.0258789999998,144.10253900000043,126.9228520000006,112.17968800000017,107.94873000000007
284,107.69238299999961,109.87158199999976,117.94873000000007,114.74365200000011,129.23095699999976,125.89746099999957,127.94873000000007,124.23095699999976,138.9741210000002,104.48730499999965,135.12841800000024,127.56396500000028,109.35888699999941,106.15380900000036
285,106.6665039999998,112.17968800000017,115.51269500000035,118.20507799999996,137.3076170000004,130.76904300000024,122.17968800000017,125.38476599999922,137.82031300000017,105.25634799999989,128.9741210000002,124.35888699999941,105.38476599999922,108.58984400000008
286,105.64111300000059,114.61523400000078,115.25634799999989,123.0771479999994,140.2563479999999,128.7177729999994,119.35888699999941,125.76904300000024,138.0771479999994,103.3334960000002,129.3588869999994,121.2822270000006,102.82031300000017,116.53857400000015
287,109.10253900000043,119.23095699999976,118.20507799999996,125.76904300000024,139.7436520000001,122.30761700000039,126.0258789999998,126.0258789999998,140.6411130000006,102.94873000000007,136.0258789999998,123.20507799999996,106.0258789999998,118.58984400000008
288,118.20507799999996,128.0771479999994,123.46142599999985,123.46142599999985,140.38476599999922,120.25634799999989,140.6411130000006,127.05126999999993,145.38476599999922,107.69238299999961,145.38476599999922,131.2822270000006,116.2822270000006,109.48730499999965
289,125.89746099999957,136.79492200000004,128.3334960000002,116.41015599999992,142.94873000000007,126.9228520000006,152.82031300000017,128.84619099999964,149.7436520000001,114.61523400000078,150.2563479999999,139.87158199999976,126.79492200000004,101.2822270000006
290,122.82031300000017,137.6923829999996,127.94873000000007,108.0771479999994,141.6665039999998,136.53857400000015,151.41015599999992,128.9741210000002,150.0,115.76904300000024,144.23095699999976,140.12841800000024,127.56396500000028,105.0
291,108.9741210000002,128.58984400000008,119.87158199999976,103.20507799999996,131.9228520000006,140.6411130000006,135.51269500000035,125.64111300000059,145.2563479999999,107.17968800000017,128.84619099999964,129.23095699999976,116.0258789999998,113.7177729999994
292,93.3334960000002,115.12841800000024,107.94873000000007,104.48730499999965,115.76904300000024,135.2563479999999,115.89746099999957,120.64111300000059,137.94873000000007,93.20507799999996,113.84619099999964,113.84619099999964,99.35888699999941,115.12841800000024
293,84.23095699999976,102.94873000000007,100.0,110.25634799999989,100.0,122.43603499999972,103.3334960000002,116.6665039999998,131.6665039999998,80.38476599999922,107.43603499999972,102.94873000000007,86.53857400000015,111.2822270000006
294,81.2822270000006,92.69238299999961,99.10253900000043,114.74365200000011,91.41015599999992,107.56396500000028,100.38476599999922,114.48730499999965,127.69238299999961,72.05126999999993,108.84619099999964,99.35888699999941,79.35888699999941,111.79492200000004
295,80.64111300000059,84.23095699999976,101.15380900000036,113.46142599999985,93.20507799999996,97.56396500000028,103.20507799999996,112.56396500000028,126.0258789999998,68.9741210000002,112.30761700000039,99.74365200000011,75.76904300000024,114.87158199999976
296,81.41015599999992,81.41015599999992,102.43603499999972,108.3334960000002,105.64111300000059,98.84619099999964,108.20507799999996,111.15380900000036,127.05126999999993,72.69238299999961,114.48730499999965,101.2822270000006,75.25634799999989,111.9228520000006
297,86.15380900000036,88.3334960000002,104.61523400000078,105.51269500000035,125.12841800000024,111.79492200000004,114.61523400000078,111.9228520000006,131.15380900000036,83.7177729999994,117.17968800000017,104.23095699999976,79.61523400000078,105.76904300000024
298,95.25634799999989,103.46142599999985,110.25634799999989,108.7177729999994,144.87158199999976,129.10253900000043,121.41015599999992,115.38476599999922,136.41015599999992,98.0771479999994,121.79492200000004,110.12841800000024,89.10253900000043,107.30761700000039
299,106.0258789999998,120.89746099999957,117.30761700000039,115.38476599999922,157.6923829999996,141.41015599999992,126.9228520000006,119.74365200000011,140.51269500000035,109.74365200000011,127.56396500000028,118.20507799999996,101.41015599999992,115.76904300000024
300,115.12841800000024,133.9741210000002,121.0258789999998,119.23095699999976,158.9741210000002,144.48730499999965,129.87158199999976,121.9228520000006,141.41015599999992,113.84619099999964,132.17968800000017,125.38476599999922,112.94873000000007,118.3334960000002
301,118.0771479999994,137.17968800000017,119.23095699999976,116.9228520000006,146.2822270000006,139.48730499999965,129.23095699999976,121.0258789999998,139.10253900000043,108.0771479999994,132.56396500000028,127.05126999999993,118.58984400000008,111.79492200000004
302,110.51269500000035,126.79492200000004,113.3334960000002,109.74365200000011,122.05126999999993,128.58984400000008,123.7177729999994,116.9228520000006,134.3588869999994,93.3334960000002,125.51269500000035,119.87158199999976,112.82031300000017,106.9228520000006
303,92.82031300000017,105.51269500000035,104.87158199999976,101.6665039999998,96.0258789999998,115.12841800000024,113.84619099999964,111.0258789999998,128.9741210000002,73.58984400000008,111.9228520000006,105.0,95.38476599999922,109.10253900000043
304,74.61523400000078,85.25634799999989,96.79492200000004,97.56396500000028,82.82031300000017,104.61523400000078,103.7177729999994,105.38476599999922,125.12841800000024,57.82031300000017,99.23095699999976,89.74365200000011,75.51269500000035,110.0
305,67.56396500000028,78.7177729999994,93.84619099999964,101.0258789999998,90.64111300000059,103.0771479999994,98.9741210000002,102.94873000000007,125.12841800000024,54.35888699999941,96.53857400000015,83.46142599999985,66.0258789999998,105.0
306,75.0,88.84619099999964,99.10253900000043,111.0258789999998,113.0771479999994,111.53857400000015,101.53857400000015,105.0,128.46142599999985,64.10253900000043,106.0258789999998,89.48730499999965,71.2822270000006,102.69238299999961
307,89.87158199999976,106.9228520000006,108.7177729999994,121.6665039999998,134.23095699999976,124.61523400000078,108.7177729999994,110.25634799999989,132.82031300000017,79.35888699999941,121.41015599999992,102.30761700000039,85.64111300000059,108.9741210000002
308,102.56396500000028,122.05126999999993,115.64111300000059,126.2822270000006,142.6923829999996,135.38476599999922,118.0771479999994,116.53857400000015,136.2822270000006,92.43603499999972,133.9741210000002,113.3334960000002,100.12841800000024,114.74365200000011
309,108.84619099999964,128.84619099999964,116.53857400000015,123.46142599999985,138.7177729999994,140.2563479999999,128.46142599999985,121.53857400000015,138.7177729999994,100.64111300000059,138.0771479999994,118.46142599999985,109.61523400000078,111.6665039999998
310,108.20507799999996,127.05126999999993,114.35888699999941,116.9228520000006,128.9741210000002,139.10253900000043,136.79492200000004,124.23095699999976,139.87158199999976,105.0,132.43603499999972,117.30761700000039,112.82031300000017,106.79492200000004
311,102.05126999999993,118.46142599999985,111.79492200000004,110.89746099999957,118.84619099999964,133.46142599999985,137.6923829999996,123.46142599999985,138.84619099999964,105.25634799999989,119.48730499999965,111.53857400000015,109.87158199999976,109.48730499999965
312,93.3334960000002,107.56396500000028,108.0771479999994,106.9228520000006,110.76904300000024,125.89746099999957,128.46142599999985,118.9741210000002,135.2563479999999,100.38476599999922,106.2822270000006,103.3334960000002,102.56396500000028,115.12841800000024
313,86.15380900000036,99.61523400000078,103.20507799999996,104.74365200000011,106.0258789999998,118.84619099999964,113.3334960000002,113.0771479999994,131.15380900000036,90.89746099999957,101.15380900000036,96.15380900000036,94.35888699999941,113.20507799999996
314,82.43603499999972,96.53857400000015,100.0,104.35888699999941,105.64111300000059,113.46142599999985,100.0,108.58984400000008,128.84619099999964,79.61523400000078,106.0258789999998,92.82031300000017,86.6665039999998,107.17968800000017
315,81.53857400000015,97.43603499999972,101.0258789999998,105.51269500000035,110.25634799999989,111.6665039999998,95.25634799999989,107.82031300000017,129.3588869999994,71.9228520000006,115.76904300000024,93.7177729999994,80.64111300000059,108.20507799999996
316,85.0,103.46142599999985,105.76904300000024,107.82031300000017,121.41015599999992,117.43603499999972,103.0771479999994,111.53857400000015,132.56396500000028,75.76904300000024,124.74365200000011,99.23095699999976,80.89746099999957,114.74365200000011
317,96.0258789999998,117.43603499999972,112.94873000000007,111.9228520000006,139.23095699999976,133.84619099999964,122.30761700000039,119.23095699999976,137.56396500000028,95.25634799999989,132.82031300000017,110.12841800000024,93.58984400000008,115.0
318,112.43603499999972,135.2563479999999,120.89746099999957,117.94873000000007,154.61523400000078,153.20507799999996,144.10253900000043,127.82031300000017,142.17968800000017,122.43603499999972,140.38476599999922,123.9741210000002,116.0258789999998,107.56396500000028
319,122.17968800000017,142.17968800000017,125.64111300000059,122.30761700000039,151.15380900000036,157.56396500000028,153.3334960000002,131.41015599999992,142.3076170000004,137.6923829999996,142.43603499999972,131.79492200000004,131.53857400000015,103.9741210000002
320,113.9741210000002,127.17968800000017,121.41015599999992,118.84619099999964,123.0771479999994,136.15380900000036,141.15380900000036,125.64111300000059,135.51269500000035,126.6665039999998,133.58984400000008,125.12841800000024,124.87158199999976,107.94873000000007
321,92.82031300000017,98.3334960000002,109.10253900000043,107.05126999999993,89.10253900000043,101.6665039999998,115.12841800000024,113.0771479999994,125.64111300000059,96.6665039999998,117.05126999999993,107.05126999999993,100.25634799999989,110.89746099999957
322,76.79492200000004,78.20507799999996,98.0771479999994,95.25634799999989,78.3334960000002,81.79492200000004,93.9741210000002,103.0771479999994,119.74365200000011,71.53857400000015,104.48730499999965,92.30761700000039,78.58984400000008,108.84619099999964
323,78.46142599999985,81.9228520000006,97.69238299999961,93.20507799999996,100.76904300000024,92.30761700000039,91.6665039999998,102.82031300000017,121.9228520000006,68.7177729999994,103.20507799999996,92.30761700000039,77.05126999999993,110.0
324,94.35888699999941,104.74365200000011,106.79492200000004,102.17968800000017,137.05126999999993,123.0771479999994,106.2822270000006,111.15380900000036,129.48730499999965,85.51269500000035,110.89746099999957,104.87158199999976,94.23095699999976,117.17968800000017
325,111.9228520000006,129.10253900000043,115.51269500000035,114.35888699999941,159.3588869999994,149.61523400000078,125.25634799999989,121.0258789999998,136.41015599999992,106.53857400000015,120.0,118.3334960000002,116.0258789999998,120.12841800000024
326,120.51269500000035,140.2563479999999,116.41015599999992,121.0258789999998,156.6665039999998,154.7436520000001,135.38476599999922,126.53857400000015,138.9741210000002,119.10253900000043,125.38476599999922,122.69238299999961,128.7177729999994,112.43603499999972
327,116.41015599999992,133.84619099999964,110.0,118.9741210000002,138.7177729999994,137.43603499999972,130.2563479999999,126.0258789999998,137.17968800000017,119.10253900000043,125.64111300000059,116.53857400000015,126.2822270000006,104.61523400000078
328,103.58984400000008,117.05126999999993,101.6665039999998,111.2822270000006,123.0771479999994,111.79492200000004,113.3334960000002,121.6665039999998,133.7177729999994,111.9228520000006,122.05126999999993,105.12841800000024,112.82031300000017,107.56396500000028
329,93.46142599999985,105.51269500000035,96.15380900000036,104.35888699999941,123.0771479999994,97.43603499999972,96.6665039999998,117.30761700000039,132.05126999999993,107.17968800000017,119.23095699999976,97.69238299999961,101.15380900000036,114.61523400000078
330,96.6665039999998,111.41015599999992,97.05126999999993,104.23095699999976,139.48730499999965,105.38476599999922,92.94873000000007,117.43603499999972,134.48730499999965,111.6665039999998,122.56396500000028,101.41015599999992,103.20507799999996,113.58984400000008
331,111.79492200000004,131.15380900000036,104.87158199999976,111.0258789999998,159.61523400000078,128.0771479999994,104.10253900000043,122.43603499999972,139.3588869999994,121.15380900000036,131.41015599999992,114.48730499999965,117.30761700000039,107.30761700000039
332,124.48730499999965,146.9228520000006,114.35888699999941,118.0771479999994,165.89746099999957,144.61523400000078,118.84619099999964,127.56396500000028,141.79492200000004,123.20507799999996,137.82031300000017,125.76904300000024,128.0771479999994,107.30761700000039
333,123.84619099999964,144.87158199999976,117.82031300000017,118.3334960000002,152.56396500000028,141.53857400000015,124.61523400000078,127.56396500000028,138.58984400000008,111.41015599999992,134.87158199999976,125.76904300000024,123.9741210000002,112.82031300000017
334,114.10253900000043,130.51269500000035,114.23095699999976,112.17968800000017,131.9228520000006,125.76904300000024,120.0,122.82031300000017,133.0771479999994,95.38476599999922,126.53857400000015,117.05126999999993,111.0258789999998,113.0771479999994
335,108.84619099999964,120.64111300000059,110.51269500000035,107.30761700000039,121.41015599999992,114.61523400000078,113.84619099999964,119.35888699999941,131.2822270000006,90.64111300000059,123.46142599999985,111.15380900000036,105.38476599999922,107.69238299999961
336,114.10253900000043,123.9741210000002,112.94873000000007,108.9741210000002,125.64111300000059,117.17968800000017,114.10253900000043,121.53857400000015,135.0,100.89746099999957,130.12841800000024,115.38476599999922,113.58984400000008,106.79492200000004
337,123.7177729999994,134.87158199999976,118.7177729999994,114.87158199999976,134.87158199999976,127.56396500000028,119.35888699999941,126.9228520000006,139.7436520000001,115.0,140.2563479999999,125.12841800000024,127.43603499999972,112.05126999999993
338,129.10253900000043,142.6923829999996,121.41015599999992,118.3334960000002,138.46142599999985,135.12841800000024,123.58984400000008,130.12841800000024,141.0258789999998,120.51269500000035,144.87158199999976,131.15380900000036,135.38476599999922,113.46142599999985
339,128.0771479999994,142.6923829999996,119.23095699999976,116.79492200000004,134.87158199999976,135.0,123.46142599999985,128.9741210000002,138.7177729999994,115.38476599999922,141.15380900000036,130.12841800000024,134.23095699999976,108.7177729999994
340,123.7177729999994,137.3076170000004,116.6665039999998,113.3334960000002,128.84619099999964,129.3588869999994,119.61523400000078,125.51269500000035,135.6411130000006,106.0258789999998,133.58984400000008,125.51269500000035,127.69238299999961,107.43603499999972
341,119.87158199999976,132.05126999999993,115.76904300000024,111.79492200000004,125.38476599999922,123.84619099999964,115.25634799999989,122.30761700000039,134.61523400000078,99.35888699999941,128.20507799999996,122.30761700000039,121.53857400000015,113.7177729999994
342,119.74365200000011,131.2822270000006,115.38476599999922,112.94873000000007,126.53857400000015,123.3334960000002,114.23095699999976,121.15380900000036,135.89746099999957,98.20507799999996,128.20507799999996,121.9228520000006,119.35888699999941,117.30761700000039
343,122.69238299999961,135.12841800000024,114.35888699999941,115.25634799999989,130.6411130000006,128.58984400000008,117.82031300000017,122.69238299999961,138.58984400000008,101.0258789999998,131.9228520000006,123.46142599999985,121.0258789999998,111.79492200000004
344,125.25634799999989,138.46142599999985,114.35888699999941,116.41015599999992,133.0771479999994,134.61523400000078,123.46142599999985,125.64111300000059,140.2563479999999,103.7177729999994,134.61523400000078,124.87158199999976,122.30761700000039,106.41015599999992
345,123.9741210000002,136.15380900000036,115.76904300000024,114.61523400000078,130.6411130000006,134.87158199999976,126.41015599999992,127.94873000000007,139.10253900000043,102.82031300000017,132.6923829999996,124.61523400000078,119.61523400000078,110.0
346,120.12841800000024,130.12841800000024,116.41015599999992,110.64111300000059,125.64111300000059,129.23095699999976,124.48730499999965,127.56396500000028,135.51269500000035,100.0,127.43603499999972,123.0771479999994,114.87158199999976,115.64111300000059
347,118.84619099999964,127.17968800000017,115.38476599999922,107.43603499999972,123.20507799999996,122.69238299999961,119.74365200000011,124.74365200000011,132.43603499999972,98.9741210000002,123.7177729999994,122.17968800000017,113.0771479999994,113.7177729999994
348,121.6665039999998,130.38476599999922,114.61523400000078,108.0771479999994,124.87158199999976,119.87158199999976,115.38476599999922,121.0258789999998,131.41015599999992,100.51269500000035,123.84619099999964,123.7177729999994,116.41015599999992,108.3334960000002
349,125.51269500000035,136.0258789999998,115.0,111.9228520000006,127.82031300000017,120.51269500000035,112.43603499999972,117.17968800000017,131.53857400000015,101.9228520000006,126.53857400000015,126.41015599999992,122.30761700000039,109.10253900000043
350,128.58984400000008,139.23095699999976,115.64111300000059,115.38476599999922,131.15380900000036,122.82031300000017,111.0258789999998,114.10253900000043,130.76904300000024,101.15380900000036,129.48730499999965,128.7177729999994,128.84619099999964,112.94873000000007
351,132.43603499999972,139.7436520000001,115.12841800000024,116.2822270000006,137.3076170000004,126.2822270000006,111.2822270000006,112.43603499999972,128.7177729999994,101.15380900000036,133.20507799999996,130.12841800000024,136.9228520000006,110.25634799999989
352,137.05126999999993,138.0771479999994,114.35888699999941,114.87158199999976,145.89746099999957,128.46142599999985,111.2822270000006,112.05126999999993,126.2822270000006,103.20507799999996,137.43603499999972,130.51269500000035,145.0,104.10253900000043
353,136.9228520000006,131.15380900000036,112.69238299999961,111.53857400000015,149.87158199999976,124.23095699999976,107.30761700000039,110.89746099999957,123.58984400000008,103.9741210000002,138.58984400000008,127.43603499999972,146.41015599999992,105.51269500000035
354,127.43603499999972,117.30761700000039,108.0771479999994,106.2822270000006,143.46142599999985,112.69238299999961,98.46142599999985,107.43603499999972,120.12841800000024,99.61523400000078,134.7436520000001,119.48730499999965,136.79492200000004,113.58984400000008
355,112.05126999999993,101.2822270000006,101.15380900000036,100.25634799999989,130.38476599999922,100.12841800000024,90.51269500000035,103.46142599999985,117.43603499999972,92.56396500000028,129.48730499999965,109.61523400000078,121.79492200000004,115.64111300000059
356,99.61523400000078,90.12841800000024,96.9228520000006,97.30761700000039,120.12841800000024,94.23095699999976,90.25634799999989,102.56396500000028,117.69238299999961,89.74365200000011,128.84619099999964,103.84619099999964,110.89746099999957,108.84619099999964
357,94.74365200000011,86.15380900000036,98.46142599999985,99.48730499999965,118.3334960000002,94.87158199999976,97.82031300000017,105.76904300000024,120.89746099999957,93.9741210000002,133.7177729999994,103.7177729999994,106.79492200000004,104.23095699999976
358,94.74365200000011,86.79492200000004,101.6665039999998,104.48730499999965,125.0,97.05126999999993,105.76904300000024,109.48730499999965,124.48730499999965,101.79492200000004,138.58984400000008,104.74365200000011,103.7177729999994,107.17968800000017
359,94.74365200000011,89.23095699999976,99.61523400000078,108.0771479999994,138.20507799999996,99.23095699999976,105.64111300000059,109.74365200000011,125.89746099999957,108.58984400000008,138.7177729999994,101.15380900000036,96.2822270000006,109.61523400000078
360,92.05126999999993,91.15380900000036,92.05126999999993,108.3334960000002,155.0,103.7177729999994,95.12841800000024,105.64111300000059,125.12841800000024,113.7177729999994,134.3588869999994,91.9228520000006,85.25634799999989,106.6665039999998
361,86.2822270000006,89.87158199999976,85.25634799999989,106.53857400000015,166.41015599999992,110.51269500000035,81.41015599999992,100.64111300000059,124.35888699999941,120.12841800000024,130.51269500000035,81.6665039999998,76.15380900000036,106.2822270000006
362,80.12841800000024,83.0771479999994,85.12841800000024,105.0,160.6411130000006,115.38476599999922,77.82031300000017,99.35888699999941,126.53857400000015,131.0258789999998,133.0771479999994,77.56396500000028,74.61523400000078,112.82031300000017
363,78.0771479999994,73.46142599999985,91.2822270000006,105.0,134.87158199999976,114.48730499999965,93.58984400000008,104.48730499999965,132.56396500000028,145.76904300000024,145.12841800000024,83.3334960000002,81.79492200000004,116.79492200000004
364,80.38476599999922,65.51269500000035,98.84619099999964,106.15380900000036,103.46142599999985,107.69238299999961,122.43603499999972,114.48730499999965,139.7436520000001,159.10253900000043,162.56396500000028,95.51269500000035,90.89746099999957,110.89746099999957
365,80.89746099999957,60.897460999999566,101.79492200000004,107.69238299999961,89.74365200000011,97.56396500000028,142.43603499999972,122.43603499999972,142.94873000000007,164.7436520000001,174.3588869999994,103.20507799999996,90.64111300000059,103.9741210000002
366,72.82031300000017,58.333496000000196,96.2822270000006,108.7177729999994,107.43603499999972,90.64111300000059,133.7177729999994,121.41015599999992,140.0,163.7177729999994,172.05126999999993,96.79492200000004,75.76904300000024,107.56396500000028
367,59.87158199999976,58.846190999999635,85.25634799999989,109.61523400000078,145.76904300000024,95.0,101.41015599999992,112.05126999999993,134.61523400000078,164.61523400000078,159.61523400000078,79.10253900000043,56.666503999999804,116.0258789999998
368,54.87158199999976,64.87158199999976,78.84619099999964,111.9228520000006,175.38476599999922,113.58984400000008,75.64111300000059,103.46142599999985,134.10253900000043,173.9741210000002,153.20507799999996,66.41015599999992,51.53857400000015,116.53857400000015
369,65.64111300000059,75.0,86.53857400000015,116.2822270000006,170.38476599999922,136.9228520000006,83.46142599999985,105.51269500000035,141.0258789999998,187.6923829999996,165.2563479999999,73.46142599999985,68.7177729999994,110.89746099999957
370,85.25634799999989,82.05126999999993,105.89746099999957,119.87158199999976,130.0,147.43603499999972,123.20507799999996,117.69238299999961,151.0258789999998,193.20507799999996,191.79492200000004,97.56396500000028,96.0258789999998,109.74365200000011
371,97.17968800000017,78.9741210000002,121.15380900000036,117.82031300000017,78.84619099999964,134.3588869999994,164.7436520000001,129.7436520000001,156.0258789999998,181.6665039999998,215.51269500000035,120.38476599999922,111.41015599999992,113.3334960000002
372,90.89746099999957,66.0258789999998,118.9741210000002,109.10253900000043,48.974121000000196,104.87158199999976,176.15380900000036,131.2822270000006,151.79492200000004,156.41015599999992,222.56396500000028,124.23095699999976,102.43603499999972,111.9228520000006
373,70.25634799999989,51.53857400000015,101.9228520000006,100.64111300000059,56.79492200000004,79.61523400000078,149.61523400000078,121.15380900000036,141.0258789999998,129.7436520000001,213.20507799999996,107.17968800000017,74.74365200000011,105.64111300000059
374,48.589844000000085,45.64111300000059,83.3334960000002,99.87158199999976,94.35888699999941,76.2822270000006,102.82031300000017,106.79492200000004,130.38476599999922,112.69238299999961,196.0258789999998,82.30761700000039,46.025878999999804,104.87158199999976
375,37.30761700000039,53.333496000000196,72.56396500000028,106.41015599999992,138.20507799999996,95.38476599999922,62.05126999999993,96.41015599999992,125.25634799999989,109.10253900000043,177.6923829999996,62.30761700000039,32.30761700000039,111.41015599999992
376,38.20507799999996,70.64111300000059,68.7177729999994,112.05126999999993,164.23095699999976,120.0,44.23095699999976,93.0771479999994,126.53857400000015,115.12841800000024,160.38476599999922,51.53857400000015,37.56396500000028,114.10253900000043
377,44.48730499999965,85.89746099999957,68.3334960000002,110.51269500000035,157.82031300000017,128.58984400000008,50.76904300000024,94.61523400000078,129.87158199999976,121.41015599999992,149.10253900000043,48.333496000000196,52.56396500000028,109.23095699999976
378,49.61523400000078,87.56396500000028,72.94873000000007,103.9741210000002,115.0,111.15380900000036,75.51269500000035,98.84619099999964,130.89746099999957,112.30761700000039,155.51269500000035,53.46142599999985,62.43603499999972,107.43603499999972
379,55.12841800000024,73.7177729999994,87.94873000000007,100.64111300000059,40.38476599999922,78.3334960000002,114.87158199999976,106.53857400000015,128.7177729999994,72.43603499999972,190.6411130000006,73.58984400000008,58.20507799999996,114.23095699999976
380,70.25634799999989,55.897460999999566,116.0258789999998,107.17968800000017,-48.974365000000034,53.7177729999994,168.58984400000008,121.15380900000036,127.43603499999972,0.256347999999889,251.6665039999998,114.87158199999976,44.61523400000078,119.23095699999976
381,101.0258789999998,51.53857400000015,153.46142599999985,124.61523400000078,-119.48706099999981,55.76904300000024,230.6411130000006,143.3334960000002,131.15380900000036,-81.66674799999964,316.6665039999998,173.84619099999964,36.153809000000365,114.10253900000043
382,142.17968800000017,71.6665039999998,188.46142599999985,146.0258789999998,-127.56420900000057,83.3334960000002,280.51269500000035,166.79492200000004,138.3334960000002,-130.89746100000002,354.48730499999965,231.79492200000004,46.9228520000006,106.9228520000006
383,177.17968800000017,112.69238299999961,203.46142599999985,159.3588869999994,-46.41015600000037,119.10253900000043,290.3847659999992,179.3588869999994,142.56396500000028,-107.94872999999961,343.46142599999985,261.4101559999999,81.9228520000006,107.82031300000017
