,EEG.AF3,EEG.F7,EEG.F3,EEG.FC5,EEG.T7,EEG.P7,EEG.O1,EEG.O2,EEG.P8,EEG.T8,EEG.FC6,EEG.F4,EEG.F8,EEG.AF4
0,140.89746099999957,133.7177729999994,120.51269500000035,115.12841800000024,113.46142599999985,104.10253900000043,109.10253900000043,116.0258789999998,146.6665039999998,120.89746099999957,147.3076170000004,142.43603499999972,147.43603499999972,112.69238299999961
1,138.46142599999985,134.7436520000001,118.3334960000002,113.46142599999985,119.35888699999941,104.23095699999976,106.41015599999992,115.38476599999922,145.0,118.9741210000002,144.61523400000078,138.7177729999994,145.12841800000024,107.17968800000017
2,133.84619099999964,129.48730499999965,118.84619099999964,110.76904300000024,122.05126999999993,102.82031300000017,103.7177729999994,113.7177729999994,142.94873000000007,117.69238299999961,141.6665039999998,133.20507799999996,140.76904300000024,106.41015599999992
3,128.3334960000002,119.87158199999976,120.0,107.30761700000039,120.38476599999922,100.38476599999922,101.6665039999998,111.41015599999992,140.89746099999957,116.79492200000004,139.10253900000043,127.56396500000028,135.89746099999957,112.30761700000039
4,126.2822270000006,113.20507799999996,119.61523400000078,104.48730499999965,117.94873000000007,100.89746099999957,102.17968800000017,110.51269500000035,140.2563479999999,117.17968800000017,139.61523400000078,125.12841800000024,134.10253900000043,115.12841800000024
5,130.6411130000006,115.12841800000024,119.23095699999976,104.48730499999965,117.43603499999972,106.2822270000006,106.0258789999998,112.82031300000017,142.05126999999993,119.61523400000078,144.23095699999976,128.0771479999994,137.43603499999972,111.0258789999998
6,137.05126999999993,122.17968800000017,121.2822270000006,107.69238299999961,116.41015599999992,112.43603499999972,110.76904300000024,116.79492200000004,144.87158199999976,121.9228520000006,149.10253900000043,134.23095699999976,142.17968800000017,109.23095699999976
7,138.0771479999994,126.2822270000006,123.9741210000002,111.0258789999998,111.6665039999998,113.84619099999964,112.43603499999972,119.35888699999941,146.15380900000036,121.0258789999998,149.48730499999965,138.0771479999994,142.05126999999993,114.35888699999941
8,132.17968800000017,123.84619099999964,124.23095699999976,111.15380900000036,106.41015599999992,110.64111300000059,110.89746099999957,118.7177729999994,145.89746099999957,117.94873000000007,145.6411130000006,136.9228520000006,136.15380900000036,117.69238299999961
9,124.61523400000078,117.69238299999961,121.53857400000015,108.20507799999996,105.89746099999957,108.0771479999994,109.35888699999941,116.79492200000004,146.2822270000006,116.41015599999992,141.2822270000006,132.94873000000007,128.9741210000002,112.17968800000017
10,119.87158199999976,111.41015599999992,118.20507799999996,104.61523400000078,110.64111300000059,109.35888699999941,110.0,115.76904300000024,148.20507799999996,117.30761700000039,138.3334960000002,129.3588869999994,123.46142599999985,106.2822270000006
11,117.94873000000007,105.76904300000024,115.0,102.30761700000039,115.76904300000024,112.17968800000017,112.05126999999993,115.89746099999957,150.12841800000024,117.69238299999961,136.2822270000006,126.53857400000015,118.84619099999964,109.61523400000078
12,117.05126999999993,102.43603499999972,111.2822270000006,102.43603499999972,117.94873000000007,114.10253900000043,113.84619099999964,116.41015599999992,150.0,116.79492200000004,135.12841800000024,123.20507799999996,115.51269500000035,116.2822270000006
13,116.9228520000006,105.38476599999922,108.0771479999994,105.64111300000059,119.23095699999976,114.35888699999941,114.35888699999941,117.05126999999993,148.0771479999994,117.43603499999972,137.3076170000004,120.25634799999989,115.38476599999922,116.0258789999998
14,116.15380900000036,113.46142599999985,108.20507799999996,110.38476599999922,120.38476599999922,111.41015599999992,111.79492200000004,117.30761700000039,145.76904300000024,120.51269500000035,142.6923829999996,118.7177729999994,118.84619099999964,111.53857400000015
15,112.43603499999972,119.10253900000043,112.05126999999993,113.0771479999994,117.05126999999993,103.7177729999994,105.51269500000035,116.53857400000015,143.7177729999994,123.3334960000002,148.58984400000008,119.10253900000043,122.82031300000017,112.17968800000017
16,108.58984400000008,116.2822270000006,116.53857400000015,110.89746099999957,106.6665039999998,93.7177729999994,98.84619099999964,114.35888699999941,142.82031300000017,124.87158199999976,153.7177729999994,121.53857400000015,127.17968800000017,116.2822270000006
17,111.2822270000006,108.3334960000002,119.35888699999941,105.89746099999957,95.64111300000059,87.94873000000007,96.2822270000006,112.05126999999993,144.10253900000043,129.61523400000078,160.6411130000006,127.05126999999993,136.2822270000006,114.48730499999965
18,123.0771479999994,103.7177729999994,120.0,102.56396500000028,94.74365200000011,89.35888699999941,96.79492200000004,110.25634799999989,147.17968800000017,139.23095699999976,170.0,134.3588869999994,151.79492200000004,107.82031300000017
19,137.05126999999993,106.6665039999998,118.58984400000008,103.9741210000002,106.41015599999992,93.84619099999964,94.87158199999976,107.69238299999961,148.9741210000002,145.76904300000024,178.7177729999994,138.84619099999964,167.43603499999972,107.17968800000017
20,145.0,114.61523400000078,114.74365200000011,108.3334960000002,122.43603499999972,96.0258789999998,87.30761700000039,103.7177729999994,147.17968800000017,140.12841800000024,183.3334960000002,136.9228520000006,176.2822270000006,113.0771479999994
21,147.94873000000007,124.10253900000043,110.76904300000024,112.82031300000017,132.56396500000028,96.2822270000006,79.35888699999941,100.89746099999957,143.7177729999994,124.74365200000011,185.0,132.56396500000028,180.89746099999957,114.87158199999976
22,155.38476599999922,134.23095699999976,112.69238299999961,117.17968800000017,132.82031300000017,97.43603499999972,80.89746099999957,102.94873000000007,142.94873000000007,113.7177729999994,190.38476599999922,135.12841800000024,191.41015599999992,109.35888699999941
23,175.0,145.38476599999922,125.0,123.0771479999994,123.58984400000008,98.84619099999964,98.0771479999994,110.64111300000059,147.56396500000028,117.05126999999993,207.3076170000004,150.89746099999957,213.20507799999996,106.2822270000006
24,204.87158199999976,157.6923829999996,144.10253900000043,130.38476599999922,109.48730499999965,96.6665039999998,126.79492200000004,121.41015599999992,155.51269500000035,129.7436520000001,237.6923829999996,177.05126999999993,241.41015599999992,110.51269500000035
25,235.12841800000024,169.7436520000001,160.12841800000024,136.0258789999998,102.05126999999993,90.0,153.20507799999996,130.38476599999922,161.53857400000015,138.46142599999985,271.53857400000015,202.05126999999993,266.15380900000036,113.46142599999985
26,254.3588869999994,180.0,163.46142599999985,136.53857400000015,113.46142599999985,85.12841800000024,159.3588869999994,132.94873000000007,161.79492200000004,136.0258789999998,290.6411130000006,212.17968800000017,281.53857400000015,109.23095699999976
27,257.94873000000007,186.2822270000006,151.9228520000006,132.3076170000004,142.6923829999996,87.69238299999961,136.2822270000006,126.2822270000006,155.89746099999957,126.53857400000015,283.46142599999985,200.38476599999922,287.6923829999996,105.64111300000059
28,253.0771479999994,190.12841800000024,132.3076170000004,127.30761700000039,168.3334960000002,96.53857400000015,95.0,112.94873000000007,147.56396500000028,116.53857400000015,261.9228520000006,175.38476599999922,290.3847659999992,109.48730499999965
29,255.89746099999957,196.6665039999998,118.84619099999964,126.41015599999992,162.05126999999993,104.61523400000078,63.846190999999635,101.41015599999992,141.9228520000006,103.9741210000002,255.0,158.9741210000002,297.05126999999993,113.9741210000002
30,276.79492200000004,207.43603499999972,124.61523400000078,131.41015599999992,109.61523400000078,102.82031300000017,66.2822270000006,101.0258789999998,141.15380900000036,76.9228520000006,281.2822270000006,169.61523400000078,311.0258789999998,110.51269500000035
31,308.0771479999994,214.7436520000001,148.9741210000002,137.82031300000017,26.153809000000365,84.48730499999965,98.58984400000008,112.17968800000017,141.2822270000006,25.769043000000238,326.2822270000006,203.9741210000002,324.87158199999976,105.25634799999989
32,330.51269500000035,211.79492200000004,175.0,140.2563479999999,-45.76928699999962,53.46142599999985,132.43603499999972,125.0,136.6665039999998,-39.48706099999981,354.87158199999976,238.0771479999994,328.84619099999964,108.0771479999994
33,338.20507799999996,206.79492200000004,185.38476599999922,139.7436520000001,-59.35888699999987,28.205077999999958,144.87158199999976,131.0258789999998,129.23095699999976,-84.10253899999998,349.3588869999994,252.82031300000017,326.53857400000015,114.74365200000011
34,347.6923829999996,221.0258789999998,182.17968800000017,146.41015599999992,-2.6923829999996087,31.282227000000603,142.94873000000007,132.56396500000028,128.84619099999964,-72.43579099999943,330.2563479999999,255.51269500000035,338.5898440000001,114.48730499999965
35,379.7436520000001,263.7177729999994,185.51269500000035,168.58984400000008,83.7177729999994,66.9228520000006,154.10253900000043,139.87158199999976,142.94873000000007,-4.487060999999812,335.12841800000024,270.76904300000024,381.9228520000006,108.7177729999994
36,432.4360349999997,316.6665039999998,209.23095699999976,198.9741210000002,133.0771479999994,112.05126999999993,192.82031300000017,156.41015599999992,165.89746099999957,73.3334960000002,377.17968800000017,310.3847659999992,447.05126999999993,108.46142599999985
37,476.15380900000036,345.89746099999957,241.6665039999998,215.89746099999957,109.74365200000011,134.10253900000043,238.3334960000002,172.56396500000028,180.51269500000035,101.53857400000015,427.05126999999993,354.23095699999976,498.7177729999994,113.84619099999964
38,478.9741210000002,332.6923829999996,255.0,201.15380900000036,42.69238299999961,120.76904300000024,249.7436520000001,173.7177729999994,172.43603499999972,58.974121000000196,437.94873000000007,365.89746099999957,503.9741210000002,114.48730499999965
39,435.12841800000024,291.4101559999999,231.41015599999992,158.58984400000008,2.9487300000000687,89.74365200000011,202.6923829999996,153.84619099999964,143.0771479999994,-15.897461000000021,385.76904300000024,326.15380900000036,459.6152340000008,108.58984400000008
40,370.89746099999957,258.20507799999996,178.7177729999994,112.30761700000039,43.846190999999635,70.64111300000059,112.05126999999993,121.41015599999992,107.56396500000028,-53.846190999999635,290.3847659999992,250.89746099999957,395.76904300000024,106.15380900000036
41,323.9741210000002,262.17968800000017,123.3334960000002,88.20507799999996,154.23095699999976,78.58984400000008,23.974121000000196,92.43603499999972,84.10253900000043,-11.28198199999997,200.51269500000035,179.3588869999994,353.20507799999996,110.76904300000024
42,317.05126999999993,302.05126999999993,92.17968800000017,94.74365200000011,263.5898440000001,105.12841800000024,-16.28198199999997,79.10253900000043,80.76904300000024,94.74365200000011,158.46142599999985,146.15380900000036,354.48730499999965,113.0771479999994
43,341.9228520000006,345.51269500000035,95.89746099999957,118.9741210000002,293.84619099999964,127.43603499999972,5.641113000000587,83.46142599999985,90.25634799999989,197.6923829999996,170.51269500000035,157.94873000000007,388.20507799999996,108.20507799999996
44,367.3076170000004,353.84619099999964,123.3334960000002,138.0771479999994,220.89746099999957,126.41015599999992,64.23095699999976,96.6665039999998,95.64111300000059,231.0258789999998,204.7436520000001,191.79492200000004,419.6152340000008,105.25634799999989
45,365.2563479999999,314.10253900000043,149.3588869999994,137.05126999999993,94.23095699999976,100.25634799999989,115.0,106.41015599999992,84.87158199999976,175.89746099999957,220.0,214.87158199999976,417.5639650000003,110.12841800000024
46,336.0258789999998,253.7177729999994,156.15380900000036,120.76904300000024,1.6665039999998044,68.46142599999985,130.2563479999999,107.43603499999972,61.2822270000006,73.46142599999985,202.43603499999972,212.17968800000017,379.7436520000001,115.0
47,303.84619099999964,217.82031300000017,145.51269500000035,106.6665039999998,3.4614259999998467,55.51269500000035,116.2822270000006,105.89746099999957,40.25634799999989,-7.179442999999992,169.48730499999965,195.12841800000024,330.2563479999999,111.9228520000006
48,288.3334960000002,226.53857400000015,131.53857400000015,104.35888699999941,88.46142599999985,69.23095699999976,94.87158199999976,108.3334960000002,33.46142599999985,-18.461425999999847,140.38476599999922,181.79492200000004,294.48730499999965,107.30761700000039
49,283.5898440000001,256.79492200000004,120.76904300000024,105.76904300000024,187.94873000000007,94.23095699999976,75.76904300000024,111.41015599999992,37.43603499999972,33.7177729999994,111.9228520000006,173.58984400000008,277.17968800000017,110.0
50,269.7436520000001,266.53857400000015,109.35888699999941,98.3334960000002,229.48730499999965,106.6665039999998,54.102539000000434,104.87158199999976,39.61523400000078,101.9228520000006,72.56396500000028,158.20507799999996,265.6411130000006,114.74365200000011
51,240.2563479999999,236.15380900000036,96.9228520000006,83.7177729999994,188.3334960000002,95.25634799999989,31.025878999999804,86.53857400000015,32.69238299999961,133.58984400000008,33.7177729999994,133.0771479999994,247.82031300000017,112.05126999999993
52,211.41015599999992,185.2563479999999,95.51269500000035,78.9741210000002,98.84619099999964,68.84619099999964,23.333496000000196,69.87158199999976,21.153809000000365,106.41015599999992,27.05126999999993,117.82031300000017,222.56396500000028,105.38476599999922
53,206.2822270000006,152.05126999999993,116.2822270000006,95.89746099999957,23.333496000000196,47.82031300000017,49.102539000000434,72.30761700000039,14.871581999999762,41.53857400000015,67.82031300000017,135.2563479999999,199.10253900000043,105.76904300000024
54,228.9741210000002,158.46142599999985,152.6923829999996,125.51269500000035,5.256347999999889,47.69238299999961,103.58984400000008,97.56396500000028,19.102539000000434,-12.435790999999426,127.17968800000017,183.3334960000002,188.46142599999985,112.05126999999993
55,257.6923829999996,191.41015599999992,180.12841800000024,143.84619099999964,44.23095699999976,66.9228520000006,154.48730499999965,129.3588869999994,29.102539000000434,-14.230713000000378,150.89746099999957,228.84619099999964,193.0771479999994,113.7177729999994
56,260.3847659999992,215.0,175.38476599999922,133.0771479999994,102.56396500000028,88.84619099999964,163.7177729999994,143.46142599999985,34.48730499999965,36.666503999999804,105.89746099999957,232.82031300000017,201.15380900000036,109.10253900000043
57,220.76904300000024,200.2563479999999,137.05126999999993,97.05126999999993,135.38476599999922,95.51269500000035,118.9741210000002,127.69238299999961,27.69238299999961,98.9741210000002,10.128418000000238,183.46142599999985,193.58984400000008,107.05126999999993
58,155.0,150.51269500000035,87.17968800000017,58.846190999999635,123.0771479999994,83.58984400000008,47.17968800000017,92.30761700000039,11.282227000000603,122.82031300000017,-80.25634799999989,108.7177729999994,161.79492200000004,109.87158199999976
59,100.38476599999922,99.10253900000043,55.76904300000024,42.69238299999961,84.10253900000043,66.9228520000006,-4.61547900000005,61.666503999999804,-3.4614259999998467,92.17968800000017,-114.48706099999981,54.61523400000078,118.84619099999964,109.10253900000043
60,85.0,80.76904300000024,57.82031300000017,55.25634799999989,58.0771479999994,61.2822270000006,-7.692382999999609,55.0,-5.512939000000188,34.87158199999976,-84.61547900000005,48.846190999999635,88.3334960000002,102.82031300000017
61,104.87158199999976,103.0771479999994,82.30761700000039,81.53857400000015,70.0,70.12841800000024,27.17968800000017,70.76904300000024,5.3847659999992175,-3.4614259999998467,-29.10253899999998,79.35888699999941,82.17968800000017,101.15380900000036
62,132.43603499999972,143.3334960000002,103.0771479999994,98.9741210000002,110.64111300000059,83.84619099999964,63.20507799999996,90.76904300000024,20.0,3.846190999999635,3.3334960000001956,110.51269500000035,93.20507799999996,108.0771479999994
63,144.23095699999976,172.56396500000028,103.58984400000008,97.56396500000028,148.84619099999964,92.30761700000039,73.58984400000008,98.3334960000002,27.69238299999961,49.102539000000434,-5.128174000000399,116.41015599999992,106.9228520000006,113.20507799999996
64,137.05126999999993,175.51269500000035,90.0,86.15380900000036,157.05126999999993,91.53857400000015,59.87158199999976,91.15380900000036,25.384765999999217,97.82031300000017,-33.846190999999635,100.51269500000035,113.0771479999994,109.35888699999941
65,121.2822270000006,154.3588869999994,80.0,80.25634799999989,130.89746099999957,81.6665039999998,42.05126999999993,79.23095699999976,17.30761700000039,113.7177729999994,-51.28198199999997,82.94873000000007,108.0771479999994,104.87158199999976
66,107.30761700000039,122.94873000000007,82.94873000000007,86.41015599999992,91.53857400000015,67.05126999999993,36.2822270000006,73.0771479999994,10.384765999999217,87.30761700000039,-45.76928699999962,78.58984400000008,93.9741210000002,108.58984400000008
67,100.76904300000024,99.35888699999941,93.20507799999996,97.82031300000017,71.0258789999998,57.17968800000017,45.25634799999989,76.53857400000015,10.128418000000238,45.76904300000024,-29.61547900000005,86.41015599999992,80.89746099999957,114.48730499999965
68,102.17968800000017,95.89746099999957,100.25634799999989,105.0,84.74365200000011,59.48730499999965,60.51269500000035,85.89746099999957,17.43603499999972,29.230956999999762,-21.28198199999997,96.15380900000036,80.0,113.0771479999994
69,105.64111300000059,109.10253900000043,99.87158199999976,103.9741210000002,114.74365200000011,70.25634799999989,71.2822270000006,93.58984400000008,27.56396500000028,50.12841800000024,-27.69238299999961,98.3334960000002,91.0258789999998,108.0771479999994
70,104.10253900000043,123.20507799999996,94.61523400000078,98.84619099999964,125.89746099999957,77.17968800000017,72.56396500000028,93.84619099999964,32.30761700000039,83.3334960000002,-41.153809000000365,91.41015599999992,99.74365200000011,108.9741210000002
71,95.89746099999957,125.12841800000024,89.48730499999965,95.12841800000024,103.58984400000008,73.84619099999964,67.82031300000017,87.94873000000007,28.333496000000196,95.51269500000035,-50.0,81.9228520000006,91.79492200000004,113.20507799999996
72,85.89746099999957,115.12841800000024,87.43603499999972,94.61523400000078,69.61523400000078,66.41015599999992,62.43603499999972,81.53857400000015,19.615234000000783,78.84619099999964,-51.79492200000004,77.17968800000017,68.58984400000008,111.53857400000015
73,77.17968800000017,101.15380900000036,87.05126999999993,94.48730499999965,57.17968800000017,63.846190999999635,56.9228520000006,78.58984400000008,13.717772999999397,51.53857400000015,-54.61547900000005,77.05126999999993,43.974121000000196,105.51269500000035
74,68.9741210000002,89.23095699999976,85.64111300000059,92.05126999999993,75.76904300000024,66.6665039999998,48.7177729999994,78.20507799999996,15.0,35.51269500000035,-63.58984399999963,75.76904300000024,31.666503999999804,105.38476599999922
75,62.69238299999961,82.94873000000007,82.56396500000028,89.10253900000043,107.05126999999993,69.87158199999976,40.0,78.20507799999996,21.922852000000603,40.38476599999922,-71.41015600000037,71.41015599999992,36.410155999999915,111.2822270000006
76,62.82031300000017,84.87158199999976,81.41015599999992,90.76904300000024,125.76904300000024,71.15380900000036,37.05126999999993,79.23095699999976,30.384765999999217,61.153809000000365,-65.51293900000019,69.48730499999965,52.43603499999972,112.69238299999961
77,68.9741210000002,91.9228520000006,85.38476599999922,97.94873000000007,118.84619099999964,70.25634799999989,42.56396500000028,82.69238299999961,35.64111300000059,82.43603499999972,-45.38452099999995,74.35888699999941,66.79492200000004,107.30761700000039
78,71.41015599999992,93.58984400000008,91.9228520000006,104.74365200000011,89.87158199999976,65.0,49.102539000000434,86.2822270000006,34.102539000000434,86.6665039999998,-26.923095999999987,81.0258789999998,66.53857400000015,105.25634799999989
79,60.38476599999922,81.15380900000036,93.3334960000002,102.69238299999961,53.589844000000085,53.974121000000196,47.56396500000028,86.2822270000006,26.282227000000603,68.20507799999996,-26.025634999999966,79.87158199999976,49.35888699999941,110.0
80,38.7177729999994,59.23095699999976,85.76904300000024,90.25634799999989,28.846190999999635,42.43603499999972,36.79492200000004,81.15380900000036,17.56396500000028,39.23095699999976,-41.66674799999964,67.82031300000017,26.410155999999915,111.79492200000004
81,19.74365200000011,42.94873000000007,75.0,75.89746099999957,27.56396500000028,39.48730499999965,26.153809000000365,74.48730499999965,15.0,22.43603499999972,-58.71801800000003,52.30761700000039,12.307617000000391,105.76904300000024
82,14.230956999999762,42.94873000000007,70.12841800000024,70.0,46.79492200000004,48.846190999999635,25.128418000000238,70.38476599999922,21.025878999999804,31.538574000000153,-64.23071300000038,43.46142599999985,12.17968800000017,101.6665039999998
83,20.51269500000035,55.897460999999566,72.69238299999961,75.38476599999922,72.43603499999972,63.20507799999996,33.974121000000196,69.48730499999965,30.51269500000035,60.12841800000024,-57.69238299999961,43.7177729999994,18.974121000000196,106.6665039999998
84,29.102539000000434,68.46142599999985,76.15380900000036,86.0258789999998,91.53857400000015,71.79492200000004,43.846190999999635,68.9741210000002,36.410155999999915,87.56396500000028,-48.20507799999996,47.30761700000039,23.589844000000085,112.82031300000017
85,32.69238299999961,70.38476599999922,75.64111300000059,95.12841800000024,100.51269500000035,71.0258789999998,46.79492200000004,67.94873000000007,36.153809000000365,95.76904300000024,-44.61547900000005,48.7177729999994,23.205077999999958,110.76904300000024
86,31.025878999999804,62.82031300000017,74.10253900000043,99.74365200000011,103.58984400000008,66.6665039999998,43.333496000000196,68.46142599999985,33.0771479999994,84.23095699999976,-48.58984399999963,48.0771479999994,21.794922000000042,106.0258789999998
87,29.74365200000011,56.9228520000006,77.05126999999993,101.0258789999998,106.15380900000036,68.58984400000008,42.30761700000039,73.3334960000002,32.56396500000028,70.38476599999922,-54.8718259999996,49.74365200000011,25.0,107.82031300000017
88,34.87158199999976,63.7177729999994,85.12841800000024,100.76904300000024,110.38476599999922,81.79492200000004,51.79492200000004,82.30761700000039,37.94873000000007,73.0771479999994,-55.0,56.2822270000006,35.64111300000059,112.43603499999972
89,45.51269500000035,82.56396500000028,93.84619099999964,100.25634799999989,112.94873000000007,100.89746099999957,70.51269500000035,91.79492200000004,47.17968800000017,92.43603499999972,-45.76928699999962,65.38476599999922,48.333496000000196,110.25634799999989
90,52.82031300000017,98.84619099999964,98.7177729999994,100.0,107.82031300000017,112.69238299999961,87.30761700000039,96.6665039999998,54.102539000000434,107.17968800000017,-32.435790999999426,71.41015599999992,51.153809000000365,104.48730499999965
91,47.56396500000028,96.41015599999992,97.56396500000028,99.48730499999965,91.9228520000006,107.56396500000028,90.25634799999989,94.10253900000043,53.0771479999994,94.48730499999965,-26.538574000000153,70.0,35.38476599999922,105.38476599999922
92,31.282227000000603,74.74365200000011,91.2822270000006,98.3334960000002,72.17968800000017,89.10253900000043,77.43603499999972,85.89746099999957,44.48730499999965,53.974121000000196,-34.23071300000038,62.17968800000017,7.051269999999931,111.6665039999998
93,15.897460999999566,50.64111300000059,83.9741210000002,97.94873000000007,62.17968800000017,72.17968800000017,59.35888699999941,78.0771479999994,35.64111300000059,12.307617000000391,-49.35888699999987,53.974121000000196,-15.641113000000132,112.82031300000017
94,12.56396500000028,42.17968800000017,80.89746099999957,100.0,69.10253900000043,68.84619099999964,48.7177729999994,75.76904300000024,33.846190999999635,1.2822270000006029,-58.20507799999996,51.410155999999915,-18.205077999999958,107.94873000000007
95,20.51269500000035,51.9228520000006,83.58984400000008,103.20507799999996,86.2822270000006,78.46142599999985,49.74365200000011,78.58984400000008,39.102539000000434,29.615234000000783,-52.17944299999999,54.74365200000011,-3.077147999999397,107.05126999999993
96,29.74365200000011,67.69238299999961,86.9228520000006,103.84619099999964,99.48730499999965,90.89746099999957,56.79492200000004,81.79492200000004,45.51269500000035,74.48730499999965,-34.48706099999981,59.61523400000078,15.384765999999217,112.56396500000028
97,32.43603499999972,76.0258789999998,86.15380900000036,99.87158199999976,100.0,96.79492200000004,62.30761700000039,82.43603499999972,47.69238299999961,99.74365200000011,-15.897461000000021,62.17968800000017,24.48730499999965,114.23095699999976
98,28.974121000000196,71.79492200000004,83.20507799999996,94.48730499999965,90.12841800000024,93.7177729999994,63.7177729999994,82.17968800000017,44.74365200000011,85.0,-6.794922000000042,63.589844000000085,20.384765999999217,107.94873000000007
99,23.717772999999397,57.94873000000007,83.58984400000008,92.56396500000028,77.30761700000039,84.48730499999965,62.94873000000007,83.84619099999964,39.87158199999976,40.64111300000059,-11.153809000000365,66.2822270000006,7.179688000000169,103.7177729999994
100,20.384765999999217,42.82031300000017,88.46142599999985,95.12841800000024,68.84619099999964,73.9741210000002,62.30761700000039,87.05126999999993,37.43603499999972,0.6411130000005869,-25.0,69.87158199999976,-6.794922000000042,107.43603499999972
101,20.25634799999989,34.87158199999976,92.94873000000007,99.48730499999965,68.0771479999994,67.94873000000007,62.82031300000017,89.61523400000078,39.87158199999976,-2.9487300000000687,-38.20507799999996,71.2822270000006,-12.051270000000386,110.89746099999957
102,21.538574000000153,37.56396500000028,92.43603499999972,101.79492200000004,74.10253900000043,70.0,63.333496000000196,89.35888699999941,46.53857400000015,35.897460999999566,-43.07690400000001,67.94873000000007,-5.256347999999889,106.9228520000006
103,18.846190999999635,44.48730499999965,86.0258789999998,99.74365200000011,81.41015599999992,77.69238299999961,60.12841800000024,85.38476599999922,53.333496000000196,91.6665039999998,-42.30761700000039,58.0771479999994,6.282227000000603,102.82031300000017
104,8.846190999999635,46.153809000000365,75.64111300000059,93.58984400000008,83.46142599999985,85.51269500000035,50.64111300000059,77.82031300000017,55.38476599999922,127.56396500000028,-44.35888699999987,42.69238299999961,10.641113000000587,107.05126999999993
105,-3.077147999999397,42.05126999999993,65.89746099999957,87.43603499999972,80.51269500000035,91.9228520000006,39.35888699999941,70.38476599999922,53.333496000000196,126.2822270000006,-50.64111300000013,28.846190999999635,5.769043000000238,113.3334960000002
106,-4.358886999999868,41.53857400000015,64.35888699999941,87.56396500000028,77.69238299999961,99.10253900000043,36.666503999999804,69.10253900000043,52.17968800000017,100.76904300000024,-49.74365200000011,26.922852000000603,1.5385740000001533,111.15380900000036
107,11.025878999999804,51.153809000000365,75.64111300000059,96.6665039999998,77.43603499999972,106.53857400000015,48.20507799999996,76.79492200000004,56.2822270000006,77.56396500000028,-30.89746100000002,42.56396500000028,7.56396500000028,104.61523400000078
108,34.74365200000011,65.51269500000035,95.38476599999922,109.87158199999976,76.79492200000004,109.10253900000043,68.9741210000002,89.61523400000078,63.333496000000196,71.2822270000006,2.1796880000001693,68.84619099999964,21.922852000000603,104.48730499999965
109,52.69238299999961,74.48730499999965,111.15380900000036,118.3334960000002,75.25634799999989,104.48730499999965,87.05126999999993,100.0,68.20507799999996,77.56396500000028,31.922852000000603,91.9228520000006,35.0,109.74365200000011
110,56.53857400000015,73.84619099999964,113.3334960000002,116.6665039999998,79.10253900000043,98.3334960000002,93.7177729999994,103.46142599999985,67.94873000000007,84.23095699999976,39.23095699999976,100.51269500000035,39.102539000000434,110.64111300000059
111,46.53857400000015,65.89746099999957,101.53857400000015,106.2822270000006,92.30761700000039,97.30761700000039,86.6665039999998,99.74365200000011,63.7177729999994,83.58984400000008,17.56396500000028,91.53857400000015,32.30761700000039,106.79492200000004
112,28.077147999999397,55.51269500000035,82.82031300000017,92.82031300000017,109.10253900000043,100.89746099999957,69.87158199999976,91.15380900000036,57.82031300000017,76.9228520000006,-22.435790999999426,69.74365200000011,18.333496000000196,107.05126999999993
113,11.153809000000365,48.7177729999994,66.9228520000006,83.84619099999964,118.20507799999996,104.74365200000011,52.82031300000017,81.6665039999998,53.7177729999994,72.69238299999961,-56.66674799999964,46.410155999999915,5.641113000000587,111.53857400000015
114,6.538574000000153,51.153809000000365,61.9228520000006,84.10253900000043,113.84619099999964,106.9228520000006,46.2822270000006,76.2822270000006,54.48730499999965,79.87158199999976,-62.82055700000001,35.51269500000035,4.230956999999762,110.89746099999957
115,16.666503999999804,61.410155999999915,70.51269500000035,92.82031300000017,99.74365200000011,108.20507799999996,53.7177729999994,77.69238299999961,60.38476599999922,97.69238299999961,-39.23071300000038,42.69238299999961,16.025878999999804,103.84619099999964
116,30.897460999999566,68.9741210000002,85.51269500000035,102.94873000000007,83.3334960000002,106.41015599999992,66.6665039999998,83.20507799999996,66.9228520000006,112.69238299999961,-7.051270000000386,59.23095699999976,30.51269500000035,101.53857400000015
117,35.64111300000059,64.35888699999941,94.35888699999941,106.6665039999998,71.0258789999998,99.23095699999976,73.7177729999994,86.15380900000036,68.9741210000002,111.0258789999998,8.205077999999958,69.48730499999965,33.589844000000085,108.46142599999985
118,28.589844000000085,51.2822270000006,90.64111300000059,102.56396500000028,67.05126999999993,90.51269500000035,72.17968800000017,84.10253900000043,66.0258789999998,93.3334960000002,-0.512695000000349,66.53857400000015,23.077147999999397,113.58984400000008
119,20.0,43.20507799999996,81.0258789999998,96.79492200000004,71.79492200000004,87.69238299999961,68.3334960000002,80.51269500000035,62.82031300000017,73.7177729999994,-18.076904000000013,57.30761700000039,9.743652000000111,109.23095699999976
120,20.0,47.69238299999961,77.30761700000039,95.76904300000024,80.12841800000024,92.82031300000017,69.35888699999941,80.25634799999989,63.589844000000085,64.74365200000011,-24.230713000000378,54.35888699999941,4.871581999999762,103.3334960000002
121,29.230956999999762,59.35888699999941,84.35888699999941,100.76904300000024,85.25634799999989,100.38476599999922,76.0258789999998,84.61523400000078,67.82031300000017,67.43603499999972,-10.512939000000188,62.30761700000039,10.641113000000587,104.23095699999976
122,41.2822270000006,68.20507799999996,96.53857400000015,106.79492200000004,84.61523400000078,104.10253900000043,85.0,91.2822270000006,72.05126999999993,73.9741210000002,15.0,76.15380900000036,21.025878999999804,107.30761700000039
123,48.846190999999635,67.94873000000007,104.61523400000078,108.9741210000002,79.23095699999976,102.94873000000007,91.0258789999998,96.53857400000015,73.84619099999964,76.2822270000006,36.153809000000365,86.79492200000004,28.333496000000196,104.74365200000011
124,47.17968800000017,58.7177729999994,103.84619099999964,105.89746099999957,70.76904300000024,99.61523400000078,89.74365200000011,97.05126999999993,73.0771479999994,72.30761700000039,40.25634799999989,87.30761700000039,27.69238299999961,101.2822270000006
125,36.9228520000006,46.410155999999915,95.64111300000059,100.38476599999922,62.30761700000039,97.30761700000039,80.76904300000024,92.56396500000028,71.0258789999998,67.30761700000039,26.794922000000042,78.0771479999994,19.871581999999762,105.12841800000024
126,26.282227000000603,40.38476599999922,85.51269500000035,96.9228520000006,61.9228520000006,99.48730499999965,69.48730499999965,86.41015599999992,70.76904300000024,71.2822270000006,8.205077999999958,67.05126999999993,12.43603499999972,111.53857400000015
127,25.641113000000587,47.69238299999961,80.38476599999922,99.10253900000043,76.53857400000015,108.0771479999994,64.74365200000011,83.7177729999994,75.25634799999989,91.53857400000015,0.8974609999995664,63.589844000000085,15.128418000000238,110.25634799999989
128,37.30761700000039,65.0,83.84619099999964,106.41015599999992,101.15380900000036,119.35888699999941,70.12841800000024,86.79492200000004,84.35888699999941,121.79492200000004,11.538574000000153,70.89746099999957,29.48730499999965,104.23095699999976
129,52.17968800000017,80.12841800000024,93.20507799999996,114.35888699999941,118.84619099999964,125.38476599999922,81.53857400000015,93.0771479999994,92.94873000000007,144.7436520000001,32.94873000000007,83.3334960000002,45.64111300000059,104.35888699999941
130,60.51269500000035,83.58984400000008,100.76904300000024,117.69238299999961,116.15380900000036,122.30761700000039,91.53857400000015,97.56396500000028,95.64111300000059,145.89746099999957,50.897460999999566,92.05126999999993,52.69238299999961,110.51269500000035
131,59.48730499999965,76.9228520000006,101.79492200000004,114.35888699999941,97.17968800000017,114.87158199999976,96.15380900000036,98.7177729999994,91.2822270000006,126.2822270000006,56.025878999999804,92.94873000000007,49.23095699999976,112.17968800000017
132,53.0771479999994,67.69238299999961,97.05126999999993,106.53857400000015,78.46142599999985,109.74365200000011,94.87158199999976,97.43603499999972,83.46142599999985,99.48730499999965,48.20507799999996,87.82031300000017,41.153809000000365,107.30761700000039
133,44.35888699999941,60.0,90.64111300000059,98.20507799999996,72.94873000000007,107.05126999999993,87.82031300000017,94.87158199999976,76.15380900000036,78.58984400000008,34.23095699999976,79.74365200000011,33.333496000000196,105.64111300000059
134,35.38476599999922,53.333496000000196,85.25634799999989,92.69238299999961,81.2822270000006,102.94873000000007,77.30761700000039,91.6665039999998,71.9228520000006,70.0,22.69238299999961,71.41015599999992,27.17968800000017,110.38476599999922
135,30.769043000000238,49.102539000000434,82.56396500000028,92.69238299999961,96.0258789999998,97.43603499999972,69.61523400000078,89.61523400000078,73.0771479999994,75.25634799999989,22.17968800000017,66.9228520000006,25.0,112.30761700000039
136,35.12841800000024,51.153809000000365,84.87158199999976,98.20507799999996,108.7177729999994,94.87158199999976,71.79492200000004,91.2822270000006,79.61523400000078,92.56396500000028,35.25634799999989,70.38476599999922,30.0,106.9228520000006
137,45.38476599999922,58.846190999999635,91.79492200000004,104.61523400000078,112.82031300000017,97.17968800000017,82.94873000000007,95.76904300000024,88.0771479999994,115.25634799999989,53.589844000000085,79.48730499999965,40.12841800000024,103.20507799999996
138,51.153809000000365,64.87158199999976,96.15380900000036,105.0,105.76904300000024,100.25634799999989,92.30761700000039,97.69238299999961,92.17968800000017,131.9228520000006,63.7177729999994,84.87158199999976,46.2822270000006,107.56396500000028
139,46.025878999999804,62.69238299999961,91.9228520000006,97.56396500000028,92.56396500000028,99.10253900000043,89.23095699999976,93.0771479999994,88.46142599999985,134.10253900000043,59.35888699999941,79.48730499999965,41.79492200000004,111.41015599999992
140,35.0,54.35888699999941,82.30761700000039,89.74365200000011,82.43603499999972,94.35888699999941,76.41015599999992,84.87158199999976,80.25634799999989,122.30761700000039,48.846190999999635,67.05126999999993,29.615234000000783,107.05126999999993
141,29.871581999999762,48.0771479999994,78.84619099999964,91.53857400000015,80.76904300000024,91.15380900000036,67.43603499999972,80.89746099999957,74.35888699999941,106.6665039999998,46.025878999999804,60.12841800000024,20.128418000000238,101.53857400000015
142,37.69238299999961,50.12841800000024,88.20507799999996,104.35888699999941,84.87158199999976,95.0,74.10253900000043,86.0258789999998,76.0258789999998,99.74365200000011,56.79492200000004,67.43603499999972,21.538574000000153,103.84619099999964
143,55.897460999999566,60.897460999999566,105.38476599999922,119.61523400000078,89.74365200000011,106.53857400000015,95.76904300000024,97.82031300000017,85.0,107.82031300000017,75.89746099999957,86.79492200000004,34.87158199999976,109.23095699999976
144,74.74365200000011,75.51269500000035,118.9741210000002,126.9228520000006,93.3334960000002,121.79492200000004,119.48730499999965,109.48730499999965,96.41015599999992,126.53857400000015,93.46142599999985,107.30761700000039,53.7177729999994,107.56396500000028
145,83.20507799999996,85.25634799999989,121.0258789999998,121.79492200000004,96.6665039999998,132.94873000000007,129.3588869999994,114.61523400000078,103.46142599999985,142.05126999999993,100.64111300000059,116.41015599999992,67.05126999999993,102.17968800000017
146,76.0258789999998,83.20507799999996,110.76904300000024,108.3334960000002,100.12841800000024,132.82031300000017,117.69238299999961,111.15380900000036,101.79492200000004,141.79492200000004,94.74365200000011,108.3334960000002,66.53857400000015,103.7177729999994
147,58.589844000000085,71.2822270000006,94.48730499999965,95.12841800000024,103.58984400000008,122.69238299999961,92.30761700000039,102.69238299999961,93.9741210000002,126.0258789999998,81.2822270000006,87.82031300000017,53.7177729999994,110.12841800000024
148,44.87158199999976,60.38476599999922,82.30761700000039,90.25634799999989,108.46142599999985,111.9228520000006,70.89746099999957,95.89746099999957,87.82031300000017,110.0,72.17968800000017,69.35888699999941,41.153809000000365,110.76904300000024
149,45.0,60.0,82.30761700000039,95.89746099999957,114.23095699999976,108.58984400000008,67.30761700000039,95.76904300000024,89.35888699999941,109.61523400000078,75.64111300000059,65.64111300000059,40.25634799999989,105.25634799999989
150,56.2822270000006,68.0771479999994,93.20507799999996,106.41015599999992,116.6665039999998,111.15380900000036,79.48730499999965,100.76904300000024,97.05126999999993,126.0258789999998,88.84619099999964,77.30761700000039,51.025878999999804,104.23095699999976
151,67.30761700000039,75.64111300000059,104.74365200000011,112.94873000000007,111.41015599999992,111.79492200000004,93.46142599999985,104.35888699999941,104.87158199999976,146.6665039999998,101.6665039999998,92.69238299999961,63.846190999999635,109.61523400000078
152,70.89746099999957,76.6665039999998,107.17968800000017,111.2822270000006,100.64111300000059,107.17968800000017,97.56396500000028,102.82031300000017,107.82031300000017,157.94873000000007,107.05126999999993,100.12841800000024,70.0,111.15380900000036
153,68.7177729999994,73.46142599999985,101.53857400000015,105.25634799999989,92.69238299999961,101.15380900000036,91.53857400000015,97.82031300000017,106.53857400000015,155.51269500000035,105.89746099999957,97.56396500000028,68.20507799999996,105.51269500000035
154,65.38476599999922,70.12841800000024,95.38476599999922,101.9228520000006,92.94873000000007,98.9741210000002,83.20507799999996,94.10253900000043,103.9741210000002,143.84619099999964,102.69238299999961,90.64111300000059,62.30761700000039,102.69238299999961
155,63.846190999999635,68.9741210000002,93.7177729999994,103.20507799999996,100.38476599999922,102.05126999999993,80.76904300000024,94.10253900000043,102.30761700000039,130.76904300000024,101.0258789999998,86.0258789999998,57.05126999999993,107.69238299999961
156,64.61523400000078,70.64111300000059,95.64111300000059,106.41015599999992,109.23095699999976,108.46142599999985,86.41015599999992,97.05126999999993,102.17968800000017,124.23095699999976,102.17968800000017,86.41015599999992,55.76904300000024,111.0258789999998
157,66.9228520000006,74.35888699999941,98.46142599999985,108.3334960000002,114.87158199999976,114.61523400000078,95.76904300000024,100.51269500000035,103.3334960000002,127.30761700000039,106.15380900000036,90.76904300000024,59.102539000000434,105.89746099999957
158,68.0771479999994,77.17968800000017,100.76904300000024,108.0771479999994,114.48730499999965,116.9228520000006,102.05126999999993,102.17968800000017,104.61523400000078,135.89746099999957,110.25634799999989,94.87158199999976,62.69238299999961,100.38476599999922
159,66.79492200000004,77.17968800000017,102.05126999999993,107.43603499999972,109.61523400000078,114.10253900000043,102.43603499999972,101.79492200000004,104.87158199999976,142.3076170000004,112.30761700000039,95.12841800000024,62.94873000000007,103.7177729999994
160,65.76904300000024,77.05126999999993,102.05126999999993,107.94873000000007,106.15380900000036,110.38476599999922,100.76904300000024,101.0258789999998,105.25634799999989,143.3334960000002,113.0771479999994,92.69238299999961,61.2822270000006,109.87158199999976
161,68.46142599999985,80.76904300000024,101.53857400000015,110.0,109.87158199999976,111.79492200000004,101.79492200000004,101.6665039999998,107.05126999999993,142.05126999999993,114.74365200000011,91.15380900000036,62.05126999999993,109.74365200000011
162,72.30761700000039,85.38476599999922,101.53857400000015,112.05126999999993,118.3334960000002,117.05126999999993,104.61523400000078,102.94873000000007,109.87158199999976,140.76904300000024,116.6665039999998,91.79492200000004,64.35888699999941,106.79492200000004
163,71.53857400000015,83.7177729999994,101.15380900000036,112.17968800000017,122.56396500000028,119.35888699999941,104.48730499999965,101.9228520000006,110.89746099999957,138.3334960000002,116.2822270000006,91.79492200000004,62.82031300000017,109.48730499999965
164,66.0258789999998,74.48730499999965,99.74365200000011,110.0,117.05126999999993,115.38476599999922,101.0258789999998,98.46142599999985,109.48730499999965,134.87158199999976,114.87158199999976,89.74365200000011,57.56396500000028,114.35888699999941
165,62.94873000000007,66.0258789999998,99.35888699999941,107.56396500000028,106.53857400000015,109.61523400000078,99.74365200000011,96.41015599999992,108.7177729999994,135.2563479999999,117.56396500000028,88.20507799999996,56.025878999999804,111.53857400000015
166,65.89746099999957,65.25634799999989,101.53857400000015,107.43603499999972,98.58984400000008,106.9228520000006,102.94873000000007,98.84619099999964,110.76904300000024,142.17968800000017,125.38476599999922,89.35888699999941,61.666503999999804,103.3334960000002
167,68.58984400000008,68.3334960000002,103.7177729999994,108.7177729999994,94.61523400000078,105.25634799999989,104.87158199999976,102.56396500000028,114.23095699999976,149.10253900000043,131.53857400000015,89.74365200000011,67.05126999999993,101.53857400000015
168,63.46142599999985,66.41015599999992,100.76904300000024,108.3334960000002,90.64111300000059,100.64111300000059,99.74365200000011,102.69238299999961,116.15380900000036,147.17968800000017,130.0,85.0,62.82031300000017,107.69238299999961
169,53.589844000000085,58.46142599999985,93.46142599999985,106.2822270000006,86.15380900000036,95.64111300000059,91.6665039999998,98.84619099999964,116.6665039999998,136.53857400000015,124.74365200000011,77.56396500000028,51.2822270000006,111.15380900000036
170,48.974121000000196,52.05126999999993,89.35888699999941,106.0258789999998,85.38476599999922,96.6665039999998,90.89746099999957,96.6665039999998,119.87158199999976,128.0771479999994,126.6665039999998,75.64111300000059,44.35888699999941,108.20507799999996
171,55.25634799999989,54.102539000000434,94.35888699999941,110.12841800000024,92.30761700000039,105.89746099999957,102.69238299999961,101.0258789999998,128.20507799999996,132.17968800000017,141.0258789999998,83.58984400000008,49.74365200000011,106.9228520000006
172,67.69238299999961,63.589844000000085,105.25634799999989,116.79492200000004,106.6665039999998,117.17968800000017,120.64111300000059,109.87158199999976,139.10253900000043,148.20507799999996,162.05126999999993,96.79492200000004,63.589844000000085,110.76904300000024
173,77.43603499999972,74.10253900000043,112.69238299999961,121.6665039999998,123.7177729999994,123.3334960000002,133.3334960000002,117.30761700000039,147.82031300000017,166.15380900000036,179.10253900000043,106.6665039999998,75.12841800000024,111.2822270000006
174,77.82031300000017,78.20507799999996,112.05126999999993,122.05126999999993,136.79492200000004,120.89746099999957,133.3334960000002,118.46142599999985,150.89746099999957,174.23095699999976,184.10253900000043,107.05126999999993,76.79492200000004,104.23095699999976
175,67.17968800000017,71.0258789999998,105.25634799999989,117.94873000000007,138.20507799999996,111.53857400000015,121.79492200000004,113.20507799999996,148.20507799999996,166.6665039999998,176.0258789999998,97.94873000000007,66.79492200000004,99.35888699999941
176,50.12841800000024,54.61523400000078,97.05126999999993,110.76904300000024,124.87158199999976,101.0258789999998,106.9228520000006,105.12841800000024,142.94873000000007,147.56396500000028,160.89746099999957,83.9741210000002,50.0,103.7177729999994
177,36.79492200000004,38.974121000000196,91.0258789999998,103.7177729999994,103.84619099999964,97.05126999999993,98.20507799999996,99.48730499999965,139.7436520000001,129.23095699999976,149.87158199999976,73.0771479999994,36.666503999999804,109.48730499999965
178,36.410155999999915,36.410155999999915,90.0,100.76904300000024,90.38476599999922,104.35888699999941,100.51269500000035,100.25634799999989,142.05126999999993,125.12841800000024,151.15380900000036,71.9228520000006,37.05126999999993,107.82031300000017
179,49.35888699999941,49.61523400000078,94.35888699999941,103.84619099999964,95.38476599999922,119.87158199999976,110.12841800000024,107.05126999999993,148.9741210000002,139.48730499999965,162.82031300000017,80.76904300000024,52.30761700000039,104.10253900000043
180,66.15380900000036,70.0,100.51269500000035,110.76904300000024,116.6665039999998,133.58984400000008,118.0771479999994,114.23095699999976,155.51269500000035,163.58984400000008,175.0,92.43603499999972,73.0771479999994,107.69238299999961
181,77.82031300000017,86.15380900000036,103.3334960000002,117.17968800000017,141.0258789999998,138.58984400000008,119.35888699999941,115.89746099999957,157.6923829999996,181.6665039999998,180.76904300000024,99.61523400000078,88.0771479999994,113.84619099999964
182,82.82031300000017,93.46142599999985,102.69238299999961,119.74365200000011,153.7177729999994,135.12841800000024,117.17968800000017,112.05126999999993,155.76904300000024,182.56396500000028,183.0771479999994,101.15380900000036,92.69238299999961,112.43603499999972
183,83.58984400000008,92.94873000000007,102.69238299999961,118.7177729999994,146.41015599999992,127.56396500000028,117.17968800000017,107.30761700000039,152.6923829999996,164.7436520000001,187.94873000000007,101.79492200000004,88.3334960000002,106.0258789999998
184,80.89746099999957,86.15380900000036,105.38476599999922,115.64111300000059,121.53857400000015,118.3334960000002,119.10253900000043,105.51269500000035,149.7436520000001,136.79492200000004,195.38476599999922,104.10253900000043,78.58984400000008,105.38476599999922
185,75.38476599999922,75.51269500000035,107.69238299999961,113.0771479999994,93.9741210000002,110.0,117.82031300000017,106.41015599999992,146.53857400000015,113.58984400000008,199.87158199999976,106.9228520000006,68.84619099999964,110.38476599999922
186,71.2822270000006,67.43603499999972,106.9228520000006,113.3334960000002,83.7177729999994,106.53857400000015,111.6665039999998,107.82031300000017,143.7177729999994,109.35888699999941,197.6923829999996,107.69238299999961,67.05126999999993,110.89746099999957
187,74.10253900000043,68.0771479999994,105.25634799999989,117.43603499999972,100.12841800000024,111.2822270000006,105.38476599999922,108.7177729999994,142.94873000000007,128.58984400000008,191.2822270000006,107.30761700000039,78.46142599999985,106.15380900000036
188,84.10253900000043,77.69238299999961,106.41015599999992,122.69238299999961,132.43603499999972,121.53857400000015,105.12841800000024,109.35888699999941,145.12841800000024,160.89746099999957,186.15380900000036,107.69238299999961,99.74365200000011,105.89746099999957
189,95.51269500000035,90.25634799999989,109.61523400000078,123.9741210000002,158.0771479999994,130.89746099999957,112.17968800000017,110.25634799999989,149.3588869999994,187.6923829999996,186.2822270000006,110.0,120.76904300000024,112.17968800000017
190,102.17968800000017,98.0771479999994,111.0258789999998,118.84619099999964,161.6665039999998,133.9741210000002,121.9228520000006,112.05126999999993,153.3334960000002,194.61523400000078,192.43603499999972,113.20507799999996,132.43603499999972,115.12841800000024
191,101.6665039999998,97.17968800000017,109.48730499999965,110.76904300000024,144.61523400000078,129.61523400000078,127.30761700000039,114.61523400000078,155.51269500000035,180.76904300000024,200.89746099999957,115.76904300000024,131.9228520000006,110.25634799999989
192,96.53857400000015,89.23095699999976,107.94873000000007,105.64111300000059,121.53857400000015,120.64111300000059,125.89746099999957,117.17968800000017,155.2563479999999,157.56396500000028,205.76904300000024,116.9228520000006,123.46142599999985,107.05126999999993
193,93.0771479999994,81.79492200000004,109.87158199999976,107.69238299999961,108.46142599999985,112.82031300000017,121.79492200000004,119.35888699999941,153.20507799999996,140.89746099999957,204.7436520000001,118.20507799999996,115.38476599999922,111.15380900000036
194,98.46142599999985,84.87158199999976,115.64111300000059,115.89746099999957,113.46142599999985,113.0771479999994,123.20507799999996,122.17968800000017,151.79492200000004,140.89746099999957,202.94873000000007,122.94873000000007,115.89746099999957,113.84619099999964
195,113.20507799999996,100.25634799999989,124.10253900000043,125.51269500000035,130.89746099999957,123.46142599999985,133.46142599999985,126.41015599999992,152.82031300000017,153.9741210000002,207.17968800000017,133.0771479999994,126.6665039999998,108.46142599999985
196,127.05126999999993,116.41015599999992,131.2822270000006,130.76904300000024,144.10253900000043,135.0,145.2563479999999,129.87158199999976,154.3588869999994,163.7177729999994,216.9228520000006,143.58984400000008,138.0771479999994,102.69238299999961
197,125.89746099999957,116.41015599999992,131.41015599999992,127.56396500000028,138.20507799999996,135.2563479999999,146.41015599999992,128.0771479999994,152.56396500000028,155.12841800000024,221.79492200000004,145.0,137.17968800000017,105.89746099999957
198,107.05126999999993,97.05126999999993,121.2822270000006,117.56396500000028,115.12841800000024,122.17968800000017,131.79492200000004,119.35888699999941,146.2822270000006,131.15380900000036,212.82031300000017,132.17968800000017,121.0258789999998,112.69238299999961
199,83.20507799999996,72.69238299999961,106.15380900000036,107.30761700000039,94.10253900000043,107.17968800000017,110.25634799999989,107.94873000000007,139.61523400000078,111.2822270000006,192.05126999999993,111.53857400000015,101.15380900000036,112.30761700000039
200,71.15380900000036,61.9228520000006,96.6665039999998,103.7177729999994,92.82031300000017,103.46142599999985,96.9228520000006,100.51269500000035,137.05126999999993,113.20507799999996,171.2822270000006,96.53857400000015,91.2822270000006,107.43603499999972
201,76.9228520000006,71.15380900000036,98.9741210000002,107.30761700000039,111.15380900000036,113.0771479999994,100.25634799999989,100.64111300000059,139.87158199999976,135.6411130000006,161.15380900000036,95.76904300000024,94.87158199999976,107.94873000000007
202,94.23095699999976,92.05126999999993,108.9741210000002,113.3334960000002,134.61523400000078,128.0771479999994,116.53857400000015,106.6665039999998,144.87158199999976,162.94873000000007,164.3588869999994,107.43603499999972,106.2822270000006,112.56396500000028
203,111.79492200000004,111.53857400000015,118.46142599999985,117.17968800000017,148.46142599999985,139.3588869999994,134.87158199999976,114.10253900000043,149.61523400000078,179.3588869999994,175.6411130000006,123.0771479999994,118.0771479999994,111.53857400000015
204,121.15380900000036,120.12841800000024,123.0771479999994,118.46142599999985,147.43603499999972,141.53857400000015,144.87158199999976,118.84619099999964,152.3076170000004,179.3588869999994,186.6665039999998,133.7177729999994,125.76904300000024,105.51269500000035
205,119.10253900000043,115.89746099999957,123.20507799999996,119.35888699999941,136.0258789999998,135.0,143.0771479999994,118.7177729999994,151.9228520000006,166.41015599999992,192.43603499999972,135.2563479999999,127.05126999999993,104.35888699999941
206,110.25634799999989,105.89746099999957,121.0258789999998,121.2822270000006,124.23095699999976,125.51269500000035,134.3588869999994,115.51269500000035,149.10253900000043,150.12841800000024,194.3588869999994,130.51269500000035,123.7177729999994,109.48730499999965
207,104.23095699999976,100.76904300000024,119.10253900000043,123.84619099999964,120.89746099999957,121.6665039999998,128.84619099999964,113.3334960000002,146.41015599999992,141.79492200000004,198.7177729999994,127.17968800000017,121.15380900000036,110.76904300000024
208,106.2822270000006,105.12841800000024,120.0,125.89746099999957,126.53857400000015,126.6665039999998,131.9228520000006,115.51269500000035,145.76904300000024,145.38476599999922,207.43603499999972,130.51269500000035,122.69238299999961,105.51269500000035
209,112.43603499999972,112.43603499999972,123.20507799999996,125.51269500000035,133.3334960000002,134.7436520000001,140.12841800000024,120.12841800000024,146.53857400000015,154.3588869999994,215.12841800000024,137.6923829999996,125.51269500000035,104.10253900000043
210,115.51269500000035,114.10253900000043,124.87158199999976,121.6665039999998,134.10253900000043,138.46142599999985,145.76904300000024,122.69238299999961,147.43603499999972,160.38476599999922,214.10253900000043,141.2822270000006,126.15380900000036,111.2822270000006
211,113.7177729999994,110.12841800000024,122.17968800000017,116.0258789999998,130.89746099999957,136.79492200000004,146.2822270000006,121.79492200000004,148.58984400000008,162.94873000000007,204.23095699999976,138.20507799999996,126.2822270000006,116.9228520000006
212,111.0258789999998,106.79492200000004,117.30761700000039,112.30761700000039,130.6411130000006,134.61523400000078,143.9741210000002,119.61523400000078,151.41015599999992,168.0771479999994,192.56396500000028,132.05126999999993,129.3588869999994,113.9741210000002
213,108.84619099999964,106.53857400000015,114.23095699999976,111.53857400000015,134.87158199999976,134.48730499999965,141.0258789999998,118.9741210000002,154.48730499999965,176.2822270000006,185.6411130000006,126.9228520000006,132.94873000000007,109.61523400000078
214,104.74365200000011,106.2822270000006,114.10253900000043,112.17968800000017,137.17968800000017,133.3334960000002,136.53857400000015,119.10253900000043,154.87158199999976,179.3588869999994,183.9741210000002,123.3334960000002,130.38476599999922,111.6665039999998
215,98.9741210000002,104.10253900000043,114.35888699999941,111.9228520000006,133.46142599999985,129.61523400000078,130.51269500000035,118.58984400000008,151.79492200000004,170.6411130000006,184.87158199999976,120.25634799999989,120.89746099999957,114.23095699999976
216,96.41015599999992,102.43603499999972,114.48730499999965,112.05126999999993,126.15380900000036,126.0258789999998,126.0258789999998,117.82031300000017,147.82031300000017,153.58984400000008,185.89746099999957,118.7177729999994,111.9228520000006,109.35888699999941
217,99.35888699999941,103.3334960000002,116.0258789999998,114.61523400000078,120.38476599999922,125.12841800000024,126.79492200000004,117.94873000000007,146.15380900000036,137.6923829999996,186.0258789999998,120.25634799999989,110.64111300000059,103.20507799999996
218,105.51269500000035,105.64111300000059,119.23095699999976,119.48730499999965,118.9741210000002,126.41015599999992,133.0771479999994,119.48730499999965,146.79492200000004,131.41015599999992,185.2563479999999,124.23095699999976,117.05126999999993,105.51269500000035
219,111.41015599999992,108.20507799999996,121.9228520000006,123.20507799999996,123.84619099999964,129.3588869999994,142.6923829999996,121.9228520000006,148.46142599999985,138.20507799999996,184.87158199999976,128.7177729999994,126.6665039999998,112.43603499999972
220,115.38476599999922,112.30761700000039,122.05126999999993,123.58984400000008,134.87158199999976,133.9741210000002,151.15380900000036,125.12841800000024,150.2563479999999,155.38476599999922,186.53857400000015,132.17968800000017,134.23095699999976,113.0771479999994
221,115.0,116.2822270000006,119.74365200000011,120.25634799999989,145.6411130000006,137.56396500000028,153.20507799999996,127.56396500000028,150.76904300000024,172.05126999999993,187.6923829999996,132.56396500000028,134.3588869999994,108.20507799999996
222,107.30761700000039,115.25634799999989,115.25634799999989,114.74365200000011,146.53857400000015,135.38476599999922,144.7436520000001,126.53857400000015,148.7177729999994,175.2563479999999,182.43603499999972,127.56396500000028,124.10253900000043,108.3334960000002
223,95.38476599999922,108.46142599999985,109.23095699999976,109.35888699999941,135.38476599999922,127.43603499999972,130.12841800000024,121.41015599999992,144.7436520000001,161.2822270000006,169.7436520000001,118.84619099999964,108.58984400000008,113.58984400000008
224,89.10253900000043,103.20507799999996,105.12841800000024,107.94873000000007,121.6665039999998,120.89746099999957,120.64111300000059,115.89746099999957,142.17968800000017,141.79492200000004,157.43603499999972,113.7177729999994,101.2822270000006,113.84619099999964
225,95.64111300000059,106.0258789999998,108.20507799999996,112.30761700000039,117.30761700000039,123.0771479999994,124.48730499999965,115.38476599999922,143.58984400000008,132.6923829999996,155.38476599999922,118.58984400000008,109.74365200000011,107.56396500000028
226,109.87158199999976,113.84619099999964,118.3334960000002,119.61523400000078,123.0771479999994,132.05126999999993,138.20507799999996,120.38476599999922,147.43603499999972,138.58984400000008,164.87158199999976,131.0258789999998,126.2822270000006,105.12841800000024
227,119.61523400000078,117.69238299999961,127.56396500000028,123.9741210000002,131.0258789999998,138.7177729999994,149.7436520000001,126.15380900000036,148.84619099999964,150.38476599999922,177.6923829999996,140.89746099999957,135.38476599999922,110.0
228,118.20507799999996,113.84619099999964,128.46142599999985,122.94873000000007,133.9741210000002,137.56396500000028,150.51269500000035,127.82031300000017,145.89746099999957,157.43603499999972,185.2563479999999,140.51269500000035,129.87158199999976,112.69238299999961
229,108.9741210000002,106.79492200000004,121.2822270000006,118.9741210000002,131.53857400000015,130.38476599999922,141.6665039999998,124.87158199999976,140.51269500000035,156.0258789999998,183.58984400000008,130.76904300000024,115.76904300000024,108.46142599999985
230,98.7177729999994,101.79492200000004,112.56396500000028,115.64111300000059,126.2822270000006,121.9228520000006,130.2563479999999,120.0,136.41015599999992,149.23095699999976,174.3588869999994,118.7177729999994,104.35888699999941,105.64111300000059
231,92.17968800000017,100.64111300000059,107.69238299999961,113.3334960000002,121.15380900000036,115.89746099999957,123.0771479999994,115.76904300000024,135.38476599999922,141.79492200000004,162.6923829999996,111.0258789999998,102.30761700000039,110.51269500000035
232,92.94873000000007,102.82031300000017,107.82031300000017,111.2822270000006,119.48730499999965,115.0,123.46142599999985,113.9741210000002,137.56396500000028,138.84619099999964,156.6665039999998,111.53857400000015,110.89746099999957,114.61523400000078
233,101.41015599999992,107.69238299999961,112.30761700000039,110.12841800000024,123.20507799999996,119.35888699999941,129.87158199999976,115.38476599999922,141.2822270000006,142.94873000000007,163.0771479999994,120.38476599999922,125.51269500000035,110.0
234,112.17968800000017,111.41015599999992,119.35888699999941,111.0258789999998,128.9741210000002,123.9741210000002,136.6665039999998,118.46142599999985,144.10253900000043,150.2563479999999,179.10253900000043,132.94873000000007,137.3076170000004,103.58984400000008
235,117.05126999999993,109.61523400000078,124.87158199999976,113.3334960000002,130.38476599999922,123.20507799999996,137.43603499999972,120.25634799999989,143.84619099999964,152.94873000000007,191.9228520000006,141.15380900000036,138.0771479999994,105.64111300000059
236,113.20507799999996,103.46142599999985,124.61523400000078,114.48730499999965,125.89746099999957,116.9228520000006,132.05126999999993,119.35888699999941,141.41015599999992,147.6923829999996,190.6411130000006,139.7436520000001,129.23095699999976,111.9228520000006
237,106.41015599999992,99.35888699999941,118.84619099999964,113.3334960000002,120.89746099999957,111.53857400000015,125.64111300000059,117.43603499999972,139.3588869999994,139.23095699999976,176.6665039999998,130.89746099999957,120.51269500000035,112.56396500000028
238,102.56396500000028,100.64111300000059,112.94873000000007,111.6665039999998,118.9741210000002,111.79492200000004,123.20507799999996,116.79492200000004,139.7436520000001,133.84619099999964,161.6665039999998,121.9228520000006,119.35888699999941,108.84619099999964
239,101.53857400000015,103.3334960000002,111.15380900000036,111.6665039999998,117.69238299999961,114.61523400000078,124.35888699999941,117.30761700000039,140.89746099999957,132.43603499999972,156.15380900000036,118.0771479999994,122.56396500000028,110.0
240,100.89746099999957,102.30761700000039,112.94873000000007,113.7177729999994,112.56396500000028,114.61523400000078,126.6665039999998,117.30761700000039,140.89746099999957,133.84619099999964,162.43603499999972,120.25634799999989,123.7177729999994,114.23095699999976
241,101.41015599999992,99.61523400000078,116.53857400000015,116.9228520000006,105.89746099999957,111.6665039999998,129.48730499999965,116.79492200000004,140.12841800000024,138.20507799999996,175.6411130000006,127.17968800000017,122.30761700000039,112.43603499999972
242,105.89746099999957,100.89746099999957,121.15380900000036,120.12841800000024,103.9741210000002,109.48730499999965,133.84619099999964,117.43603499999972,140.89746099999957,146.79492200000004,186.15380900000036,136.15380900000036,122.69238299999961,105.12841800000024
243,112.05126999999993,107.56396500000028,125.38476599999922,120.89746099999957,110.38476599999922,110.76904300000024,137.43603499999972,120.0,143.58984400000008,156.15380900000036,184.87158199999976,142.6923829999996,126.41015599999992,103.3334960000002
244,114.74365200000011,114.87158199999976,125.38476599999922,117.94873000000007,122.94873000000007,114.35888699999941,136.79492200000004,122.69238299999961,146.2822270000006,161.15380900000036,170.89746099999957,142.05126999999993,129.87158199999976,109.35888699999941
245,112.69238299999961,118.9741210000002,119.61523400000078,111.9228520000006,137.43603499999972,118.58984400000008,131.79492200000004,123.84619099999964,146.9228520000006,160.38476599999922,154.23095699999976,134.7436520000001,130.38476599999922,112.56396500000028
246,108.84619099999964,119.35888699999941,112.05126999999993,107.43603499999972,148.20507799999996,122.30761700000039,126.6665039999998,123.58984400000008,146.15380900000036,157.56396500000028,147.82031300000017,126.53857400000015,128.58984400000008,108.3334960000002
247,106.15380900000036,116.53857400000015,109.23095699999976,107.82031300000017,148.9741210000002,122.56396500000028,125.51269500000035,122.94873000000007,144.61523400000078,155.12841800000024,154.87158199999976,123.20507799999996,125.89746099999957,105.76904300000024
248,104.48730499999965,111.15380900000036,112.82031300000017,112.56396500000028,137.43603499999972,118.20507799999996,128.46142599999985,121.79492200000004,142.94873000000007,152.43603499999972,166.53857400000015,125.12841800000024,123.20507799999996,109.74365200000011
249,103.9741210000002,106.0258789999998,118.0771479999994,117.43603499999972,120.12841800000024,112.30761700000039,132.94873000000007,120.25634799999989,141.6665039999998,147.82031300000017,171.79492200000004,128.7177729999994,121.6665039999998,112.05126999999993
250,104.10253900000043,103.58984400000008,120.38476599999922,118.9741210000002,108.3334960000002,110.0,134.7436520000001,118.58984400000008,141.2822270000006,141.15380900000036,166.9228520000006,130.0,121.41015599999992,107.05126999999993
251,102.69238299999961,102.17968800000017,118.20507799999996,116.41015599999992,107.17968800000017,111.2822270000006,130.89746099999957,116.79492200000004,141.15380900000036,132.56396500000028,155.2563479999999,126.9228520000006,119.61523400000078,102.82031300000017
252,97.82031300000017,98.46142599999985,112.82031300000017,111.2822270000006,112.30761700000039,111.6665039999998,121.9228520000006,114.23095699999976,139.48730499999965,123.0771479999994,143.3334960000002,120.0,112.94873000000007,107.56396500000028
253,93.7177729999994,94.74365200000011,108.46142599999985,106.53857400000015,118.20507799999996,110.0,114.61523400000078,111.79492200000004,137.43603499999972,117.30761700000039,138.7177729999994,114.87158199999976,106.15380900000036,114.35888699999941
254,98.3334960000002,98.20507799999996,110.25634799999989,105.76904300000024,124.10253900000043,110.64111300000059,117.05126999999993,112.69238299999961,138.9741210000002,121.0258789999998,146.9228520000006,118.84619099999964,108.58984400000008,112.94873000000007
255,113.58984400000008,111.41015599999992,120.25634799999989,110.64111300000059,131.0258789999998,116.41015599999992,130.51269500000035,118.7177729999994,145.38476599999922,133.84619099999964,165.12841800000024,133.3334960000002,123.46142599999985,107.43603499999972
256,130.6411130000006,126.9228520000006,133.0771479999994,118.46142599999985,137.56396500000028,124.35888699999941,146.0258789999998,126.9228520000006,152.82031300000017,147.82031300000017,182.94873000000007,150.76904300000024,141.41015599999992,108.20507799999996
257,139.10253900000043,134.87158199999976,139.3588869999994,123.84619099999964,140.38476599999922,129.23095699999976,153.0771479999994,132.17968800000017,155.6411130000006,154.7436520000001,190.2563479999999,160.51269500000035,150.12841800000024,112.94873000000007
258,135.76904300000024,132.05126999999993,135.12841800000024,123.3334960000002,139.3588869999994,129.7436520000001,148.46142599999985,132.05126999999993,152.6923829999996,153.46142599999985,184.87158199999976,157.82031300000017,146.41015599999992,112.05126999999993
259,125.38476599999922,122.30761700000039,124.61523400000078,117.56396500000028,135.0,127.30761700000039,136.6665039999998,127.30761700000039,147.05126999999993,146.79492200000004,171.2822270000006,146.2822270000006,136.15380900000036,106.79492200000004
260,114.10253900000043,111.2822270000006,115.0,110.12841800000024,126.79492200000004,122.56396500000028,124.61523400000078,120.38476599999922,142.05126999999993,137.43603499999972,155.89746099999957,132.6923829999996,126.9228520000006,107.43603499999972
261,107.17968800000017,104.23095699999976,109.74365200000011,105.0,116.53857400000015,116.9228520000006,117.69238299999961,113.58984400000008,139.23095699999976,128.20507799999996,146.0258789999998,123.3334960000002,122.17968800000017,113.9741210000002
262,108.46142599999985,105.12841800000024,109.10253900000043,105.38476599999922,110.12841800000024,113.3334960000002,117.94873000000007,109.48730499999965,139.23095699999976,124.10253900000043,146.79492200000004,122.43603499999972,123.0771479999994,115.64111300000059
263,117.05126999999993,114.10253900000043,112.30761700000039,111.15380900000036,112.82031300000017,114.23095699999976,123.46142599999985,110.12841800000024,141.79492200000004,128.46142599999985,157.94873000000007,129.87158199999976,127.56396500000028,109.61523400000078
264,126.15380900000036,124.61523400000078,117.82031300000017,118.20507799999996,122.69238299999961,117.56396500000028,128.58984400000008,114.35888699999941,144.61523400000078,137.56396500000028,171.41015599999992,139.48730499999965,131.15380900000036,106.2822270000006
265,128.46142599999985,129.10253900000043,121.41015599999992,121.79492200000004,131.2822270000006,119.10253900000043,128.7177729999994,118.58984400000008,145.6411130000006,143.46142599999985,176.79492200000004,143.58984400000008,130.38476599999922,109.87158199999976
266,122.94873000000007,126.0258789999998,120.0,120.64111300000059,131.15380900000036,118.0771479999994,124.23095699999976,119.87158199999976,144.23095699999976,140.51269500000035,170.51269500000035,138.7177729999994,126.9228520000006,111.41015599999992
267,113.84619099999964,118.84619099999964,115.12841800000024,117.17968800000017,120.38476599999922,115.89746099999957,118.84619099999964,118.3334960000002,141.53857400000015,129.48730499999965,156.79492200000004,128.46142599999985,124.61523400000078,105.76904300000024
268,105.76904300000024,111.2822270000006,111.0258789999998,114.10253900000043,103.46142599999985,113.3334960000002,115.25634799999989,115.38476599999922,138.46142599999985,115.12841800000024,142.6923829999996,118.58984400000008,124.35888699999941,102.17968800000017
269,101.9228520000006,105.89746099999957,109.10253900000043,111.2822270000006,89.35888699999941,109.61523400000078,112.94873000000007,112.05126999999993,135.2563479999999,104.10253900000043,133.84619099999964,113.46142599999985,125.0,108.0771479999994
270,106.15380900000036,107.56396500000028,108.84619099999964,108.7177729999994,88.0771479999994,106.6665039999998,112.30761700000039,109.61523400000078,133.58984400000008,103.20507799999996,134.48730499999965,115.25634799999989,129.10253900000043,115.12841800000024
271,121.0258789999998,120.64111300000059,110.89746099999957,108.7177729999994,102.82031300000017,108.20507799999996,114.23095699999976,110.0,135.76904300000024,114.74365200000011,146.0258789999998,124.74365200000011,141.0258789999998,113.7177729999994
272,143.0771479999994,141.79492200000004,116.2822270000006,113.0771479999994,124.23095699999976,113.46142599999985,117.94873000000007,113.46142599999985,141.0258789999998,130.89746099999957,163.46142599999985,138.58984400000008,159.61523400000078,108.84619099999964
273,163.0771479999994,161.0258789999998,122.82031300000017,119.74365200000011,136.79492200000004,117.56396500000028,119.35888699999941,116.9228520000006,145.2563479999999,138.46142599999985,176.79492200000004,149.3588869999994,177.43603499999972,110.12841800000024
274,175.6411130000006,171.9228520000006,125.89746099999957,125.0,133.46142599999985,117.17968800000017,115.76904300000024,117.56396500000028,144.61523400000078,131.79492200000004,178.58984400000008,152.3076170000004,190.2563479999999,115.0
275,185.6411130000006,178.3334960000002,125.38476599999922,127.69238299999961,121.53857400000015,114.10253900000043,110.0,115.51269500000035,140.12841800000024,119.35888699999941,172.3076170000004,150.38476599999922,202.82031300000017,113.84619099999964
276,201.79492200000004,188.58984400000008,126.53857400000015,130.38476599999922,112.94873000000007,112.17968800000017,107.30761700000039,113.84619099999964,135.6411130000006,114.23095699999976,169.10253900000043,151.79492200000004,223.84619099999964,108.46142599999985
277,226.53857400000015,206.0258789999998,132.94873000000007,134.87158199999976,111.79492200000004,111.6665039999998,109.48730499999965,114.10253900000043,133.9741210000002,121.15380900000036,177.43603499999972,161.6665039999998,255.0,108.58984400000008
278,255.38476599999922,227.3076170000004,141.6665039999998,139.61523400000078,114.10253900000043,111.15380900000036,113.9741210000002,115.38476599999922,135.12841800000024,133.9741210000002,197.56396500000028,178.0771479999994,290.51269500000035,113.58984400000008
279,282.4360349999997,248.20507799999996,147.82031300000017,142.43603499999972,115.12841800000024,110.64111300000059,117.94873000000007,116.15380900000036,138.0771479999994,143.46142599999985,221.79492200000004,195.38476599999922,322.3076170000004,112.82031300000017
280,303.84619099999964,265.3847659999992,149.87158199999976,142.6923829999996,113.7177729999994,110.89746099999957,119.74365200000011,116.0258789999998,140.6411130000006,144.61523400000078,238.58984400000008,207.82031300000017,345.0,106.0258789999998
281,318.84619099999964,277.17968800000017,149.48730499999965,140.38476599999922,111.0258789999998,110.51269500000035,118.46142599999985,114.74365200000011,140.89746099999957,137.94873000000007,239.61523400000078,212.6923829999996,357.3076170000004,104.35888699999941
282,329.23095699999976,284.6152340000008,147.43603499999972,136.0258789999998,110.0,108.58984400000008,113.84619099999964,112.05126999999993,138.0771479999994,128.7177729999994,226.2822270000006,211.0258789999998,363.0771479999994,111.0258789999998
283,339.7436520000001,292.94873000000007,144.10253900000043,131.53857400000015,113.9741210000002,107.17968800000017,107.30761700000039,108.46142599999985,133.84619099999964,123.9741210000002,210.12841800000024,207.05126999999993,370.12841800000024,115.38476599999922
284,353.7177729999994,306.4101559999999,142.3076170000004,130.89746099999957,122.43603499999972,109.48730499999965,101.6665039999998,105.89746099999957,131.53857400000015,127.05126999999993,204.3588869999994,206.15380900000036,383.5898440000001,111.53857400000015
285,369.23095699999976,322.3076170000004,145.12841800000024,136.6665039999998,128.20507799999996,113.7177729999994,98.58984400000008,105.89746099999957,131.9228520000006,133.7177729999994,212.3076170000004,210.51269500000035,400.51269500000035,107.82031300000017
286,381.6665039999998,333.3334960000002,151.2822270000006,146.0258789999998,123.9741210000002,115.12841800000024,98.58984400000008,107.82031300000017,133.58984400000008,136.2822270000006,225.89746099999957,217.56396500000028,413.0771479999994,110.64111300000059
287,389.6152340000008,336.4101559999999,156.6665039999998,152.94873000000007,111.0258789999998,111.79492200000004,102.30761700000039,110.64111300000059,135.0,131.9228520000006,235.6411130000006,224.23095699999976,417.05126999999993,113.20507799999996
288,395.6411130000006,334.87158199999976,159.48730499999965,153.58984400000008,99.23095699999976,107.17968800000017,109.61523400000078,113.9741210000002,136.15380900000036,125.12841800000024,238.46142599999985,229.87158199999976,414.87158199999976,109.35888699999941
289,400.3847659999992,332.4360349999997,160.76904300000024,148.46142599999985,95.51269500000035,104.23095699999976,117.17968800000017,116.9228520000006,137.17968800000017,121.9228520000006,237.3076170000004,233.84619099999964,410.3847659999992,106.0258789999998
290,400.3847659999992,329.6152340000008,160.12841800000024,140.0,98.46142599999985,102.82031300000017,119.61523400000078,117.30761700000039,136.79492200000004,124.10253900000043,235.51269500000035,234.23095699999976,405.3847659999992,110.64111300000059
291,394.10253900000043,325.89746099999957,156.15380900000036,131.41015599999992,103.3334960000002,103.0771479999994,114.48730499999965,114.23095699999976,134.48730499999965,128.9741210000002,235.0,229.10253900000043,401.53857400000015,116.53857400000015
292,385.51269500000035,323.7177729999994,149.7436520000001,126.2822270000006,108.58984400000008,107.17968800000017,105.64111300000059,109.23095699999976,131.79492200000004,133.7177729999994,234.7436520000001,220.89746099999957,402.05126999999993,113.58984400000008
293,379.6152340000008,324.3588869999994,145.0,126.6665039999998,114.35888699999941,114.74365200000011,99.10253900000043,105.38476599999922,131.15380900000036,135.6411130000006,232.3076170000004,214.10253900000043,407.5639650000003,106.53857400000015
294,378.20507799999996,326.0258789999998,144.61523400000078,131.6665039999998,118.9741210000002,121.0258789999998,98.3334960000002,103.46142599999985,132.82031300000017,133.0771479999994,225.38476599999922,211.53857400000015,413.7177729999994,106.9228520000006
295,379.3588869999994,325.89746099999957,146.2822270000006,136.9228520000006,119.48730499999965,121.79492200000004,102.17968800000017,102.82031300000017,135.51269500000035,127.69238299999961,216.41015599999992,212.6923829999996,415.0,113.3334960000002
296,380.89746099999957,323.5898440000001,147.56396500000028,138.58984400000008,115.12841800000024,117.94873000000007,107.69238299999961,102.69238299999961,137.82031300000017,123.84619099999964,211.15380900000036,215.12841800000024,410.2563479999999,114.61523400000078
297,379.48730499999965,319.3588869999994,148.3334960000002,135.51269500000035,107.94873000000007,113.58984400000008,111.9228520000006,103.58984400000008,138.9741210000002,124.23095699999976,211.9228520000006,216.0258789999998,400.51269500000035,109.61523400000078
298,372.3076170000004,312.17968800000017,149.87158199999976,130.2563479999999,100.38476599999922,110.89746099999957,112.94873000000007,105.25634799999989,137.82031300000017,126.2822270000006,215.51269500000035,213.84619099999964,387.17968800000017,108.0771479999994
299,360.89746099999957,303.20507799999996,151.41015599999992,126.2822270000006,96.53857400000015,110.76904300000024,112.05126999999993,107.69238299999961,135.12841800000024,126.6665039999998,217.43603499999972,209.61523400000078,373.20507799999996,111.6665039999998
300,351.79492200000004,296.2822270000006,152.17968800000017,126.53857400000015,100.25634799999989,114.48730499999965,113.7177729999994,111.2822270000006,133.20507799999996,126.0258789999998,218.0771479999994,207.17968800000017,363.7177729999994,111.79492200000004
301,348.3334960000002,293.3334960000002,152.56396500000028,130.38476599999922,111.53857400000015,122.05126999999993,119.87158199999976,116.2822270000006,134.7436520000001,127.30761700000039,219.61523400000078,209.10253900000043,361.15380900000036,106.41015599999992
302,345.89746099999957,289.6152340000008,152.82031300000017,134.10253900000043,123.3334960000002,129.10253900000043,126.9228520000006,120.89746099999957,138.7177729999994,130.12841800000024,221.0258789999998,212.56396500000028,359.87158199999976,105.25634799999989
303,336.9228520000006,279.48730499999965,151.41015599999992,133.20507799999996,128.20507799999996,130.89746099999957,129.48730499999965,122.17968800000017,141.41015599999992,131.79492200000004,218.7177729999994,211.41015599999992,352.05126999999993,111.9228520000006
304,321.4101559999999,264.3588869999994,147.56396500000028,127.82031300000017,125.64111300000059,127.56396500000028,126.79492200000004,119.74365200000011,141.15380900000036,131.6665039999998,212.6923829999996,204.23095699999976,336.9228520000006,116.0258789999998
305,305.6411130000006,250.38476599999922,143.9741210000002,122.17968800000017,120.64111300000059,123.20507799999996,122.56396500000028,116.53857400000015,139.10253900000043,131.79492200000004,206.53857400000015,195.51269500000035,320.6411130000006,110.89746099999957
306,294.3588869999994,240.6411130000006,143.46142599999985,120.0,117.05126999999993,119.74365200000011,119.61523400000078,115.76904300000024,137.3076170000004,132.05126999999993,202.94873000000007,190.6411130000006,306.9228520000006,105.76904300000024
307,285.76904300000024,231.53857400000015,144.61523400000078,120.25634799999989,114.48730499999965,116.15380900000036,117.94873000000007,117.56396500000028,137.17968800000017,130.38476599999922,201.15380900000036,189.7436520000001,294.23095699999976,109.87158199999976
308,277.6923829999996,220.51269500000035,144.23095699999976,120.0,112.82031300000017,113.0771479999994,117.56396500000028,120.64111300000059,139.23095699999976,128.46142599999985,199.61523400000078,190.38476599999922,281.4101559999999,116.53857400000015
309,270.2563479999999,209.7436520000001,142.05126999999993,118.58984400000008,113.46142599999985,114.23095699999976,120.51269500000035,124.61523400000078,144.48730499999965,130.38476599999922,199.23095699999976,190.6411130000006,270.6411130000006,115.64111300000059
310,262.5639650000003,201.41015599999992,140.51269500000035,117.30761700000039,116.2822270000006,120.51269500000035,127.17968800000017,129.3588869999994,151.53857400000015,137.43603499999972,199.7436520000001,189.7436520000001,263.3334960000002,110.64111300000059
311,251.79492200000004,194.23095699999976,140.2563479999999,117.05126999999993,118.20507799999996,127.56396500000028,134.23095699999976,133.0771479999994,156.6665039999998,144.87158199999976,198.58984400000008,186.41015599999992,256.53857400000015,111.15380900000036
312,237.43603499999972,186.79492200000004,138.46142599999985,116.6665039999998,117.94873000000007,131.0258789999998,137.3076170000004,133.58984400000008,156.9228520000006,147.17968800000017,194.48730499999965,179.3588869999994,247.05126999999993,115.0
313,223.3334960000002,180.2563479999999,133.84619099999964,115.25634799999989,117.82031300000017,130.6411130000006,135.51269500000035,130.76904300000024,152.82031300000017,144.23095699999976,189.48730499999965,170.51269500000035,235.12841800000024,113.84619099999964
314,212.82031300000017,174.87158199999976,128.46142599999985,113.20507799999996,119.87158199999976,127.56396500000028,129.87158199999976,126.15380900000036,147.3076170000004,138.3334960000002,185.76904300000024,162.43603499999972,222.82031300000017,109.10253900000043
315,204.3588869999994,168.3334960000002,124.10253900000043,111.0258789999998,122.56396500000028,121.53857400000015,122.05126999999993,120.76904300000024,142.3076170000004,130.76904300000024,181.9228520000006,155.2563479999999,209.48730499999965,110.25634799999989
316,194.61523400000078,159.10253900000043,120.12841800000024,108.7177729999994,123.58984400000008,113.7177729999994,114.35888699999941,115.38476599999922,138.9741210000002,122.43603499999972,176.6665039999998,148.3334960000002,195.76904300000024,115.76904300000024
317,184.87158199999976,150.6411130000006,116.53857400000015,107.94873000000007,123.3334960000002,108.0771479999994,110.12841800000024,111.79492200000004,138.0771479999994,117.69238299999961,172.43603499999972,143.3334960000002,185.38476599999922,114.87158199999976
318,177.6923829999996,145.89746099999957,115.38476599999922,109.87158199999976,122.30761700000039,107.43603499999972,111.9228520000006,112.17968800000017,140.38476599999922,119.23095699999976,172.56396500000028,142.82031300000017,181.41015599999992,106.41015599999992
319,172.17968800000017,142.43603499999972,117.94873000000007,113.20507799999996,119.35888699999941,109.48730499999965,117.30761700000039,115.76904300000024,145.0,123.84619099999964,176.6665039999998,145.51269500000035,180.38476599999922,102.30761700000039
320,165.12841800000024,135.89746099999957,121.41015599999992,114.48730499999965,115.12841800000024,110.51269500000035,122.05126999999993,119.61523400000078,149.48730499999965,125.38476599999922,180.12841800000024,146.53857400000015,175.51269500000035,107.56396500000028
321,156.2822270000006,126.6665039999998,121.79492200000004,111.9228520000006,115.51269500000035,110.38476599999922,124.61523400000078,121.53857400000015,152.56396500000028,122.05126999999993,180.89746099999957,142.3076170000004,165.12841800000024,112.43603499999972
322,147.94873000000007,118.0771479999994,118.58984400000008,107.94873000000007,124.74365200000011,111.15380900000036,125.76904300000024,121.9228520000006,154.48730499999965,117.17968800000017,180.0,133.9741210000002,153.3334960000002,110.25634799999989
323,139.48730499999965,110.12841800000024,113.9741210000002,105.76904300000024,137.17968800000017,111.2822270000006,124.23095699999976,121.0258789999998,154.48730499999965,112.56396500000028,177.94873000000007,123.9741210000002,142.17968800000017,108.0771479999994
324,128.20507799999996,100.25634799999989,108.9741210000002,106.15380900000036,141.0258789999998,108.20507799999996,118.84619099999964,118.20507799999996,151.9228520000006,105.25634799999989,174.87158199999976,114.10253900000043,130.0,111.41015599999992
325,117.56396500000028,89.61523400000078,105.64111300000059,108.20507799999996,132.17968800000017,104.35888699999941,113.84619099999964,115.0,148.9741210000002,95.89746099999957,175.38476599999922,108.46142599999985,118.3334960000002,113.58984400000008
326,114.61523400000078,82.69238299999961,107.43603499999972,110.89746099999957,118.20507799999996,104.61523400000078,116.0258789999998,114.87158199999976,149.48730499999965,90.51269500000035,185.89746099999957,112.05126999999993,112.43603499999972,108.3334960000002
327,119.23095699999976,80.38476599999922,114.35888699999941,112.82031300000017,110.12841800000024,108.0771479999994,125.0,118.7177729999994,154.48730499999965,94.74365200000011,203.0771479999994,122.56396500000028,114.48730499999965,103.46142599999985
328,123.20507799999996,79.10253900000043,120.0,112.56396500000028,114.35888699999941,108.3334960000002,130.51269500000035,121.9228520000006,160.12841800000024,106.53857400000015,213.20507799999996,129.3588869999994,120.51269500000035,108.0771479999994
329,120.64111300000059,78.58984400000008,118.20507799999996,111.2822270000006,130.38476599999922,104.61523400000078,125.12841800000024,121.0258789999998,162.94873000000007,118.46142599999985,207.56396500000028,125.12841800000024,125.38476599999922,116.2822270000006
330,115.76904300000024,82.30761700000039,111.41015599999992,112.69238299999961,147.82031300000017,103.9741210000002,115.64111300000059,118.20507799999996,163.20507799999996,123.7177729999994,195.76904300000024,116.0258789999998,126.6665039999998,116.0258789999998
331,114.61523400000078,88.58984400000008,109.74365200000011,117.05126999999993,146.79492200000004,111.53857400000015,118.46142599999985,119.48730499999965,163.0771479999994,116.2822270000006,196.9228520000006,114.74365200000011,121.53857400000015,109.48730499999965
332,116.9228520000006,88.3334960000002,118.9741210000002,120.0,111.53857400000015,122.17968800000017,142.3076170000004,127.05126999999993,163.20507799999996,93.9741210000002,221.41015599999992,127.56396500000028,106.79492200000004,107.82031300000017
333,118.84619099999964,76.15380900000036,134.23095699999976,117.94873000000007,52.43603499999972,127.05126999999993,179.3588869999994,137.3076170000004,162.56396500000028,64.74365200000011,260.89746099999957,148.58984400000008,86.15380900000036,111.79492200000004
334,118.0771479999994,58.333496000000196,145.76904300000024,113.3334960000002,8.333496000000196,123.46142599999985,209.10253900000043,143.7177729999994,161.0258789999998,48.46142599999985,293.20507799999996,164.87158199999976,71.6665039999998,112.05126999999993
335,113.9741210000002,48.20507799999996,145.6411130000006,111.41015599999992,22.05126999999993,115.76904300000024,210.6411130000006,141.2822270000006,158.7177729999994,61.79492200000004,294.23095699999976,164.10253900000043,72.30761700000039,107.56396500000028
336,105.25634799999989,55.0,131.79492200000004,112.69238299999961,105.25634799999989,110.89746099999957,176.15380900000036,129.87158199999976,154.7436520000001,98.7177729999994,254.7436520000001,141.9228520000006,85.64111300000059,107.56396500000028
337,92.56396500000028,76.79492200000004,108.46142599999985,113.9741210000002,218.84619099999964,113.20507799999996,120.12841800000024,115.38476599999922,149.48730499999965,128.46142599999985,192.82031300000017,106.41015599999992,100.12841800000024,113.7177729999994
338,79.61523400000078,99.23095699999976,86.15380900000036,112.56396500000028,287.17968800000017,119.35888699999941,75.12841800000024,107.82031300000017,145.51269500000035,115.76904300000024,146.79492200000004,76.15380900000036,102.94873000000007,116.15380900000036
339,68.20507799999996,100.12841800000024,78.0771479999994,110.51269500000035,243.84619099999964,116.41015599999992,69.61523400000078,111.9228520000006,143.58984400000008,48.333496000000196,148.84619099999964,68.0771479999994,84.35888699999941,111.6665039999998
340,57.56396500000028,64.74365200000011,91.79492200000004,110.76904300000024,85.64111300000059,93.0771479999994,108.20507799999996,123.7177729999994,141.9228520000006,-49.48706099999981,199.3588869999994,86.9228520000006,43.7177729999994,110.0
341,52.82031300000017,7.948730000000069,123.20507799999996,116.53857400000015,-106.41015600000037,57.69238299999961,171.15380900000036,135.12841800000024,139.87158199999976,-126.41015600000037,267.3076170000004,124.74365200000011,1.0258789999998044,116.15380900000036
342,68.58984400000008,-24.487060999999812,160.89746099999957,130.38476599999922,-207.820557,41.53857400000015,231.9228520000006,144.7436520000001,141.15380900000036,-133.97436500000003,315.51269500000035,169.87158199999976,-8.461425999999847,120.38476599999922
343,115.25634799999989,10.384765999999217,192.05126999999993,152.43603499999972,-137.179443,71.9228520000006,271.4101559999999,158.0771479999994,151.15380900000036,-63.846190999999635,325.89746099999957,211.41015599999992,38.20507799999996,115.38476599999922
344,177.56396500000028,108.0771479999994,205.6411130000006,173.58984400000008,73.0771479999994,140.6411130000006,278.7177729999994,176.6665039999998,166.9228520000006,39.102539000000434,304.6152340000008,236.79492200000004,122.69238299999961,108.9741210000002
345,217.43603499999972,209.7436520000001,193.84619099999964,177.56396500000028,287.4360349999997,202.43603499999972,250.89746099999957,190.0,176.6665039999998,104.48730499999965,269.6152340000008,233.0771479999994,192.17968800000017,110.76904300000024
346,202.82031300000017,245.51269500000035,158.84619099999964,153.58984400000008,363.84619099999964,211.0258789999998,195.89746099999957,183.20507799999996,168.46142599999985,89.48730499999965,234.87158199999976,196.53857400000015,200.0,115.51269500000035
347,136.2822270000006,191.2822270000006,115.38476599999922,108.84619099999964,259.6152340000008,158.7177729999994,134.23095699999976,152.3076170000004,142.17968800000017,9.230956999999762,203.58984400000008,140.12841800000024,142.3076170000004,113.58984400000008
348,56.025878999999804,87.43603499999972,84.87158199999976,66.79492200000004,61.410155999999915,82.82031300000017,90.25634799999989,110.89746099999957,109.48730499999965,-77.56420900000057,172.94873000000007,88.7177729999994,60.25634799999989,108.20507799999996
349,8.077147999999397,6.666503999999804,79.23095699999976,49.74365200000011,-84.74365200000011,35.12841800000024,77.43603499999972,80.89746099999957,85.76904300000024,-112.43579099999943,143.20507799999996,63.589844000000085,6.922852000000603,108.9741210000002
350,13.846190999999635,-0.38476599999921746,91.41015599999992,62.69238299999961,-80.76928699999962,43.333496000000196,89.74365200000011,76.41015599999992,78.46142599999985,-75.0,119.87158199999976,67.82031300000017,11.025878999999804,113.58984400000008
351,58.0771479999994,61.9228520000006,103.20507799999996,92.30761700000039,59.23095699999976,93.46142599999985,106.2822270000006,92.82031300000017,83.7177729999994,9.358886999999413,108.46142599999985,85.76904300000024,60.51269500000035,112.43603499999972
352,102.30761700000039,141.2822270000006,102.17968800000017,119.23095699999976,228.7177729999994,143.84619099999964,107.05126999999993,112.17968800000017,89.10253900000043,90.12841800000024,107.05126999999993,96.79492200000004,114.35888699999941,106.53857400000015
353,115.12841800000024,179.7436520000001,90.89746099999957,130.38476599999922,313.46142599999985,158.84619099999964,89.23095699999976,118.20507799999996,83.20507799999996,126.0258789999998,107.94873000000007,92.30761700000039,133.84619099999964,106.15380900000036
354,94.74365200000011,157.82031300000017,81.0258789999998,123.46142599999985,275.51269500000035,135.51269500000035,69.48730499999965,108.84619099999964,64.74365200000011,112.17968800000017,101.2822270000006,79.48730499999965,110.89746099999957,112.17968800000017
355,66.0258789999998,106.53857400000015,81.0258789999998,105.64111300000059,173.58984400000008,102.56396500000028,67.94873000000007,96.15380900000036,44.23095699999976,81.0258789999998,80.76904300000024,71.41015599999992,72.56396500000028,114.35888699999941
356,55.12841800000024,74.87158199999976,90.25634799999989,88.84619099999964,101.53857400000015,91.6665039999998,88.7177729999994,94.23095699999976,34.35888699999941,70.89746099999957,48.974121000000196,73.9741210000002,54.61523400000078,109.74365200000011
357,66.6665039999998,84.23095699999976,100.38476599999922,82.43603499999972,102.43603499999972,108.20507799999996,115.64111300000059,104.48730499999965,38.333496000000196,89.48730499999965,18.333496000000196,82.56396500000028,68.20507799999996,108.0771479999994
358,82.43603499999972,111.6665039999998,102.82031300000017,87.05126999999993,138.58984400000008,127.94873000000007,128.20507799999996,115.89746099999957,46.79492200000004,105.89746099999957,4.230956999999762,87.82031300000017,90.0,112.69238299999961
359,81.41015599999992,117.17968800000017,95.51269500000035,94.87158199999976,141.2822270000006,123.7177729999994,118.84619099999964,116.0258789999998,46.410155999999915,83.58984400000008,11.538574000000153,85.64111300000059,86.9228520000006,114.87158199999976
360,60.12841800000024,84.48730499999965,85.89746099999957,96.79492200000004,85.25634799999989,92.56396500000028,98.46142599999985,103.84619099999964,33.333496000000196,19.48730499999965,29.102539000000434,80.0,48.974121000000196,109.35888699999941
361,33.974121000000196,35.64111300000059,83.3334960000002,90.38476599999922,10.512695000000349,56.666503999999804,85.38476599999922,90.64111300000059,16.410155999999915,-48.846190999999635,37.69238299999961,77.82031300000017,-0.512695000000349,105.38476599999922
362,23.205077999999958,9.358886999999413,89.61523400000078,80.89746099999957,-18.461425999999847,42.43603499999972,90.76904300000024,88.84619099999964,8.974121000000196,-73.07690400000001,26.794922000000042,82.82031300000017,-25.769286999999622,110.38476599999922
363,37.82031300000017,27.69238299999961,99.23095699999976,76.41015599999992,28.974121000000196,59.23095699999976,112.17968800000017,101.53857400000015,17.17968800000017,-33.846190999999635,3.846190999999635,94.35888699999941,-8.333252000000357,116.53857400000015
364,70.12841800000024,78.46142599999985,106.6665039999998,81.0258789999998,125.25634799999989,95.25634799999989,136.6665039999998,120.89746099999957,35.897460999999566,44.61523400000078,-13.333252000000357,108.9741210000002,41.53857400000015,114.48730499999965
365,99.74365200000011,125.89746099999957,110.38476599999922,92.05126999999993,207.94873000000007,128.20507799999996,150.2563479999999,135.38476599999922,53.0771479999994,114.61523400000078,-16.41015600000037,120.51269500000035,93.3334960000002,109.10253900000043
366,107.05126999999993,140.2563479999999,108.46142599999985,101.2822270000006,229.48730499999965,141.15380900000036,144.7436520000001,136.53857400000015,58.974121000000196,140.51269500000035,-14.102538999999979,120.51269500000035,117.69238299999961,110.51269500000035
367,86.41015599999992,118.9741210000002,97.30761700000039,100.25634799999989,188.7177729999994,131.53857400000015,120.64111300000059,123.84619099999964,51.025878999999804,119.87158199999976,-21.794922000000042,103.20507799999996,103.7177729999994,115.25634799999989
368,49.102539000000434,82.56396500000028,77.56396500000028,88.0771479999994,120.76904300000024,108.9741210000002,85.89746099999957,103.9741210000002,34.74365200000011,76.79492200000004,-44.35888699999987,72.69238299999961,63.0771479999994,113.46142599999985
369,15.256347999999889,53.589844000000085,59.102539000000434,72.94873000000007,62.69238299999961,85.25634799999989,53.846190999999635,85.89746099999957,18.205077999999958,37.94873000000007,-70.38452099999995,44.102539000000434,18.846190999999635,107.30761700000039
370,1.7949220000000423,42.56396500000028,55.51269500000035,68.0771479999994,31.922852000000603,67.17968800000017,40.12841800000024,77.56396500000028,8.717772999999397,16.922852000000603,-79.8718259999996,35.64111300000059,-7.435790999999426,106.9228520000006
371,16.794922000000042,50.0,72.69238299999961,81.2822270000006,30.641113000000587,60.0,54.87158199999976,82.94873000000007,10.897460999999566,15.512695000000349,-58.46142599999985,56.53857400000015,-4.230713000000378,112.17968800000017
372,54.48730499999965,71.41015599999992,102.94873000000007,107.82031300000017,54.102539000000434,67.56396500000028,94.23095699999976,99.87158199999976,24.48730499999965,30.0,-11.41015600000037,98.7177729999994,26.666503999999804,113.20507799999996
373,93.9741210000002,95.89746099999957,129.61523400000078,131.0258789999998,91.0258789999998,86.53857400000015,136.0258789999998,119.61523400000078,42.94873000000007,52.30761700000039,32.69238299999961,137.94873000000007,68.20507799999996,109.10253900000043
374,109.10253900000043,109.23095699999976,135.76904300000024,133.46142599999985,123.9741210000002,103.46142599999985,153.3334960000002,130.2563479999999,55.64111300000059,68.84619099999964,38.974121000000196,148.46142599999985,95.76904300000024,109.35888699999941
375,88.20507799999996,104.23095699999976,115.51269500000035,110.51269500000035,137.82031300000017,104.87158199999976,134.23095699999976,125.12841800000024,54.87158199999976,67.94873000000007,-5.0,121.53857400000015,92.56396500000028,115.64111300000059
376,44.87158199999976,86.41015599999992,80.25634799999989,76.6665039999998,129.10253900000043,89.48730499999965,92.30761700000039,108.20507799999996,41.2822270000006,47.94873000000007,-73.20507799999996,74.23095699999976,61.153809000000365,117.17968800000017
377,6.282227000000603,67.30761700000039,52.56396500000028,54.74365200000011,105.38476599999922,68.9741210000002,55.0,90.76904300000024,23.461425999999847,18.077147999999397,-119.8718259999996,36.666503999999804,18.589844000000085,109.87158199999976
378,-7.692382999999609,54.61523400000078,48.846190999999635,57.69238299999961,79.87158199999976,55.76904300000024,42.82031300000017,82.05126999999993,11.282227000000603,-5.769286999999622,-116.92309599999999,28.846190999999635,-16.794922000000042,104.61523400000078
379,3.717772999999397,50.38476599999922,66.53857400000015,79.48730499999965,63.846190999999635,55.12841800000024,56.666503999999804,83.46142599999985,9.871581999999762,-7.435790999999426,-75.51293900000019,47.43603499999972,-31.794922000000042,109.10253900000043
380,28.846190999999635,55.25634799999989,89.23095699999976,103.20507799999996,63.846190999999635,64.87158199999976,83.0771479999994,90.51269500000035,18.589844000000085,18.974121000000196,-30.38452099999995,74.23095699999976,-20.25634799999989,115.0
381,53.46142599999985,68.20507799999996,102.69238299999961,115.64111300000059,78.46142599999985,78.9741210000002,105.25634799999989,98.46142599999985,31.538574000000153,59.87158199999976,-11.025634999999966,92.56396500000028,13.077147999999397,113.46142599999985
382,64.61523400000078,82.56396500000028,102.69238299999961,113.58984400000008,97.30761700000039,89.74365200000011,112.05126999999993,103.0771479999994,40.64111300000059,88.3334960000002,-24.74365200000011,95.25634799999989,48.46142599999985,109.35888699999941
383,55.25634799999989,88.58984400000008,91.79492200000004,101.0258789999998,109.10253900000043,91.41015599999992,100.25634799999989,101.15380900000036,40.25634799999989,85.89746099999957,-60.38452099999995,82.05126999999993,61.410155999999915,110.89746099999957
