,EEG.AF3,EEG.F7,EEG.F3,EEG.FC5,EEG.T7,EEG.P7,EEG.O1,EEG.O2,EEG.P8,EEG.T8,EEG.FC6,EEG.F4,EEG.F8,EEG.AF4
0,55.0,67.82031300000017,103.58984400000008,113.20507799999996,-51.025634999999966,90.25634799999989,108.20507799999996,94.48730499999965,101.2822270000006,102.30761700000039,115.51269500000035,132.17968800000017,164.48730499999965,95.51269500000035
1,51.53857400000015,60.12841800000024,96.2822270000006,122.17968800000017,-48.07690400000001,81.9228520000006,102.56396500000028,91.2822270000006,96.9228520000006,104.23095699999976,97.69238299999961,123.0771479999994,148.9741210000002,95.12841800000024
2,43.846190999999635,47.94873000000007,89.87158199999976,125.0,-41.66674799999964,77.43603499999972,94.35888699999941,87.30761700000039,92.43603499999972,107.17968800000017,83.3334960000002,111.79492200000004,132.82031300000017,100.38476599999922
3,39.23095699999976,41.666503999999804,85.64111300000059,118.46142599999985,-41.153809000000365,78.3334960000002,85.89746099999957,82.43603499999972,88.20507799999996,107.05126999999993,82.05126999999993,103.46142599999985,127.56396500000028,104.23095699999976
4,50.38476599999922,48.7177729999994,86.41015599999992,107.94873000000007,-48.07690400000001,84.23095699999976,81.9228520000006,79.48730499999965,86.0258789999998,103.7177729999994,96.6665039999998,107.05126999999993,139.61523400000078,102.17968800000017
5,83.0771479999994,66.53857400000015,93.46142599999985,102.94873000000007,-55.25634799999989,92.94873000000007,85.38476599999922,82.05126999999993,89.10253900000043,101.9228520000006,120.0,125.25634799999989,165.0,99.74365200000011
6,125.38476599999922,82.56396500000028,104.61523400000078,110.12841800000024,-52.948729999999614,100.38476599999922,95.89746099999957,91.15380900000036,98.0771479999994,106.15380900000036,139.48730499999965,149.3588869999994,191.9228520000006,102.30761700000039
7,152.82031300000017,83.3334960000002,114.10253900000043,125.25634799999989,-38.07690400000001,101.9228520000006,107.30761700000039,102.43603499999972,109.35888699999941,115.25634799999989,145.0,163.9741210000002,208.3334960000002,105.12841800000024
8,147.17968800000017,66.15380900000036,115.25634799999989,135.2563479999999,-20.1281740000004,94.61523400000078,111.9228520000006,107.69238299999961,114.61523400000078,121.41015599999992,133.9741210000002,158.0771479999994,208.3334960000002,102.30761700000039
9,114.48730499999965,43.333496000000196,106.41015599999992,129.87158199999976,-14.358886999999868,79.48730499999965,105.25634799999989,100.12841800000024,107.82031300000017,117.17968800000017,113.9741210000002,136.0258789999998,194.87158199999976,98.46142599999985
10,86.41015599999992,34.48730499999965,94.87158199999976,114.48730499999965,-26.923095999999987,64.61523400000078,91.53857400000015,82.94873000000007,91.53857400000015,104.10253900000043,100.25634799999989,118.0771479999994,180.12841800000024,100.51269500000035
11,99.10253900000043,51.666503999999804,95.51269500000035,108.9741210000002,-44.48706099999981,62.17968800000017,83.3334960000002,70.12841800000024,78.7177729999994,94.10253900000043,106.6665039999998,126.79492200000004,181.9228520000006,105.89746099999957
12,162.3076170000004,87.56396500000028,117.94873000000007,127.82031300000017,-47.051270000000386,78.58984400000008,91.15380900000036,75.76904300000024,82.17968800000017,100.25634799999989,134.7436520000001,166.6665039999998,209.48730499999965,106.9228520000006
13,243.0771479999994,119.23095699999976,152.56396500000028,161.2822270000006,-31.41015600000037,104.48730499999965,111.41015599999992,98.3334960000002,101.0258789999998,122.05126999999993,166.9228520000006,212.6923829999996,251.2822270000006,103.7177729999994
14,285.2563479999999,126.0258789999998,171.79492200000004,180.6411130000006,-20.0,119.61523400000078,125.12841800000024,118.84619099999964,118.3334960000002,141.6665039999998,177.3076170000004,226.53857400000015,278.5898440000001,102.94873000000007
15,257.6923829999996,107.43603499999972,152.94873000000007,165.6411130000006,-38.58984399999963,109.48730499999965,115.38476599999922,116.53857400000015,115.64111300000059,138.3334960000002,155.12841800000024,190.6411130000006,270.3847659999992,104.74365200000011
16,185.89746099999957,84.61523400000078,103.84619099999964,127.05126999999993,-85.38452099999995,80.38476599999922,85.0,90.64111300000059,92.56396500000028,110.76904300000024,118.20507799999996,130.2563479999999,235.6411130000006,103.58984400000008
17,133.3334960000002,80.25634799999989,61.153809000000365,99.35888699999941,-127.17944299999999,54.102539000000434,57.69238299999961,63.0771479999994,68.3334960000002,80.89746099999957,100.0,96.2822270000006,207.82031300000017,99.87158199999976
18,145.2563479999999,98.0771479999994,61.2822270000006,109.35888699999941,-127.69238299999961,50.12841800000024,57.94873000000007,58.589844000000085,65.51269500000035,75.12841800000024,118.58984400000008,122.05126999999993,215.0,100.89746099999957
19,209.48730499999965,119.35888699999941,109.61523400000078,150.76904300000024,-80.76928699999962,70.89746099999957,90.51269500000035,84.74365200000011,89.48730499999965,100.51269500000035,161.6665039999998,194.3588869999994,255.89746099999957,107.05126999999993
20,265.89746099999957,118.20507799999996,173.0771479999994,188.58984400000008,-18.58984399999963,100.25634799999989,134.48730499999965,124.23095699999976,122.94873000000007,137.3076170000004,195.76904300000024,262.17968800000017,300.51269500000035,109.48730499999965
21,258.20507799999996,82.94873000000007,204.87158199999976,190.2563479999999,10.512695000000349,115.25634799999989,157.82031300000017,147.3076170000004,138.3334960000002,153.7177729999994,192.94873000000007,277.05126999999993,313.3334960000002,104.10253900000043
22,182.43603499999972,24.871581999999762,182.05126999999993,153.84619099999964,-21.025634999999966,101.9228520000006,141.79492200000004,134.3588869999994,119.87158199999976,131.41015599999992,151.53857400000015,231.9228520000006,279.6152340000008,98.0771479999994
23,89.61523400000078,-30.1281740000004,125.12841800000024,106.9228520000006,-97.30761700000039,66.9228520000006,96.41015599999992,92.05126999999993,77.30761700000039,82.05126999999993,97.69238299999961,165.6411130000006,218.0771479999994,98.3334960000002
24,43.20507799999996,-56.53857400000015,80.0,81.79492200000004,-169.8718259999996,33.7177729999994,53.589844000000085,49.35888699999941,39.74365200000011,39.23095699999976,66.9228520000006,131.41015599999992,168.7177729999994,101.53857400000015
25,73.0771479999994,-42.30761700000039,78.7177729999994,90.76904300000024,-194.7436520000001,24.871581999999762,41.79492200000004,35.25634799999989,32.94873000000007,32.69238299999961,79.23095699999976,155.51269500000035,165.12841800000024,102.82031300000017
26,160.2563479999999,2.4360349999997197,114.87158199999976,122.69238299999961,-163.20507799999996,45.0,66.2822270000006,56.79492200000004,60.51269500000035,66.79492200000004,126.6665039999998,221.0258789999998,213.20507799999996,104.87158199999976
27,255.6411130000006,45.51269500000035,154.7436520000001,157.3076170000004,-102.17944299999999,79.35888699999941,107.82031300000017,96.9228520000006,102.82031300000017,118.20507799999996,181.0258789999998,288.0771479999994,289.10253900000043,111.2822270000006
28,310.89746099999957,46.666503999999804,170.76904300000024,181.41015599999992,-48.58984399999963,107.69238299999961,140.76904300000024,130.89746099999957,133.84619099999964,154.7436520000001,214.48730499999965,326.15380900000036,354.87158199999976,116.15380900000036
29,301.79492200000004,-12.692382999999609,162.17968800000017,193.58984400000008,-25.769286999999622,117.56396500000028,150.38476599999922,143.20507799999996,139.23095699999976,157.82031300000017,214.3588869999994,331.15380900000036,379.3588869999994,112.56396500000028
30,241.79492200000004,-106.02563499999997,146.2822270000006,199.61523400000078,-41.153809000000365,108.9741210000002,137.94873000000007,132.94873000000007,121.41015599999992,130.76904300000024,185.6411130000006,317.05126999999993,354.23095699999976,104.35888699999941
31,177.43603499999972,-165.89746100000002,134.87158199999976,206.9228520000006,-95.38452099999995,90.25634799999989,113.7177729999994,109.10253900000043,93.7177729999994,91.53857400000015,145.12841800000024,297.05126999999993,298.46142599999985,101.0258789999998
32,165.6411130000006,-128.076904,123.3334960000002,221.6665039999998,-183.97436500000003,71.6665039999998,89.74365200000011,83.46142599999985,69.87158199999976,58.20507799999996,114.87158199999976,275.89746099999957,249.3588869999994,103.3334960000002
33,237.05126999999993,12.948730000000069,101.41015599999992,247.3076170000004,-288.58984399999963,62.05126999999993,76.41015599999992,67.43603499999972,59.61523400000078,41.025878999999804,114.35888699999941,256.6665039999998,239.3588869999994,104.61523400000078
34,373.5898440000001,183.0771479999994,71.6665039999998,284.10253900000043,-376.15380900000036,64.61523400000078,80.76904300000024,69.74365200000011,67.05126999999993,43.0771479999994,150.12841800000024,247.56396500000028,274.7436520000001,103.20507799999996
35,516.6665039999998,272.6923829999996,52.30761700000039,329.7436520000001,-414.7436520000001,76.53857400000015,103.84619099999964,92.30761700000039,90.0,61.666503999999804,208.58984400000008,257.94873000000007,331.79492200000004,104.48730499999965
36,605.8974609999996,217.94873000000007,59.23095699999976,378.20507799999996,-397.820557,89.23095699999976,135.0,125.12841800000024,117.69238299999961,86.41015599999992,261.6665039999998,286.79492200000004,374.7436520000001,108.20507799999996
37,622.8203130000002,56.666503999999804,87.94873000000007,420.3847659999992,-351.53857400000015,94.61523400000078,155.76904300000024,149.23095699999976,133.3334960000002,101.79492200000004,283.9741210000002,317.82031300000017,384.48730499999965,107.56396500000028
38,611.0258789999998,-91.15380900000036,115.76904300000024,451.9228520000006,-313.20507799999996,91.0258789999998,153.58984400000008,151.41015599999992,127.69238299999961,98.58984400000008,272.17968800000017,330.89746099999957,374.3588869999994,102.05126999999993
39,647.4360349999997,-111.79492200000004,121.9228520000006,478.9741210000002,-300.7692869999996,85.38476599999922,134.48730499999965,136.15380900000036,108.7177729999994,84.61523400000078,245.38476599999922,319.87158199999976,376.53857400000015,99.87158199999976
40,780.5126950000003,13.846190999999635,103.46142599999985,512.1796880000002,-307.0512700000004,83.7177729999994,116.53857400000015,121.0258789999998,94.48730499999965,76.6665039999998,227.05126999999993,295.0,408.46142599999985,104.61523400000078
41,990.1284180000002,201.15380900000036,74.23095699999976,555.2563479999999,-317.5642090000006,83.9741210000002,111.6665039999998,119.23095699999976,95.38476599999922,83.46142599999985,225.12841800000024,271.79492200000004,454.7436520000001,108.9741210000002
42,1210.0,341.0258789999998,52.17968800000017,601.0258789999998,-327.0512700000004,79.74365200000011,116.9228520000006,128.9741210000002,106.6665039999998,98.7177729999994,231.41015599999992,258.84619099999964,483.0771479999994,107.30761700000039
43,1393.8461909999996,386.6665039999998,45.64111300000059,640.3847659999992,-333.71801800000003,71.53857400000015,122.05126999999993,139.23095699999976,116.53857400000015,111.15380900000036,239.23095699999976,257.17968800000017,481.15380900000036,104.48730499999965
44,1557.3076170000004,374.7436520000001,50.51269500000035,673.7177729999994,-328.46142599999985,67.30761700000039,121.53857400000015,142.6923829999996,118.9741210000002,115.89746099999957,255.76904300000024,263.20507799999996,471.6665039999998,106.53857400000015
45,1752.1796880000002,368.3334960000002,56.410155999999915,710.8974609999996,-295.0,74.61523400000078,118.58984400000008,141.2822270000006,117.94873000000007,116.41015599999992,292.3076170000004,271.79492200000004,491.2822270000006,109.48730499999965
46,2001.9228520000006,391.4101559999999,58.7177729999994,758.7177729999994,-224.35888699999987,91.0258789999998,120.64111300000059,142.17968800000017,121.0258789999998,118.46142599999985,346.6665039999998,278.84619099999964,551.9228520000006,107.82031300000017
47,2266.1538090000004,415.12841800000024,59.23095699999976,809.2309569999998,-126.66674799999964,105.64111300000059,131.15380900000036,149.23095699999976,131.9228520000006,125.0,395.89746099999957,280.2563479999999,622.5639650000003,104.74365200000011
48,2475.256348,407.3076170000004,58.7177729999994,842.1796880000002,-30.25634799999989,108.0771479999994,143.84619099999964,158.0771479999994,145.6411130000006,132.94873000000007,411.9228520000006,272.3076170000004,653.3334960000002,106.15380900000036
49,2598.461426,385.12841800000024,52.30761700000039,841.794922,35.76904300000024,96.79492200000004,147.3076170000004,160.12841800000024,151.9228520000006,136.0258789999998,385.76904300000024,251.53857400000015,622.4360349999997,109.61523400000078
50,2674.230956999999,411.4101559999999,36.153809000000365,814.6152340000008,63.20507799999996,80.64111300000059,135.89746099999957,151.53857400000015,145.6411130000006,130.2563479999999,338.9741210000002,220.0,560.5126950000003,107.94873000000007
51,2773.205078,527.0512699999999,16.922852000000603,786.6665039999998,74.87158199999976,72.43603499999972,117.94873000000007,138.9741210000002,132.82031300000017,120.51269500000035,308.20507799999996,188.84619099999964,527.0512699999999,102.94873000000007
52,2932.6923829999996,691.1538090000004,10.641113000000587,783.205078,110.51269500000035,79.74365200000011,110.64111300000059,135.0,126.41015599999992,118.46142599999985,316.6665039999998,172.82031300000017,557.1796880000002,101.9228520000006
53,3124.230956999999,800.0,27.30761700000039,806.4101559999999,192.6923829999996,97.94873000000007,123.46142599999985,146.41015599999992,134.61523400000078,131.53857400000015,356.2822270000006,177.56396500000028,629.4873049999997,104.48730499999965
54,3281.1538090000004,778.3334960000002,58.846190999999635,838.0771479999994,302.4360349999997,113.84619099999964,148.20507799999996,166.53857400000015,151.79492200000004,153.3334960000002,397.4360349999997,193.84619099999964,687.6923829999996,103.84619099999964
55,3359.1025390000004,654.8715819999998,83.58984400000008,860.6411130000006,391.0258789999998,117.30761700000039,165.6411130000006,179.61523400000078,163.3334960000002,167.94873000000007,416.2822270000006,204.48730499999965,694.4873049999997,99.35888699999941
56,3372.1796879999993,543.4614259999998,84.10253900000043,872.0512699999999,418.0771479999994,108.84619099999964,162.56396500000028,174.7436520000001,159.61523400000078,164.23095699999976,414.87158199999976,197.3076170000004,666.5385740000002,98.7177729999994
57,3376.6665040000007,546.9228520000006,60.64111300000059,880.5126950000003,382.4360349999997,97.94873000000007,142.3076170000004,155.89746099999957,144.23095699999976,146.53857400000015,413.20507799999996,172.94873000000007,654.3588869999994,103.84619099999964
58,3416.5385739999992,672.9487300000001,28.077147999999397,891.0258789999998,318.20507799999996,91.9228520000006,119.87158199999976,136.9228520000006,128.7177729999994,128.84619099999964,425.76904300000024,141.15380900000036,691.6665039999998,107.17968800000017
59,3487.05127,836.1538090000004,3.5898440000000846,901.1538090000004,263.3334960000002,89.23095699999976,108.3334960000002,128.7177729999994,122.43603499999972,122.17968800000017,449.23095699999976,112.43603499999972,766.1538090000004,104.61523400000078
60,3546.2822269999997,935.8974609999996,-4.358886999999868,907.5639650000003,236.15380900000036,85.25634799999989,110.38476599999922,132.05126999999993,125.76904300000024,128.20507799999996,471.6665039999998,92.69238299999961,838.8461909999996,102.43603499999972
61,3561.6665040000007,936.6665039999998,2.6923829999996087,912.9487300000001,233.3334960000002,82.82031300000017,121.79492200000004,141.2822270000006,134.7436520000001,143.0771479999994,489.48730499999965,85.0,885.3847659999992,105.38476599999922
62,3539.743651999999,882.0512699999999,17.56396500000028,926.4101559999999,241.15380900000036,91.9228520000006,137.3076170000004,152.17968800000017,145.6411130000006,162.6923829999996,508.7177729999994,92.30761700000039,913.9741210000002,108.7177729999994
63,3511.410156,839.4873049999997,32.94873000000007,953.3334960000002,243.20507799999996,115.76904300000024,152.3076170000004,162.94873000000007,156.53857400000015,182.43603499999972,531.9228520000006,112.69238299999961,946.6665039999998,106.53857400000015
64,3499.743651999999,838.7177729999994,43.846190999999635,987.0512699999999,223.84619099999964,141.41015599999992,161.9228520000006,171.15380900000036,164.61523400000078,196.9228520000006,552.3076170000004,133.7177729999994,993.205078,103.0771479999994
65,3504.4873049999997,862.9487300000001,49.35888699999941,1011.6665039999998,176.6665039999998,150.12841800000024,162.6923829999996,174.7436520000001,167.17968800000017,201.41015599999992,561.2822270000006,139.3588869999994,1046.5385740000002,104.48730499999965
66,3512.4360349999997,884.1025390000004,53.0771479999994,1015.7690430000002,114.48730499999965,136.79492200000004,157.6923829999996,175.2563479999999,165.76904300000024,198.84619099999964,560.1284180000002,124.48730499999965,1094.6152340000008,108.0771479999994
67,3513.8461909999996,893.205078,59.61523400000078,1001.1538090000004,64.10253900000043,116.2822270000006,156.0258789999998,178.9741210000002,166.41015599999992,198.46142599999985,558.5898440000001,102.17968800000017,1131.1538090000004,106.9228520000006
68,3508.3334959999993,897.8203130000002,71.53857400000015,979.4873049999997,44.102539000000434,108.7177729999994,164.87158199999976,189.3588869999994,173.58984400000008,207.94873000000007,563.3334960000002,92.43603499999972,1155.3847659999992,102.82031300000017
69,3501.9228519999997,905.6411130000006,84.61523400000078,965.1284180000002,45.38476599999922,121.15380900000036,180.51269500000035,201.79492200000004,184.23095699999976,223.84619099999964,570.6411130000006,103.84619099999964,1168.8461909999996,102.56396500000028
70,3499.3588870000003,916.6665039999998,88.58984400000008,967.3076170000004,33.7177729999994,142.05126999999993,188.46142599999985,204.10253900000043,187.94873000000007,231.53857400000015,570.7690430000002,123.46142599999985,1171.794922,106.15380900000036
71,3500.256348000001,928.4614259999998,74.74365200000011,986.0258789999998,-23.076904000000013,152.17968800000017,177.3076170000004,187.43603499999972,176.41015599999992,219.3588869999994,561.2822270000006,128.0771479999994,1165.8974609999996,107.17968800000017
72,3501.794922,942.4360349999997,45.51269500000035,1010.8974609999996,-124.8718259999996,142.05126999999993,150.2563479999999,157.3076170000004,153.20507799999996,192.56396500000028,554.7436520000001,104.35888699999941,1160.5126950000003,105.12841800000024
73,3501.794922,962.9487300000001,15.384765999999217,1027.94873,-236.28198199999997,120.0,124.87158199999976,132.3076170000004,133.3334960000002,171.79492200000004,571.1538090000004,61.666503999999804,1174.4873049999997,106.6665039999998
74,3500.6411129999997,989.1025390000004,1.2822270000006029,1031.410156,-310.1281740000004,105.12841800000024,119.10253900000043,130.51269500000035,132.56396500000028,175.0,619.3588869999994,26.666503999999804,1222.8203130000002,112.56396500000028
75,3500.0,1004.8715819999998,10.384765999999217,1027.05127,-322.0512700000004,110.76904300000024,137.3076170000004,154.10253900000043,153.84619099999964,202.82031300000017,685.3847659999992,21.410155999999915,1297.94873,115.0
76,3500.128418000001,985.3847659999992,35.51269500000035,1022.6923829999996,-288.076904,132.3076170000004,166.41015599999992,186.41015599999992,183.9741210000002,239.61523400000078,738.205078,45.25634799999989,1362.3076170000004,111.2822270000006
77,3500.6411129999997,923.5898440000001,59.87158199999976,1018.7177729999994,-252.6923829999996,150.76904300000024,185.12841800000024,204.61523400000078,203.0771479999994,264.87158199999976,750.3847659999992,74.23095699999976,1370.8974609999996,108.20507799999996
78,3501.0258790000007,849.7436520000001,68.84619099999964,1012.0512699999999,-257.4357909999994,149.61523400000078,179.23095699999976,195.89746099999957,198.20507799999996,266.2822270000006,717.6923829999996,80.12841800000024,1309.743652,110.89746099999957
79,3501.1538090000004,815.0,58.846190999999635,1004.7436520000001,-310.0,129.3588869999994,152.3076170000004,166.9228520000006,173.3334960000002,247.05126999999993,664.1025390000004,53.589844000000085,1213.589844,113.9741210000002
80,3501.1538090000004,848.205078,39.48730499999965,1003.4614259999998,-380.897461,106.15380900000036,122.43603499999972,137.94873000000007,145.6411130000006,222.94873000000007,625.2563479999999,11.794922000000042,1143.4614259999998,111.9228520000006
81,3501.1538090000004,927.6923829999996,25.51269500000035,1012.6923829999996,-427.820557,97.05126999999993,109.10253900000043,127.05126999999993,132.6923829999996,211.53857400000015,623.9741210000002,-14.358886999999868,1139.4873049999997,109.10253900000043
82,3501.0258790000007,1000.2563479999999,25.641113000000587,1029.743652,-427.5642090000006,106.53857400000015,118.84619099999964,136.79492200000004,139.7436520000001,218.7177729999994,656.0258789999998,-6.538574000000153,1192.5639650000003,111.6665039999998
83,3500.8974609999996,1024.743652,36.9228520000006,1047.6923829999996,-389.61547900000005,125.25634799999989,141.9228520000006,155.6411130000006,157.56396500000028,236.79492200000004,697.5639650000003,26.025878999999804,1257.8203130000002,116.15380900000036
84,3501.0258790000007,1000.5126950000003,49.61523400000078,1060.256348,-342.5642090000006,140.6411130000006,162.17968800000017,168.84619099999964,172.17968800000017,253.46142599999985,723.7177729999994,54.35888699999941,1292.05127,115.76904300000024
85,3501.410156,957.8203130000002,54.102539000000434,1063.4614259999998,-311.66674799999964,146.15380900000036,168.58984400000008,169.87158199999976,175.51269500000035,261.6665039999998,723.8461909999996,53.974121000000196,1280.5126950000003,112.69238299999961
86,3502.3076170000004,926.794922,46.666503999999804,1056.5385740000002,-305.0,142.94873000000007,161.2822270000006,162.05126999999993,168.9741210000002,261.15380900000036,702.8203130000002,24.102539000000434,1237.6923829999996,113.7177729999994
87,3504.230956999999,916.1538090000004,30.897460999999566,1042.4360349999997,-314.102539,135.6411130000006,147.82031300000017,153.46142599999985,159.10253900000043,253.9741210000002,674.8715819999998,-14.8718259999996,1189.1025390000004,117.05126999999993
88,3507.1796879999993,917.1796880000002,14.871581999999762,1026.794922,-325.0,127.94873000000007,137.05126999999993,149.23095699999976,152.05126999999993,242.05126999999993,654.8715819999998,-39.61547900000005,1154.6152340000008,115.64111300000059
89,3510.128418000001,918.3334960000002,6.282227000000603,1015.2563479999999,-327.820557,121.9228520000006,133.7177729999994,149.48730499999965,150.12841800000024,229.7436520000001,649.3588869999994,-41.66674799999964,1138.205078,110.51269500000035
90,3511.2822269999997,915.5126950000003,7.820313000000169,1008.3334960000002,-321.28198199999997,118.7177729999994,136.9228520000006,150.76904300000024,151.9228520000006,222.6923829999996,653.7177729999994,-28.846190999999635,1131.0258789999998,109.48730499999965
91,3510.0,912.0512699999999,16.538574000000153,1000.6411130000006,-309.102539,118.84619099999964,142.17968800000017,150.2563479999999,154.7436520000001,223.46142599999985,657.0512699999999,-16.153809000000365,1120.6411130000006,113.58984400000008
92,3508.8461909999996,911.2822270000006,26.538574000000153,986.794922,-295.64111300000013,122.17968800000017,145.51269500000035,147.82031300000017,156.2822270000006,227.82031300000017,652.4360349999997,-13.076904000000013,1102.5639650000003,115.76904300000024
93,3512.4360349999997,912.6923829999996,33.333496000000196,967.8203130000002,-283.58984399999963,127.56396500000028,146.2822270000006,145.89746099999957,156.0258789999998,228.46142599999985,640.7690430000002,-20.25634799999989,1082.6923829999996,113.0771479999994
94,3520.5126950000003,912.5639650000003,35.38476599999922,949.7436520000001,-273.58984399999963,132.17968800000017,146.79492200000004,147.05126999999993,155.38476599999922,222.17968800000017,628.205078,-31.41015600000037,1069.2309569999998,112.30761700000039
95,3525.384765999999,907.4360349999997,36.025878999999804,937.1796880000002,-264.35888699999987,134.23095699999976,150.6411130000006,152.43603499999972,156.53857400000015,213.84619099999964,618.4614259999998,-38.07690400000001,1062.8203130000002,117.05126999999993
96,3515.8974609999996,897.6923829999996,39.87158199999976,928.9741210000002,-253.076904,134.48730499999965,159.3588869999994,161.79492200000004,160.6411130000006,211.79492200000004,609.7436520000001,-35.0,1055.3847659999992,121.0258789999998
97,3485.8974609999996,885.5126950000003,48.20507799999996,918.9741210000002,-240.1281740000004,135.0,169.7436520000001,172.17968800000017,166.15380900000036,219.87158199999976,596.5385740000002,-23.71801800000003,1037.05127,118.7177729999994
98,3436.0258790000007,872.0512699999999,55.76904300000024,901.0258789999998,-233.33325200000036,136.15380900000036,174.23095699999976,177.3076170000004,168.84619099999964,232.3076170000004,574.8715819999998,-13.58984399999963,1003.0771479999994,114.35888699999941
99,3373.0771480000003,857.4360349999997,55.51269500000035,874.4873049999997,-241.66674799999964,135.89746099999957,167.43603499999972,172.05126999999993,163.9741210000002,238.20507799999996,548.0771479999994,-15.1281740000004,957.3076170000004,113.9741210000002
100,3307.8203129999993,844.7436520000001,45.897460999999566,846.1538090000004,-265.7692869999996,133.20507799999996,151.53857400000015,157.6923829999996,151.53857400000015,231.15380900000036,526.794922,-30.512939000000188,911.5385740000002,115.0
101,3250.384765999999,840.1284180000002,33.846190999999635,824.8715819999998,-294.2307130000004,130.2563479999999,135.51269500000035,142.43603499999972,137.56396500000028,215.2563479999999,520.3847659999992,-51.28198199999997,879.7436520000001,112.17968800000017
102,3201.5385739999992,846.5385740000002,27.82031300000017,812.0512699999999,-311.28198199999997,129.23095699999976,128.9741210000002,135.12841800000024,130.38476599999922,202.17968800000017,528.0771479999994,-65.1281740000004,868.3334960000002,109.10253900000043
103,3147.5639650000003,858.5898440000001,30.641113000000587,800.0,-306.53857400000015,130.6411130000006,133.46142599999985,138.0771479999994,133.3334960000002,200.38476599999922,538.0771479999994,-66.41015600000037,870.5126950000003,112.17968800000017
104,3069.871581999999,865.3847659999992,38.589844000000085,779.4873049999997,-280.1281740000004,132.6923829999996,143.20507799999996,146.15380900000036,142.43603499999972,207.82031300000017,537.0512699999999,-58.33325200000036,871.2822270000006,118.3334960000002
105,2961.6665040000007,858.8461909999996,45.51269500000035,748.4614259999998,-240.76928699999962,134.3588869999994,150.76904300000024,152.05126999999993,150.51269500000035,214.3588869999994,519.6152340000008,-48.846190999999635,858.205078,118.7177729999994
106,2831.6665040000007,839.3588869999994,48.846190999999635,713.7177729999994,-202.179443,135.6411130000006,153.0771479999994,152.82031300000017,152.82031300000017,211.0258789999998,490.89746099999957,-43.71801800000003,828.8461909999996,113.58984400000008
107,2695.384765999999,814.2309569999998,48.974121000000196,682.1796880000002,-176.923096,136.79492200000004,152.17968800000017,150.51269500000035,150.0,197.3076170000004,460.3847659999992,-44.10253899999998,790.2563479999999,110.76904300000024
108,2562.179688,791.4101559999999,48.333496000000196,655.2563479999999,-170.76928699999962,137.82031300000017,151.41015599999992,149.3588869999994,146.2822270000006,180.38476599999922,435.2563479999999,-47.564209000000574,752.8203130000002,112.69238299999961
109,2434.1025390000004,773.205078,48.20507799999996,627.3076170000004,-179.10253899999998,137.82031300000017,151.79492200000004,151.53857400000015,144.87158199999976,169.10253900000043,416.4101559999999,-50.64111300000013,723.205078,113.20507799999996
110,2307.6923829999996,755.5126950000003,48.7177729999994,592.0512699999999,-189.35888699999987,136.15380900000036,151.9228520000006,155.2563479999999,145.6411130000006,168.58984400000008,399.10253900000043,-52.051270000000386,699.4873049999997,110.25634799999989
111,2177.6923829999996,732.9487300000001,49.102539000000434,548.4614259999998,-187.0512700000004,132.17968800000017,149.87158199999976,156.2822270000006,146.15380900000036,176.79492200000004,377.4360349999997,-52.564209000000574,672.8203130000002,109.87158199999976
112,2040.6411130000006,704.6152340000008,49.102539000000434,502.82031300000017,-161.28198199999997,127.69238299999961,146.2822270000006,152.6923829999996,144.61523400000078,187.3076170000004,350.12841800000024,-53.46142599999985,634.3588869999994,114.23095699999976
113,1898.4614259999998,675.1284180000002,50.25634799999989,462.6923829999996,-108.84619099999964,125.89746099999957,144.10253900000043,148.0771479999994,141.79492200000004,192.3076170000004,319.87158199999976,-53.58984399999963,582.3076170000004,116.2822270000006
114,1755.256348,649.3588869999994,54.102539000000434,429.6152340000008,-38.71801800000003,127.43603499999972,145.12841800000024,146.6665039999998,139.87158199999976,187.17968800000017,289.6152340000008,-51.28198199999997,521.2822270000006,112.05126999999993
115,1611.794922,627.0512699999999,58.846190999999635,399.48730499999965,28.589844000000085,129.7436520000001,147.17968800000017,148.46142599999985,139.10253900000043,172.82031300000017,260.12841800000024,-46.025634999999966,456.6665039999998,107.94873000000007
116,1464.2309569999998,603.8461909999996,61.410155999999915,368.0771479999994,71.0258789999998,128.84619099999964,145.2563479999999,148.58984400000008,137.3076170000004,154.7436520000001,232.17968800000017,-40.38452099999995,392.6923829999996,110.38476599999922
117,1311.6665039999998,575.5126950000003,61.666503999999804,336.0258789999998,80.25634799999989,123.7177729999994,137.82031300000017,144.10253900000043,133.3334960000002,141.0258789999998,209.10253900000043,-35.1281740000004,335.12841800000024,115.0
118,1160.8974609999996,541.4101559999999,64.87158199999976,307.4360349999997,68.9741210000002,117.69238299999961,129.87158199999976,138.0771479999994,130.12841800000024,139.61523400000078,193.9741210000002,-27.179442999999992,291.0258789999998,114.35888699999941
119,1021.2822270000006,505.0,76.6665039999998,283.0771479999994,61.410155999999915,114.74365200000011,129.61523400000078,137.56396500000028,132.94873000000007,152.17968800000017,185.2563479999999,-12.179442999999992,262.94873000000007,111.15380900000036
120,894.7436520000001,471.6665039999998,95.64111300000059,258.3334960000002,75.25634799999989,116.6665039999998,138.58984400000008,144.87158199999976,142.56396500000028,170.6411130000006,176.0258789999998,8.461425999999847,244.23095699999976,111.79492200000004
121,772.5639650000003,445.0,112.82031300000017,228.20507799999996,110.0,120.12841800000024,149.3588869999994,155.0,152.82031300000017,181.15380900000036,158.0771479999994,25.641113000000587,222.05126999999993,114.74365200000011
122,642.9487300000001,425.12841800000024,118.46142599999985,192.94873000000007,150.0,119.74365200000011,150.2563479999999,157.94873000000007,154.3588869999994,173.84619099999964,128.20507799999996,28.974121000000196,186.0258789999998,113.58984400000008
123,503.5898440000001,408.7177729999994,109.87158199999976,161.0258789999998,177.56396500000028,112.69238299999961,136.15380900000036,148.0771479999994,144.23095699999976,151.9228520000006,90.89746099999957,16.794922000000042,136.6665039999998,109.48730499999965
124,365.0,393.0771479999994,94.35888699999941,143.20507799999996,185.2563479999999,101.6665039999998,113.9741210000002,129.23095699999976,128.46142599999985,129.23095699999976,56.153809000000365,-0.8974609999995664,85.64111300000059,108.7177729999994
125,243.7177729999994,378.7177729999994,82.94873000000007,144.7436520000001,178.46142599999985,93.46142599999985,97.05126999999993,112.17968800000017,117.82031300000017,120.0,32.43603499999972,-9.102538999999979,47.43603499999972,111.41015599999992
126,148.7177729999994,368.7177729999994,83.0771479999994,160.2563479999999,170.6411130000006,92.82031300000017,94.87158199999976,106.41015599999992,118.46142599999985,127.17968800000017,21.025878999999804,-0.12841800000023795,27.94873000000007,111.0258789999998
127,74.61523400000078,364.48730499999965,94.74365200000011,176.0258789999998,175.6411130000006,98.84619099999964,105.51269500000035,112.82031300000017,128.3334960000002,143.20507799999996,15.641113000000587,21.153809000000365,21.538574000000153,107.56396500000028
128,7.43603499999972,363.9741210000002,111.2822270000006,179.61523400000078,200.38476599999922,106.2822270000006,119.35888699999941,124.23095699999976,139.87158199999976,156.9228520000006,9.230956999999762,42.56396500000028,15.769043000000238,107.82031300000017
129,-64.10253899999998,363.0771479999994,125.12841800000024,168.84619099999964,240.51269500000035,110.64111300000059,126.41015599999992,131.9228520000006,145.76904300000024,162.05126999999993,-0.38476599999921746,55.0,1.2822270000006029,113.0771479999994
130,-140.64111300000013,357.94873000000007,131.9228520000006,152.17968800000017,281.0258789999998,111.15380900000036,124.10253900000043,131.79492200000004,145.0,159.61523400000078,-9.743652000000111,57.94873000000007,-22.564209000000574,115.25634799999989
131,-214.8718259999996,346.4101559999999,132.05126999999993,140.0,304.3588869999994,110.12841800000024,116.53857400000015,125.89746099999957,140.6411130000006,154.61523400000078,-13.205077999999958,56.025878999999804,-50.38452099999995,110.51269500000035
132,-278.33325200000036,328.46142599999985,128.7177729999994,135.2563479999999,302.6923829999996,110.12841800000024,110.64111300000059,119.48730499999965,136.9228520000006,150.2563479999999,-9.102538999999979,54.102539000000434,-74.8718259999996,105.64111300000059
133,-327.820557,306.9228520000006,124.87158199999976,131.6665039999998,285.0,111.15380900000036,110.25634799999989,117.17968800000017,135.38476599999922,146.41015599999992,-1.9228520000006029,53.7177729999994,-91.79492200000004,106.6665039999998
134,-367.6923829999996,285.89746099999957,122.43603499999972,121.0258789999998,271.53857400000015,110.89746099999957,114.35888699999941,119.87158199999976,134.87158199999976,140.89746099999957,0.12841800000023795,53.846190999999635,-101.66674799999964,109.48730499999965
135,-406.41015600000037,267.5639650000003,122.17968800000017,101.2822270000006,277.82031300000017,106.9228520000006,118.7177729999994,125.0,134.10253900000043,133.84619099999964,-8.461425999999847,53.20507799999996,-109.35888699999987,108.7177729999994
136,-450.1281740000004,252.3076170000004,123.46142599999985,79.48730499999965,303.0771479999994,99.48730499999965,120.25634799999989,128.84619099999964,133.20507799999996,128.84619099999964,-25.1281740000004,53.20507799999996,-119.48706099999981,107.43603499999972
137,-498.46142599999985,238.9741210000002,125.38476599999922,64.61523400000078,330.3847659999992,92.56396500000028,119.48730499999965,130.12841800000024,133.0771479999994,129.23095699999976,-40.89746100000002,56.53857400000015,-132.6923829999996,110.25634799999989
138,-544.615479,226.6665039999998,126.15380900000036,61.153809000000365,339.48730499999965,90.89746099999957,118.7177729999994,129.87158199999976,133.84619099999964,133.84619099999964,-47.69238299999961,63.7177729999994,-146.53857400000015,113.3334960000002
139,-578.8461909999996,215.0,124.87158199999976,65.89746099999957,321.15380900000036,96.41015599999992,118.84619099999964,128.9741210000002,133.9741210000002,137.82031300000017,-42.948729999999614,71.2822270000006,-158.58984399999963,110.76904300000024
140,-595.1281740000004,203.46142599999985,121.79492200000004,72.56396500000028,284.3588869999994,104.74365200000011,118.46142599999985,126.9228520000006,131.53857400000015,138.20507799999996,-31.538574000000153,74.23095699999976,-168.71801800000003,106.15380900000036
141,-595.0,192.17968800000017,118.46142599999985,76.9228520000006,251.53857400000015,109.61523400000078,116.2822270000006,123.3334960000002,126.9228520000006,136.15380900000036,-21.41015600000037,70.89746099999957,-176.66674799999964,106.6665039999998
142,-588.205078,181.53857400000015,116.53857400000015,79.10253900000043,243.9741210000002,108.0771479999994,113.3334960000002,119.87158199999976,123.20507799999996,135.89746099999957,-17.820557000000008,66.15380900000036,-180.64111300000013,111.0258789999998
143,-588.4614259999998,172.05126999999993,117.94873000000007,81.53857400000015,265.89746099999957,104.10253900000043,112.82031300000017,120.0,123.84619099999964,140.0,-20.512939000000188,66.6665039999998,-178.97436500000003,111.15380900000036
144,-605.897461,162.82031300000017,124.48730499999965,85.25634799999989,302.05126999999993,104.10253900000043,116.9228520000006,125.25634799999989,129.61523400000078,147.43603499999972,-24.358886999999868,75.25634799999989,-173.20507799999996,106.9228520000006
145,-640.897461,152.43603499999972,135.12841800000024,87.43603499999972,330.89746099999957,110.89746099999957,124.87158199999976,133.9741210000002,137.3076170000004,154.48730499999965,-24.10253899999998,87.17968800000017,-167.43579099999943,105.89746099999957
146,-682.6923829999996,141.6665039999998,146.0258789999998,84.87158199999976,341.79492200000004,120.76904300000024,133.7177729999994,142.3076170000004,143.0771479999994,158.20507799999996,-17.948729999999614,93.9741210000002,-163.58984399999963,109.87158199999976
147,-716.4101560000004,133.84619099999964,152.3076170000004,75.76904300000024,339.87158199999976,126.0258789999998,139.3588869999994,146.6665039999998,144.7436520000001,157.56396500000028,-8.205077999999958,90.64111300000059,-161.02563499999997,111.41015599999992
148,-734.3588869999999,131.15380900000036,150.89746099999957,62.82031300000017,335.76904300000024,121.2822270000006,139.61523400000078,145.38476599999922,141.9228520000006,152.43603499999972,-0.512695000000349,80.25634799999989,-158.71801800000003,107.69238299999961
149,-742.4357909999994,131.6665039999998,143.0771479999994,51.79492200000004,333.7177729999994,106.9228520000006,133.9741210000002,138.20507799999996,135.76904300000024,142.82031300000017,-1.153809000000365,71.6665039999998,-160.1281740000004,105.38476599999922
150,-753.205078,130.38476599999922,133.20507799999996,47.94873000000007,331.15380900000036,90.38476599999922,124.61523400000078,127.82031300000017,127.30761700000039,128.7177729999994,-13.076904000000013,72.69238299999961,-169.7436520000001,108.3334960000002
151,-773.974365,123.9741210000002,126.79492200000004,52.30761700000039,327.5639650000003,81.15380900000036,115.89746099999957,118.58984400000008,118.58984400000008,112.17968800000017,-31.153809000000365,84.61523400000078,-187.9487299999996,110.89746099999957
152,-799.4870609999998,114.23095699999976,127.43603499999972,60.12841800000024,328.5898440000001,84.23095699999976,112.17968800000017,115.12841800000024,112.56396500000028,98.7177729999994,-44.48706099999981,102.43603499999972,-208.076904,108.0771479999994
153,-817.3076170000004,105.38476599999922,133.7177729999994,65.51269500000035,341.4101559999999,95.38476599999922,114.23095699999976,118.20507799999996,111.41015599999992,95.12841800000024,-43.846190999999635,118.20507799999996,-220.64111300000013,105.12841800000024
154,-820.2563479999999,99.23095699999976,139.7436520000001,66.2822270000006,365.3847659999992,105.0,118.9741210000002,123.9741210000002,115.0,103.46142599999985,-29.358886999999868,125.64111300000059,-221.02563499999997,107.30761700000039
155,-813.4614260000003,94.48730499999965,140.51269500000035,64.61523400000078,391.0258789999998,106.53857400000015,120.51269500000035,126.79492200000004,119.35888699999941,117.17968800000017,-10.256347999999889,122.43603499999972,-212.56420900000057,110.0
156,-810.6411129999997,88.20507799999996,135.12841800000024,63.333496000000196,406.2822270000006,102.05126999999993,115.89746099999957,123.7177729999994,120.25634799999989,124.74365200000011,1.0258789999998044,112.30761700000039,-203.58984399999963,107.05126999999993
157,-823.3332519999999,78.7177729999994,127.82031300000017,61.53857400000015,406.6665039999998,97.82031300000017,107.17968800000017,115.89746099999957,116.0258789999998,118.9741210000002,-2.6923829999996087,101.41015599999992,-202.56420900000057,102.17968800000017
158,-852.0512699999999,65.51269500000035,123.3334960000002,55.12841800000024,399.48730499999965,97.17968800000017,99.48730499999965,107.17968800000017,108.58984400000008,102.56396500000028,-19.10253899999998,94.61523400000078,-212.3076170000004,102.94873000000007
159,-885.384521,50.897460999999566,123.7177729999994,43.0771479999994,398.0771479999994,98.0771479999994,96.6665039999998,101.41015599999992,102.43603499999972,86.2822270000006,-37.30761700000039,92.17968800000017,-228.58984399999963,107.82031300000017
160,-908.205078,40.25634799999989,127.56396500000028,30.0,409.7436520000001,96.9228520000006,99.74365200000011,101.41015599999992,101.0258789999998,80.51269500000035,-45.89746100000002,91.79492200000004,-242.43579099999943,109.23095699999976
161,-914.3588870000003,37.69238299999961,132.3076170000004,23.077147999999397,428.46142599999985,92.43603499999972,106.53857400000015,107.17968800000017,105.0,87.17968800000017,-42.051270000000386,91.0258789999998,-246.79492200000004,106.2822270000006
162,-910.6411129999997,42.82031300000017,135.12841800000024,25.897460999999566,437.05126999999993,87.82031300000017,113.46142599999985,115.64111300000059,111.79492200000004,98.7177729999994,-32.30761700000039,89.87158199999976,-240.89746100000002,105.12841800000024
163,-910.0,50.897460999999566,135.0,36.153809000000365,421.79492200000004,87.94873000000007,117.43603499999972,122.94873000000007,117.82031300000017,103.9741210000002,-25.769286999999622,91.53857400000015,-229.8718259999996,106.79492200000004
164,-918.974365,56.025878999999804,132.94873000000007,47.43603499999972,384.87158199999976,95.64111300000059,117.94873000000007,126.6665039999998,120.51269500000035,97.82031300000017,-26.28198199999997,98.9741210000002,-220.1281740000004,105.89746099999957
165,-934.4870609999998,54.23095699999976,130.12841800000024,53.20507799999996,342.94873000000007,107.56396500000028,116.53857400000015,126.2822270000006,119.74365200000011,85.25634799999989,-31.153809000000365,111.6665039999998,-215.5129390000002,102.05126999999993
166,-947.9487300000001,43.974121000000196,126.6665039999998,50.64111300000059,314.3588869999994,115.89746099999957,114.10253900000043,122.56396500000028,116.6665039999998,77.05126999999993,-35.89746100000002,123.9741210000002,-216.02563499999997,102.17968800000017
167,-953.205078,27.30761700000039,122.94873000000007,41.153809000000365,306.6665039999998,114.48730499999965,111.0258789999998,117.05126999999993,112.69238299999961,80.25634799999989,-37.82055700000001,128.58984400000008,-218.97436500000003,107.30761700000039
168,-950.384521,9.871581999999762,120.0,29.102539000000434,314.3588869999994,103.84619099999964,107.17968800000017,111.6665039999998,108.9741210000002,92.56396500000028,-36.79492200000004,122.17968800000017,-221.15380900000036,109.61523400000078
169,-946.1538089999999,-2.0512699999999313,118.9741210000002,18.974121000000196,325.12841800000024,90.25634799999989,103.0771479999994,108.46142599999985,106.41015599999992,105.12841800000024,-34.23071300000038,108.46142599999985,-221.02563499999997,105.12841800000024
170,-948.3332519999999,-4.487060999999812,119.61523400000078,12.307617000000391,328.5898440000001,80.12841800000024,100.0,107.69238299999961,105.51269500000035,109.87158199999976,-31.41015600000037,96.0258789999998,-218.97436500000003,100.76904300000024
171,-959.7436520000001,1.4101559999999154,120.25634799999989,7.692382999999609,320.76904300000024,76.79492200000004,98.7177729999994,108.46142599999985,106.15380900000036,105.0,-29.230713000000378,91.15380900000036,-217.3076170000004,102.69238299999961
172,-975.128174,10.512695000000349,120.51269500000035,4.102539000000434,304.10253900000043,80.12841800000024,99.87158199999976,110.25634799999989,108.84619099999964,95.64111300000059,-27.051270000000386,95.12841800000024,-218.33325200000036,106.41015599999992
173,-986.025635,16.025878999999804,121.53857400000015,1.4101559999999154,282.5639650000003,87.17968800000017,102.94873000000007,112.94873000000007,112.94873000000007,89.23095699999976,-24.230713000000378,103.7177729999994,-222.3076170000004,105.51269500000035
174,-988.5898440000001,13.589844000000085,124.48730499999965,-0.12841800000023795,259.48730499999965,94.23095699999976,106.9228520000006,115.76904300000024,116.79492200000004,91.15380900000036,-20.1281740000004,110.89746099999957,-226.53857400000015,103.20507799999996
175,-986.025635,4.230956999999762,129.23095699999976,-0.6411130000005869,238.46142599999985,98.7177729999994,110.64111300000059,117.17968800000017,118.58984400000008,100.25634799999989,-15.512939000000188,113.46142599999985,-226.02563499999997,105.38476599999922
176,-983.3332519999999,-4.743652000000111,134.87158199999976,0.256347999999889,224.23095699999976,101.0258789999998,113.9741210000002,116.9228520000006,118.0771479999994,110.38476599999922,-10.897461000000021,113.0771479999994,-216.66674799999964,109.23095699999976
177,-984.2307129999999,-7.307617000000391,139.61523400000078,4.102539000000434,220.12841800000024,102.05126999999993,116.9228520000006,116.0258789999998,116.79492200000004,115.38476599999922,-7.179442999999992,114.74365200000011,-200.38452099999995,108.0771479999994
178,-990.7692870000001,-4.230713000000378,141.6665039999998,11.025878999999804,222.6923829999996,101.0258789999998,118.7177729999994,115.64111300000059,115.64111300000059,113.46142599999985,-6.41015600000037,120.25634799999989,-186.02563499999997,103.46142599999985
179,-1002.9487300000001,-2.1796869999998307,140.12841800000024,18.461425999999847,222.94873000000007,96.9228520000006,118.58984400000008,115.89746099999957,114.48730499999965,106.41015599999992,-10.769286999999622,126.53857400000015,-183.076904,102.43603499999972
180,-1016.923096,-6.41015600000037,135.89746099999957,22.30761700000039,214.10253900000043,91.6665039999998,117.05126999999993,116.15380900000036,112.56396500000028,97.30761700000039,-19.487060999999812,128.58984400000008,-192.3076170000004,105.25634799999989
181,-1026.153809,-15.38452099999995,131.6665039999998,20.641113000000587,197.3076170000004,89.10253900000043,115.89746099999957,116.41015599999992,109.35888699999941,87.94873000000007,-28.461425999999847,125.0,-205.89746100000002,105.89746099999957
182,-1026.794922,-23.461425999999847,129.23095699999976,13.846190999999635,179.7436520000001,90.64111300000059,116.2822270000006,116.0258789999998,105.51269500000035,80.12841800000024,-33.71801800000003,119.23095699999976,-214.61547900000005,103.7177729999994
183,-1020.6411129999997,-26.28198199999997,127.82031300000017,3.4614259999998467,169.10253900000043,93.84619099999964,117.69238299999961,114.48730499999965,102.30761700000039,75.25634799999989,-34.74365200000011,116.41015599999992,-215.5129390000002,104.61523400000078
184,-1014.4870609999998,-23.461425999999847,125.12841800000024,-7.948729999999614,167.6923829999996,95.38476599999922,117.94873000000007,112.05126999999993,101.2822270000006,74.23095699999976,-34.35888699999987,118.7177729999994,-211.79492200000004,108.7177729999994
185,-1014.615479,-18.846190999999635,120.51269500000035,-17.435790999999426,172.3076170000004,93.9741210000002,115.64111300000059,109.87158199999976,102.43603499999972,76.15380900000036,-35.1281740000004,123.7177729999994,-208.71801800000003,108.7177729999994
186,-1022.5642090000001,-17.564209000000574,116.0258789999998,-23.205077999999958,177.94873000000007,90.51269500000035,110.89746099999957,108.9741210000002,104.23095699999976,79.74365200000011,-37.435790999999426,126.2822270000006,-209.8718259999996,102.82031300000017
187,-1033.589844,-22.948729999999614,113.9741210000002,-25.25634799999989,180.76904300000024,86.79492200000004,105.51269500000035,107.94873000000007,104.48730499999965,84.35888699999941,-39.48706099999981,122.56396500000028,-215.1281740000004,99.48730499999965
188,-1040.769287,-32.82055700000001,115.0,-25.25634799999989,180.2563479999999,83.58984400000008,101.6665039999998,105.12841800000024,102.17968800000017,89.10253900000043,-38.71801800000003,113.0771479999994,-220.5129390000002,103.84619099999964
189,-1038.718018,-40.25634799999989,117.56396500000028,-23.71801800000003,177.05126999999993,80.89746099999957,100.64111300000059,100.64111300000059,98.20507799999996,93.20507799999996,-33.974365000000034,103.20507799999996,-220.38452099999995,109.61523400000078
190,-1027.94873,-38.974365000000034,120.89746099999957,-20.0,173.0771479999994,80.0,102.56396500000028,97.17968800000017,95.76904300000024,95.89746099999957,-26.538574000000153,99.87158199999976,-211.28198199999997,109.35888699999941
191,-1014.102539,-29.358886999999868,125.38476599999922,-14.61547900000005,170.51269500000035,82.69238299999961,107.30761700000039,98.20507799999996,98.3334960000002,98.9741210000002,-18.974365000000034,106.6665039999998,-196.15380900000036,106.41015599999992
192,-1004.871826,-19.230713000000378,131.0258789999998,-8.846190999999635,171.2822270000006,89.74365200000011,113.9741210000002,105.0,106.41015599999992,104.87158199999976,-13.076904000000013,121.53857400000015,-182.0512700000004,107.05126999999993
193,-1005.7692870000001,-18.076904000000013,136.0258789999998,-4.230713000000378,174.87158199999976,98.3334960000002,120.0,114.35888699999941,115.38476599999922,112.94873000000007,-10.0,137.6923829999996,-175.64111300000013,109.10253900000043
194,-1017.5642090000001,-30.38452099999995,137.05126999999993,-2.0512699999999313,176.15380900000036,102.43603499999972,122.30761700000039,119.87158199999976,118.20507799999996,118.9741210000002,-12.179442999999992,146.9228520000006,-179.7436520000001,106.79492200000004
195,-1036.025635,-51.92309599999999,132.3076170000004,-4.230713000000378,167.05126999999993,96.2822270000006,118.20507799999996,116.2822270000006,111.79492200000004,117.94873000000007,-21.28198199999997,143.46142599999985,-191.923096,102.82031300000017
196,-1052.05127,-71.15380900000036,122.94873000000007,-12.051270000000386,144.10253900000043,81.2822270000006,108.46142599999985,104.23095699999976,99.23095699999976,108.84619099999964,-36.153809000000365,129.48730499999965,-205.5129390000002,103.46142599999985
197,-1057.3076170000004,-77.56420900000057,112.82031300000017,-23.71801800000003,113.58984400000008,66.15380900000036,97.43603499999972,90.89746099999957,87.94873000000007,95.25634799999989,-49.8718259999996,113.46142599999985,-212.6923829999996,107.30761700000039
198,-1049.4870609999998,-68.58984399999963,107.30761700000039,-33.974365000000034,90.0,61.2822270000006,91.15380900000036,84.61523400000078,83.84619099999964,83.46142599999985,-55.38452099999995,105.12841800000024,-209.10253899999998,107.05126999999993
199,-1033.974365,-51.92309599999999,110.38476599999922,-36.92309599999999,86.53857400000015,69.61523400000078,93.3334960000002,88.9741210000002,88.0771479999994,79.87158199999976,-50.89746100000002,108.46142599999985,-196.41015600000037,103.0771479999994
200,-1019.871826,-39.74365200000011,121.79492200000004,-31.28198199999997,105.64111300000059,84.10253900000043,102.69238299999961,100.38476599999922,97.17968800000017,88.3334960000002,-41.53857400000015,119.87158199999976,-182.179443,102.43603499999972
201,-1015.5129390000002,-40.64111300000013,134.87158199999976,-22.564209000000574,135.6411130000006,93.7177729999994,112.56396500000028,111.0258789999998,105.51269500000035,105.38476599999922,-34.74365200000011,132.05126999999993,-174.7436520000001,105.89746099999957
202,-1023.205078,-54.10253899999998,141.0258789999998,-18.71801800000003,158.20507799999996,92.82031300000017,115.64111300000059,114.23095699999976,108.9741210000002,121.79492200000004,-34.10253899999998,138.3334960000002,-177.0512700000004,106.41015599999992
203,-1035.6411129999997,-70.38452099999995,137.6923829999996,-22.69238299999961,161.2822270000006,85.38476599999922,111.0258789999998,109.87158199999976,107.94873000000007,128.9741210000002,-36.66674799999964,137.17968800000017,-184.4870609999998,102.30761700000039
204,-1040.5129390000002,-76.28198199999997,130.38476599999922,-29.8718259999996,146.53857400000015,81.15380900000036,105.64111300000059,103.7177729999994,107.05126999999993,125.76904300000024,-35.38452099999995,132.6923829999996,-188.20507799999996,100.64111300000059
205,-1028.974365,-64.8718259999996,127.69238299999961,-32.82055700000001,127.05126999999993,87.30761700000039,107.56396500000028,102.94873000000007,110.64111300000059,117.69238299999961,-24.61547900000005,131.6665039999998,-182.56420900000057,105.25634799999989
206,-1004.7436520000001,-42.051270000000386,133.0771479999994,-28.461425999999847,115.12841800000024,101.15380900000036,118.84619099999964,109.48730499999965,117.94873000000007,109.87158199999976,-5.769286999999622,137.56396500000028,-170.5129390000002,109.35888699999941
207,-983.5898440000001,-23.333252000000357,141.53857400000015,-22.051270000000386,113.0771479999994,111.6665039999998,131.53857400000015,117.82031300000017,122.56396500000028,103.84619099999964,13.077147999999397,146.79492200000004,-160.64111300000013,106.9228520000006
208,-981.794922,-23.333252000000357,143.84619099999964,-20.89746100000002,113.0771479999994,108.7177729999994,134.10253900000043,119.35888699999941,117.82031300000017,98.20507799999996,21.410155999999915,151.79492200000004,-160.64111300000013,102.82031300000017
209,-1002.4357909999999,-43.58984399999963,135.2563479999999,-28.076904000000013,108.20507799999996,91.9228520000006,121.6665039999998,110.12841800000024,104.10253900000043,91.53857400000015,14.102539000000434,147.05126999999993,-170.76928699999962,103.3334960000002
210,-1031.025635,-72.69238299999961,119.48730499999965,-38.33325200000036,100.12841800000024,72.43603499999972,100.38476599999922,94.87158199999976,88.20507799999996,84.48730499999965,-5.256347999999889,133.9741210000002,-182.6923829999996,106.0258789999998
211,-1048.4614260000003,-95.1281740000004,105.89746099999957,-44.74365200000011,95.12841800000024,62.43603499999972,82.94873000000007,82.82031300000017,79.23095699999976,78.84619099999964,-27.051270000000386,118.84619099999964,-186.53857400000015,105.0
212,-1045.5129390000002,-103.07690400000001,101.79492200000004,-44.48706099999981,95.51269500000035,65.25634799999989,78.7177729999994,80.0,80.89746099999957,76.6665039999998,-43.20507799999996,107.69238299999961,-179.35888699999987,102.69238299999961
213,-1028.589844,-98.71801800000003,106.9228520000006,-40.64111300000013,97.17968800000017,73.9741210000002,87.43603499999972,85.51269500000035,89.61523400000078,79.10253900000043,-49.8718259999996,103.20507799999996,-166.66674799999964,104.61523400000078
214,-1011.6667480000001,-89.35888699999987,115.51269500000035,-37.948729999999614,96.6665039999998,79.87158199999976,100.64111300000059,93.84619099999964,97.30761700000039,85.25634799999989,-47.564209000000574,104.74365200000011,-157.6923829999996,107.82031300000017
215,-1005.0,-82.30761700000039,121.0258789999998,-38.33325200000036,95.38476599999922,79.10253900000043,108.58984400000008,99.23095699999976,98.58984400000008,92.30761700000039,-38.46142599999985,110.64111300000059,-158.33325200000036,105.64111300000059
216,-1009.102539,-81.28198199999997,121.41015599999992,-39.48706099999981,99.87158199999976,74.35888699999941,107.17968800000017,99.23095699999976,93.3334960000002,97.17968800000017,-26.28198199999997,118.9741210000002,-166.02563499999997,100.0
217,-1016.5385739999997,-84.8718259999996,119.74365200000011,-37.82055700000001,115.51269500000035,71.0258789999998,100.38476599999922,95.25634799999989,86.53857400000015,99.10253900000043,-15.256347999999889,127.82031300000017,-172.43579099999943,98.84619099999964
218,-1017.6923829999996,-86.92309599999999,121.0258789999998,-33.07690400000001,141.6665039999998,72.82031300000017,95.64111300000059,91.2822270000006,84.10253900000043,99.23095699999976,-7.948729999999614,135.0,-169.8718259999996,102.43603499999972
219,-1008.3332519999999,-82.56420900000057,126.9228520000006,-29.487060999999812,170.51269500000035,78.58984400000008,96.6665039999998,90.0,88.0771479999994,98.9741210000002,-5.0,138.84619099999964,-157.9487299999996,103.3334960000002
220,-992.9487300000001,-74.61547900000005,134.10253900000043,-32.435790999999426,191.53857400000015,83.3334960000002,101.15380900000036,91.6665039999998,96.0258789999998,99.61523400000078,-5.128174000000399,138.9741210000002,-144.23071300000038,99.61523400000078
221,-980.897461,-72.30761700000039,136.9228520000006,-42.17944299999999,198.84619099999964,82.43603499999972,104.35888699999941,94.74365200000011,102.69238299999961,100.76904300000024,-6.025634999999966,136.9228520000006,-137.820557,98.46142599999985
222,-977.820557,-82.05127000000039,133.9741210000002,-51.66674799999964,195.2563479999999,76.53857400000015,104.87158199999976,97.82031300000017,104.74365200000011,101.41015599999992,-5.0,135.89746099999957,-140.0,102.30761700000039
223,-981.281982,-99.48706099999981,128.84619099999964,-52.051270000000386,190.12841800000024,71.53857400000015,105.25634799999989,101.53857400000015,103.0771479999994,99.48730499999965,-0.769043000000238,138.20507799999996,-144.10253899999998,104.48730499999965
224,-984.7436520000001,-112.82055700000001,126.41015599999992,-41.66674799999964,190.2563479999999,73.0771479999994,108.0771479999994,105.38476599999922,100.76904300000024,92.69238299999961,4.102539000000434,141.79492200000004,-143.20507799999996,100.89746099999957
225,-983.718018,-113.20507799999996,126.9228520000006,-28.846190999999635,195.38476599999922,80.25634799999989,111.6665039999998,106.9228520000006,99.48730499999965,80.64111300000059,5.128418000000238,142.05126999999993,-137.6923829999996,98.20507799999996
226,-977.9487300000001,-101.15380900000036,127.17968800000017,-24.358886999999868,201.0258789999998,88.0771479999994,111.9228520000006,103.84619099999964,98.7177729999994,66.15380900000036,0.8974609999995664,135.89746099999957,-132.3076170000004,101.79492200000004
227,-969.4870609999998,-84.35888699999987,125.76904300000024,-31.538574000000153,204.23095699999976,91.41015599999992,107.94873000000007,97.56396500000028,97.69238299999961,55.38476599999922,-3.3334960000001956,127.43603499999972,-128.97436500000003,106.79492200000004
228,-961.1538089999999,-71.79492200000004,124.61523400000078,-43.846190999999635,205.89746099999957,90.38476599999922,103.20507799999996,92.30761700000039,97.05126999999993,54.48730499999965,-1.0258789999998044,124.61523400000078,-125.51293900000019,106.79492200000004
229,-956.281982,-68.97436500000003,127.30761700000039,-50.76928699999962,208.20507799999996,87.69238299999961,102.69238299999961,91.79492200000004,98.46142599999985,65.38476599999922,8.717772999999397,132.3076170000004,-119.23071300000038,105.0
230,-957.5642090000001,-75.76928699999962,133.7177729999994,-46.41015600000037,211.79492200000004,86.41015599999992,107.94873000000007,95.89746099999957,101.9228520000006,83.46142599999985,18.974121000000196,146.2822270000006,-112.82055700000001,107.30761700000039
231,-965.2563479999999,-87.56420900000057,139.61523400000078,-33.46142599999985,215.12841800000024,86.6665039999998,114.74365200000011,100.76904300000024,104.74365200000011,98.3334960000002,19.48730499999965,156.2822270000006,-112.56420900000057,110.51269500000035
232,-976.1538089999999,-98.20507799999996,139.7436520000001,-20.512939000000188,216.15380900000036,85.89746099999957,116.79492200000004,100.89746099999957,103.3334960000002,101.15380900000036,6.153809000000365,154.7436520000001,-124.35888699999987,107.94873000000007
233,-984.3588870000003,-104.8718259999996,133.0771479999994,-15.897461000000021,213.9741210000002,81.53857400000015,110.64111300000059,93.9741210000002,96.53857400000015,90.38476599999922,-15.0,143.0771479999994,-146.15380900000036,101.9228520000006
234,-984.3588870000003,-107.94872999999961,123.84619099999964,-20.512939000000188,211.0258789999998,74.48730499999965,99.10253900000043,82.30761700000039,86.6665039999998,73.3334960000002,-31.41015600000037,129.87158199999976,-166.66674799999964,100.64111300000059
235,-973.4614260000003,-108.97436500000003,118.7177729999994,-27.051270000000386,211.79492200000004,69.48730499999965,89.10253900000043,72.82031300000017,79.23095699999976,60.0,-32.17944299999999,123.7177729999994,-169.8718259999996,104.23095699999976
236,-954.2307129999999,-107.17944299999999,122.05126999999993,-26.666747999999643,220.0,70.38476599999922,87.43603499999972,72.56396500000028,79.10253900000043,57.05126999999993,-16.41015600000037,126.2822270000006,-148.84619099999964,105.38476599999922
237,-933.974365,-101.66674799999964,131.53857400000015,-18.461425999999847,233.84619099999964,76.2822270000006,94.48730499999965,81.6665039999998,86.41015599999992,64.23095699999976,6.282227000000603,132.17968800000017,-113.20507799999996,101.9228520000006
238,-921.1538089999999,-94.61547900000005,139.87158199999976,-10.512939000000188,245.38476599999922,81.15380900000036,103.58984400000008,93.3334960000002,95.76904300000024,75.0,21.410155999999915,133.9741210000002,-84.48706099999981,100.12841800000024
239,-919.102539,-90.25634799999989,140.12841800000024,-11.41015600000037,245.76904300000024,79.74365200000011,106.41015599999992,98.20507799999996,100.12841800000024,80.25634799999989,19.74365200000011,128.84619099999964,-79.8718259999996,102.05126999999993
240,-923.5898440000001,-90.76928699999962,131.6665039999998,-21.538574000000153,232.94873000000007,74.23095699999976,100.89746099999957,93.0771479999994,96.0258789999998,74.87158199999976,4.6152340000007825,121.2822270000006,-97.69238299999961,102.30761700000039
241,-926.025635,-92.82055700000001,121.15380900000036,-32.564209000000574,214.48730499999965,72.05126999999993,93.3334960000002,83.20507799999996,87.05126999999993,63.333496000000196,-10.1281740000004,119.48730499999965,-120.51293900000019,98.7177729999994
242,-920.5129390000002,-90.64111300000013,117.05126999999993,-36.41015600000037,202.17968800000017,79.10253900000043,92.30761700000039,77.17968800000017,81.15380900000036,56.410155999999915,-11.025634999999966,127.82031300000017,-130.2563479999999,97.82031300000017
243,-908.718018,-82.69238299999961,122.56396500000028,-31.923095999999987,202.3076170000004,93.9741210000002,101.0258789999998,80.12841800000024,84.35888699999941,62.94873000000007,3.9741210000001956,143.3334960000002,-122.17944299999999,103.3334960000002
244,-898.205078,-74.8718259999996,133.58984400000008,-23.846190999999635,211.2822270000006,108.3334960000002,113.7177729999994,89.61523400000078,94.74365200000011,81.53857400000015,23.846190999999635,157.3076170000004,-105.76928699999962,108.3334960000002
245,-896.4101559999999,-76.28198199999997,141.6665039999998,-18.333252000000357,216.79492200000004,112.43603499999972,121.0258789999998,97.69238299999961,103.7177729999994,102.30761700000039,33.20507799999996,161.53857400000015,-94.61547900000005,106.79492200000004
246,-905.384521,-91.15380900000036,140.2563479999999,-17.30761700000039,208.58984400000008,102.05126999999993,116.79492200000004,97.05126999999993,102.94873000000007,113.0771479999994,25.0,153.3334960000002,-97.05127000000039,102.94873000000007
247,-919.2307129999999,-113.20507799999996,128.7177729999994,-17.948729999999614,187.17968800000017,82.56396500000028,102.56396500000028,86.2822270000006,91.2822270000006,107.82031300000017,4.6152340000007825,135.76904300000024,-111.28198199999997,103.7177729999994
248,-927.179443,-128.97436500000003,113.84619099999964,-15.256347999999889,166.6665039999998,66.2822270000006,87.43603499999972,72.17968800000017,75.76904300000024,89.35888699999941,-14.8718259999996,116.9228520000006,-127.43579099999943,106.2822270000006
249,-921.1538089999999,-129.23071300000038,104.87158199999976,-8.333252000000357,164.10253900000043,63.46142599999985,82.05126999999993,64.23095699999976,66.53857400000015,68.20507799999996,-23.333252000000357,104.48730499999965,-135.5129390000002,104.61523400000078
250,-902.9487300000001,-117.05127000000039,106.9228520000006,-1.7949220000000423,184.48730499999965,74.23095699999976,90.25634799999989,67.69238299999961,68.9741210000002,56.53857400000015,-20.1281740000004,102.30761700000039,-131.79492200000004,100.76904300000024
251,-883.4614260000003,-103.97436500000003,116.2822270000006,-2.5639650000002803,215.38476599999922,89.10253900000043,106.41015599999992,78.58984400000008,80.25634799999989,60.38476599999922,-12.435790999999426,107.56396500000028,-120.51293900000019,101.0258789999998
252,-873.8461910000001,-99.8718259999996,123.9741210000002,-12.051270000000386,237.3076170000004,97.30761700000039,119.35888699999941,87.43603499999972,91.2822270000006,75.25634799999989,-7.435790999999426,113.9741210000002,-109.35888699999987,103.58984400000008
253,-876.281982,-105.76928699999962,123.84619099999964,-25.1281740000004,238.7177729999994,95.25634799999989,121.15380900000036,87.17968800000017,93.7177729999994,89.35888699999941,-6.153809000000365,115.64111300000059,-103.46142599999985,102.05126999999993
254,-884.4870609999998,-115.25634799999989,116.41015599999992,-33.846190999999635,224.61523400000078,88.0771479999994,112.05126999999993,78.7177729999994,86.15380900000036,91.9228520000006,-6.153809000000365,111.0258789999998,-104.48706099999981,97.56396500000028
255,-889.7436520000001,-119.74365200000011,107.56396500000028,-34.74365200000011,210.51269500000035,83.3334960000002,99.48730499999965,68.58984400000008,74.35888699999941,81.9228520000006,-4.743652000000111,103.58984400000008,-111.41015600000037,97.82031300000017
256,-887.4357909999999,-115.38452099999995,103.0771479999994,-30.641113000000132,208.84619099999964,85.0,92.30761700000039,63.846190999999635,66.2822270000006,68.20507799999996,-2.3076170000003913,99.10253900000043,-121.41015600000037,103.58984400000008
257,-879.2307129999999,-105.0,104.87158199999976,-26.923095999999987,220.0,91.6665039999998,93.3334960000002,66.53857400000015,66.2822270000006,62.17968800000017,0.38476599999921746,101.0258789999998,-130.64111300000013,106.53857400000015
258,-870.0,-96.15380900000036,110.0,-26.666747999999643,233.0771479999994,97.69238299999961,98.7177729999994,73.3334960000002,72.69238299999961,68.0771479999994,2.1796880000001693,108.20507799999996,-133.58984399999963,103.3334960000002
259,-863.205078,-94.48706099999981,113.46142599999985,-28.461425999999847,236.41015599999992,97.56396500000028,101.9228520000006,78.3334960000002,80.51269500000035,80.25634799999989,3.4614259999998467,115.76904300000024,-125.76928699999962,100.25634799999989
260,-858.205078,-98.84619099999964,112.69238299999961,-28.71801800000003,228.46142599999985,91.41015599999992,100.38476599999922,78.84619099999964,84.87158199999976,88.9741210000002,6.922852000000603,120.0,-106.41015600000037,101.2822270000006
261,-852.6923829999996,-103.07690400000001,109.61523400000078,-25.512939000000188,218.20507799999996,84.48730499999965,96.41015599999992,76.6665039999998,85.0,89.10253900000043,15.384765999999217,121.9228520000006,-81.53857400000015,101.79492200000004
262,-847.3076170000004,-102.56420900000057,109.23095699999976,-20.769286999999622,217.05126999999993,82.69238299999961,95.12841800000024,76.53857400000015,83.84619099999964,84.48730499999965,27.05126999999993,124.61523400000078,-62.82055700000001,98.58984400000008
263,-846.1538089999999,-99.74365200000011,114.10253900000043,-18.205077999999958,227.56396500000028,87.94873000000007,99.87158199999976,81.53857400000015,85.64111300000059,84.48730499999965,35.76904300000024,130.38476599999922,-60.1281740000004,97.30761700000039
264,-851.923096,-99.61547900000005,121.6665039999998,-19.8718259999996,242.94873000000007,96.9228520000006,109.61523400000078,91.53857400000015,92.43603499999972,95.76904300000024,35.51269500000035,137.17968800000017,-73.97436500000003,102.17968800000017
265,-861.5385739999997,-105.0,126.6665039999998,-25.0,252.82031300000017,104.74365200000011,119.23095699999976,102.30761700000039,101.53857400000015,115.25634799999989,26.794922000000042,140.76904300000024,-95.1281740000004,107.43603499999972
266,-867.820557,-113.58984399999963,125.25634799999989,-31.153809000000365,250.6411130000006,107.56396500000028,122.82031300000017,108.0771479999994,107.30761700000039,131.6665039999998,16.538574000000153,137.94873000000007,-110.89746100000002,105.89746099999957
267,-864.3588870000003,-121.66674799999964,118.0771479999994,-35.64111300000013,237.56396500000028,104.48730499999965,118.0771479999994,104.74365200000011,105.12841800000024,133.46142599999985,11.666503999999804,128.9741210000002,-113.33325200000036,101.41015599999992
268,-851.4101559999999,-126.92309599999999,109.10253900000043,-36.66674799999964,220.38476599999922,97.43603499999972,107.82031300000017,93.46142599999985,96.0258789999998,118.3334960000002,13.461425999999847,118.20507799999996,-102.43579099999943,101.41015599999992
269,-835.2563479999999,-128.33325200000036,102.82031300000017,-33.33325200000036,208.46142599999985,90.76904300000024,98.58984400000008,80.76904300000024,85.64111300000059,94.87158199999976,18.077147999999397,110.25634799999989,-85.0,104.74365200000011
270,-822.9487300000001,-125.1281740000004,102.43603499999972,-26.923095999999987,208.20507799999996,88.7177729999994,95.89746099999957,75.0,80.51269500000035,77.17968800000017,21.410155999999915,107.56396500000028,-69.48706099999981,104.48730499999965
271,-817.820557,-116.92309599999999,108.20507799999996,-19.74365200000011,219.48730499999965,92.56396500000028,101.0258789999998,79.61523400000078,83.9741210000002,74.61523400000078,22.56396500000028,109.10253900000043,-61.153809000000365,101.0258789999998
272,-817.179443,-106.02563499999997,116.9228520000006,-14.358886999999868,236.15380900000036,99.87158199999976,110.51269500000035,91.53857400000015,93.7177729999994,87.05126999999993,23.461425999999847,112.82031300000017,-60.38452099999995,100.64111300000059
273,-815.2563479999999,-96.41015600000037,124.10253900000043,-10.897461000000021,250.6411130000006,106.2822270000006,118.9741210000002,103.58984400000008,103.9741210000002,104.48730499999965,26.025878999999804,117.56396500000028,-64.61547900000005,103.46142599999985
274,-807.820557,-91.41015600000037,127.17968800000017,-7.564209000000574,258.5898440000001,108.46142599999985,123.20507799999996,110.64111300000059,110.0,117.05126999999993,29.74365200000011,124.74365200000011,-70.25634799999989,103.20507799999996
275,-795.2563479999999,-91.53857400000015,127.30761700000039,-3.2050779999999577,259.6152340000008,106.6665039999998,123.58984400000008,111.9228520000006,111.41015599999992,122.05126999999993,33.46142599999985,135.38476599999922,-74.23071300000038,99.48730499999965
276,-782.0512699999999,-95.25634799999989,127.56396500000028,0.6411130000005869,254.48730499999965,103.3334960000002,122.56396500000028,110.0,110.89746099999957,124.61523400000078,36.410155999999915,147.94873000000007,-74.35888699999987,99.87158199999976
277,-773.5898440000001,-99.74365200000011,129.10253900000043,0.0,242.43603499999972,100.89746099999957,121.15380900000036,107.82031300000017,110.89746099999957,129.10253900000043,38.20507799999996,157.17968800000017,-70.76928699999962,105.76904300000024
278,-772.4357909999999,-103.33325200000036,130.0,-7.948729999999614,222.17968800000017,98.7177729999994,118.20507799999996,106.15380900000036,110.25634799999989,133.84619099999964,36.666503999999804,157.56396500000028,-66.41015600000037,109.10253900000043
279,-776.4101559999999,-105.1281740000004,127.82031300000017,-21.153809000000365,195.38476599999922,94.87158199999976,112.17968800000017,103.20507799999996,106.79492200000004,133.0771479999994,28.589844000000085,147.05126999999993,-66.15380900000036,105.38476599999922
280,-779.7436520000001,-105.25634799999989,122.56396500000028,-33.33325200000036,169.23095699999976,87.69238299999961,103.58984400000008,97.30761700000039,100.25634799999989,124.48730499999965,14.487304999999651,130.51269500000035,-72.05127000000039,101.0258789999998
281,-777.4357909999999,-104.61547900000005,117.05126999999993,-36.41015600000037,153.84619099999964,79.61523400000078,95.12841800000024,90.12841800000024,93.7177729999994,112.17968800000017,0.0,117.17968800000017,-82.17944299999999,102.56396500000028
282,-768.718018,-103.71801800000003,115.12841800000024,-25.641113000000132,156.6665039999998,75.64111300000059,90.64111300000059,85.25634799999989,90.64111300000059,103.46142599999985,-6.794922000000042,114.35888699999941,-90.64111300000013,106.15380900000036
283,-756.6667480000001,-101.53857400000015,118.9741210000002,-3.717772999999397,175.2563479999999,78.84619099999964,92.05126999999993,85.76904300000024,92.94873000000007,104.10253900000043,-1.0258789999998044,122.56396500000028,-91.92309599999999,105.76904300000024
284,-746.4101559999999,-96.53857400000015,127.05126999999993,18.974121000000196,195.89746099999957,88.0771479999994,97.69238299999961,90.89746099999957,98.9741210000002,114.74365200000011,14.743652000000111,134.61523400000078,-85.0,104.10253900000043
285,-741.794922,-88.07690400000001,134.7436520000001,31.025878999999804,202.05126999999993,97.69238299999961,102.69238299999961,95.89746099999957,104.74365200000011,129.61523400000078,31.922852000000603,141.41015599999992,-74.35888699999987,106.15380900000036
286,-742.4357909999994,-78.33325200000036,136.41015599999992,27.17968800000017,185.89746099999957,102.69238299999961,102.94873000000007,96.2822270000006,106.15380900000036,139.61523400000078,41.666503999999804,138.46142599999985,-66.41015600000037,108.84619099999964
287,-744.7436520000001,-70.64111300000013,131.0258789999998,12.692382999999609,155.0,102.05126999999993,98.0771479999994,91.53857400000015,102.43603499999972,138.7177729999994,40.12841800000024,129.10253900000043,-64.35888699999987,105.89746099999957
288,-743.5898439999996,-67.30761700000039,122.94873000000007,-1.5385740000001533,126.9228520000006,99.10253900000043,92.17968800000017,85.51269500000035,96.9228520000006,129.48730499999965,32.30761700000039,121.15380900000036,-66.53857400000015,99.87158199999976
289,-736.4101560000004,-67.56420900000057,119.10253900000043,-6.025634999999966,118.0771479999994,97.56396500000028,90.0,83.9741210000002,94.48730499999965,120.76904300000024,28.333496000000196,121.41015599999992,-68.97436500000003,98.3334960000002
290,-724.7436520000001,-69.10253899999998,123.46142599999985,1.7949220000000423,132.56396500000028,99.23095699999976,93.84619099999964,88.84619099999964,97.30761700000039,118.0771479999994,34.23095699999976,130.12841800000024,-69.10253899999998,101.0258789999998
291,-713.974365,-70.1281740000004,133.46142599999985,16.282227000000603,160.89746099999957,102.56396500000028,101.41015599999992,97.05126999999993,102.56396500000028,119.61523400000078,46.666503999999804,141.0258789999998,-68.07690400000001,100.64111300000059
292,-709.615479,-71.15380900000036,141.6665039999998,26.538574000000153,185.76904300000024,105.0,107.69238299999961,102.43603499999972,105.25634799999989,120.0,54.87158199999976,146.79492200000004,-69.23071300000038,96.41015599999992
293,-712.820557,-73.33325200000036,141.2822270000006,25.128418000000238,194.10253900000043,104.61523400000078,108.9741210000002,101.15380900000036,102.69238299999961,117.56396500000028,51.025878999999804,143.84619099999964,-73.58984399999963,95.89746099999957
294,-718.205078,-77.05127000000039,131.53857400000015,13.461425999999847,184.23095699999976,101.53857400000015,105.25634799999989,94.61523400000078,96.41015599999992,114.35888699999941,38.333496000000196,135.38476599999922,-77.30761700000039,100.51269500000035
295,-718.3332520000004,-81.28198199999997,118.46142599999985,1.0258789999998044,164.23095699999976,98.7177729999994,99.61523400000078,87.30761700000039,90.38476599999922,112.56396500000028,26.794922000000042,127.94873000000007,-74.48706099999981,102.94873000000007
296,-710.1281740000004,-84.74365200000011,110.0,-2.6923829999996087,145.12841800000024,98.3334960000002,95.38476599999922,83.46142599999985,87.56396500000028,111.9228520000006,23.846190999999635,126.0258789999998,-63.58984399999963,99.74365200000011
297,-697.5642090000006,-87.05127000000039,110.51269500000035,3.5898440000000846,135.12841800000024,100.25634799999989,94.74365200000011,84.10253900000043,88.3334960000002,111.6665039999998,27.56396500000028,128.9741210000002,-49.48706099999981,96.9228520000006
298,-686.5385740000002,-88.20507799999996,117.69238299999961,14.230956999999762,137.3076170000004,102.56396500000028,97.30761700000039,87.43603499999972,90.89746099999957,111.9228520000006,31.794922000000042,132.82031300000017,-39.8718259999996,99.74365200000011
299,-680.0,-88.07690400000001,125.76904300000024,21.922852000000603,150.51269500000035,103.3334960000002,101.0258789999998,91.15380900000036,93.3334960000002,114.10253900000043,32.82031300000017,134.23095699999976,-38.71801800000003,103.46142599999985
300,-677.179443,-86.15380900000036,130.12841800000024,23.205077999999958,169.10253900000043,101.6665039999998,103.46142599999985,93.46142599999985,94.10253900000043,118.0771479999994,32.82031300000017,132.82031300000017,-43.71801800000003,102.56396500000028
301,-676.6667479999996,-82.94872999999961,129.23095699999976,19.230956999999762,184.48730499999965,97.43603499999972,103.20507799999996,93.58984400000008,92.56396500000028,121.6665039999998,35.38476599999922,129.61523400000078,-50.51293900000019,100.51269500000035
302,-677.5642090000006,-79.61547900000005,124.61523400000078,14.358886999999413,189.23095699999976,91.9228520000006,100.25634799999989,90.89746099999957,89.48730499999965,122.05126999999993,41.2822270000006,126.15380900000036,-55.51293900000019,102.43603499999972
303,-677.5642090000006,-75.89746100000002,120.12841800000024,12.56396500000028,182.6923829999996,88.46142599999985,96.6665039999998,86.9228520000006,86.0258789999998,118.20507799999996,47.43603499999972,123.7177729999994,-56.79492200000004,105.0
304,-674.4870609999998,-72.17944299999999,118.7177729999994,14.358886999999413,171.2822270000006,90.12841800000024,95.64111300000059,84.35888699999941,83.84619099999964,113.0771479999994,50.897460999999566,123.9741210000002,-53.20507799999996,102.56396500000028
305,-667.6923829999996,-69.35888699999987,119.87158199999976,16.538574000000153,164.23095699999976,97.05126999999993,98.58984400000008,84.87158199999976,84.35888699999941,111.41015599999992,50.51269500000035,127.05126999999993,-45.38452099999995,98.0771479999994
306,-659.3588869999999,-69.48706099999981,120.38476599999922,15.641113000000587,167.56396500000028,105.89746099999957,104.10253900000043,87.69238299999961,87.30761700000039,116.2822270000006,48.589844000000085,130.51269500000035,-36.53857400000015,98.7177729999994
307,-652.4357909999994,-73.07690400000001,117.82031300000017,11.922852000000603,181.41015599999992,111.79492200000004,108.3334960000002,90.0,90.76904300000024,124.23095699999976,48.0771479999994,130.89746099999957,-31.025634999999966,102.43603499999972
308,-649.2307130000004,-78.33325200000036,112.82031300000017,8.846190999999635,201.79492200000004,111.41015599999992,107.69238299999961,89.74365200000011,92.05126999999993,127.94873000000007,49.61523400000078,126.2822270000006,-31.794922000000042,102.05126999999993
309,-650.6411130000001,-82.30761700000039,107.69238299999961,7.948730000000069,224.10253900000043,105.25634799999989,102.05126999999993,86.6665039999998,89.48730499999965,122.30761700000039,49.61523400000078,118.7177729999994,-39.35888699999987,97.82031300000017
310,-655.897461,-82.94872999999961,104.87158199999976,7.692382999999609,245.2563479999999,97.56396500000028,95.25634799999989,82.56396500000028,84.23095699999976,108.84619099999964,42.56396500000028,111.79492200000004,-50.89746100000002,97.56396500000028
311,-660.897461,-79.35888699999987,105.38476599999922,6.538574000000153,263.7177729999994,94.48730499999965,92.94873000000007,80.76904300000024,80.51269500000035,96.2822270000006,27.69238299999961,108.7177729999994,-60.0,102.69238299999961
312,-659.7436520000001,-72.17944299999999,109.10253900000043,5.128418000000238,278.0771479999994,100.0,98.3334960000002,84.10253900000043,82.30761700000039,92.56396500000028,11.538574000000153,110.25634799999989,-60.0,105.76904300000024
313,-650.384521,-64.61547900000005,115.0,5.512695000000349,284.6152340000008,111.79492200000004,109.48730499999965,91.6665039999998,89.74365200000011,98.9741210000002,3.4614259999998467,114.87158199999976,-49.48706099999981,103.0771479999994
314,-637.5642090000006,-61.153809000000365,121.15380900000036,8.333496000000196,280.3847659999992,122.82031300000017,120.38476599999922,98.84619099999964,98.0771479999994,108.7177729999994,8.974121000000196,119.87158199999976,-35.1281740000004,100.64111300000059
315,-628.5898439999996,-64.23071300000038,124.87158199999976,11.794922000000042,266.6665039999998,126.79492200000004,124.87158199999976,100.64111300000059,101.2822270000006,113.3334960000002,25.897460999999566,123.0771479999994,-26.666747999999643,102.43603499999972
316,-627.3076170000004,-71.28198199999997,124.35888699999941,14.102539000000434,251.41015599999992,123.58984400000008,121.79492200000004,97.05126999999993,98.20507799999996,110.38476599999922,46.025878999999804,124.10253900000043,-28.846190999999635,103.84619099999964
317,-630.5129390000002,-76.66674799999964,119.23095699999976,14.230956999999762,243.7177729999994,117.69238299999961,115.0,92.56396500000028,93.20507799999996,105.51269500000035,60.0,123.3334960000002,-38.46142599999985,100.76904300000024
318,-631.4101560000004,-75.1281740000004,110.76904300000024,13.205077999999958,248.46142599999985,113.7177729999994,109.87158199999976,91.9228520000006,91.53857400000015,105.89746099999957,62.82031300000017,121.53857400000015,-47.30761700000039,97.94873000000007
319,-625.2563479999999,-65.51293900000019,101.41015599999992,13.974121000000196,264.10253900000043,113.20507799999996,108.46142599999985,95.38476599999922,94.74365200000011,113.58984400000008,56.153809000000365,119.35888699999941,-48.71801800000003,99.48730499999965
320,-612.6923829999996,-51.28198199999997,94.23095699999976,19.230956999999762,284.3588869999994,113.9741210000002,108.46142599999985,99.10253900000043,99.35888699999941,123.0771479999994,46.79492200000004,116.9228520000006,-41.025634999999966,100.89746099999957
321,-599.102539,-37.948729999999614,91.53857400000015,27.94873000000007,301.4101559999999,112.69238299999961,107.05126999999993,98.84619099999964,100.76904300000024,127.94873000000007,41.153809000000365,114.35888699999941,-28.71801800000003,97.17968800000017
322,-590.5129390000002,-30.512939000000188,93.58984400000008,34.87158199999976,310.2563479999999,108.0771479999994,103.7177729999994,93.84619099999964,97.05126999999993,126.6665039999998,39.87158199999976,112.17968800000017,-19.487060999999812,93.3334960000002
323,-589.102539,-29.358886999999868,98.46142599999985,33.589844000000085,309.7436520000001,102.56396500000028,101.0258789999998,87.82031300000017,90.64111300000059,121.9228520000006,40.0,111.2822270000006,-19.10253899999998,96.6665039999998
324,-591.025635,-30.641113000000132,103.46142599999985,22.17968800000017,304.7436520000001,100.51269500000035,101.79492200000004,85.51269500000035,85.51269500000035,116.41015599999992,39.61523400000078,112.30761700000039,-26.538574000000153,103.84619099999964
325,-591.025635,-29.487060999999812,106.6665039999998,6.410155999999915,301.79492200000004,104.74365200000011,105.51269500000035,88.9741210000002,84.48730499999965,112.05126999999993,40.12841800000024,115.38476599999922,-35.38452099999995,106.53857400000015
326,-586.1538090000004,-24.487060999999812,107.69238299999961,-3.077147999999397,305.0,113.0771479999994,109.48730499999965,94.87158199999976,86.9228520000006,109.74365200000011,43.974121000000196,118.9741210000002,-39.61547900000005,103.9741210000002
327,-577.9487299999996,-19.10253899999998,107.56396500000028,0.512695000000349,312.17968800000017,119.48730499999965,109.87158199999976,97.82031300000017,89.48730499999965,110.12841800000024,50.51269500000035,121.2822270000006,-36.92309599999999,102.82031300000017
328,-570.384521,-17.435790999999426,106.53857400000015,14.743652000000111,317.94873000000007,118.0771479999994,105.51269500000035,94.61523400000078,88.7177729999994,111.15380900000036,54.87158199999976,120.25634799999989,-30.0,104.23095699999976
329,-566.025635,-20.1281740000004,104.48730499999965,28.717772999999397,317.05126999999993,108.3334960000002,98.9741210000002,86.9228520000006,83.84619099999964,109.48730499999965,51.9228520000006,114.74365200000011,-23.205077999999958,103.20507799999996
330,-564.102539,-22.820557000000008,102.17968800000017,32.94873000000007,308.84619099999964,95.64111300000059,94.61523400000078,79.87158199999976,78.7177729999994,105.0,41.2822270000006,106.53857400000015,-20.89746100000002,99.74365200000011
331,-561.6667479999996,-19.8718259999996,101.53857400000015,25.25634799999989,298.9741210000002,88.0771479999994,95.89746099999957,78.84619099999964,78.20507799999996,101.6665039999998,29.48730499999965,100.38476599999922,-23.461425999999847,100.38476599999922
332,-556.281982,-9.358886999999868,104.74365200000011,11.282227000000603,295.6411130000006,91.41015599999992,102.82031300000017,85.51269500000035,84.23095699999976,103.9741210000002,26.922852000000603,101.6665039999998,-26.666747999999643,105.64111300000059
333,-548.5898439999996,5.3847659999992175,111.53857400000015,-0.769043000000238,303.84619099999964,104.61523400000078,112.43603499999972,97.17968800000017,93.9741210000002,111.79492200000004,38.846190999999635,111.9228520000006,-24.74365200000011,107.30761700000039
334,-541.794922,17.69238299999961,118.7177729999994,-4.102538999999979,320.0,121.15380900000036,120.64111300000059,108.20507799999996,102.43603499999972,121.41015599999992,60.25634799999989,126.79492200000004,-15.256347999999889,102.05126999999993
335,-537.3076170000004,23.205077999999958,123.3334960000002,4.358886999999413,334.23095699999976,132.05126999999993,124.61523400000078,114.61523400000078,105.89746099999957,129.61523400000078,78.9741210000002,139.48730499999965,-1.5385740000001533,97.17968800000017
336,-534.102539,22.43603499999972,123.7177729999994,22.69238299999961,337.5639650000003,131.9228520000006,123.7177729999994,115.76904300000024,104.23095699999976,134.7436520000001,84.87158199999976,144.10253900000043,9.230956999999762,98.9741210000002
337,-529.7436520000001,20.641113000000587,120.0,42.94873000000007,328.20507799999996,121.53857400000015,118.84619099999964,112.69238299999961,98.7177729999994,134.87158199999976,77.56396500000028,139.87158199999976,10.128418000000238,102.82031300000017
338,-524.4870609999998,22.17968800000017,113.3334960000002,55.0,310.89746099999957,106.9228520000006,111.41015599999992,107.17968800000017,91.2822270000006,128.58984400000008,64.48730499999965,129.61523400000078,-0.256347999999889,102.05126999999993
339,-519.615479,27.69238299999961,106.9228520000006,52.56396500000028,294.10253900000043,96.0258789999998,103.7177729999994,100.89746099999957,84.87158199999976,117.30761700000039,53.46142599999985,118.84619099999964,-16.41015600000037,99.61523400000078
340,-516.1538090000004,34.48730499999965,103.84619099999964,39.61523400000078,282.94873000000007,94.48730499999965,98.84619099999964,95.89746099999957,82.30761700000039,106.79492200000004,48.0771479999994,112.17968800000017,-28.58984399999963,101.2822270000006
341,-512.4357909999994,39.74365200000011,106.15380900000036,27.30761700000039,277.6923829999996,101.53857400000015,98.7177729999994,94.35888699999941,85.0,102.30761700000039,47.69238299999961,111.53857400000015,-28.461425999999847,104.48730499999965
342,-506.66674799999964,42.17968800000017,112.94873000000007,25.384765999999217,276.0258789999998,110.12841800000024,101.9228520000006,96.53857400000015,90.64111300000059,105.76904300000024,50.76904300000024,116.0258789999998,-15.38452099999995,103.84619099999964
343,-498.46142599999985,42.56396500000028,120.89746099999957,35.25634799999989,277.3076170000004,112.43603499999972,104.87158199999976,100.64111300000059,95.51269500000035,115.0,56.025878999999804,122.69238299999961,2.6923829999996087,101.15380900000036
344,-491.41015600000037,41.025878999999804,125.38476599999922,48.589844000000085,282.94873000000007,106.15380900000036,104.61523400000078,103.9741210000002,97.17968800000017,125.0,61.53857400000015,128.20507799999996,14.487304999999651,102.82031300000017
345,-489.4870609999998,37.05126999999993,123.3334960000002,54.35888699999941,292.82031300000017,96.6665039999998,100.89746099999957,104.35888699999941,94.61523400000078,130.51269500000035,64.61523400000078,129.7436520000001,12.948730000000069,107.30761700000039
346,-494.7436520000001,29.48730499999965,114.35888699999941,46.410155999999915,302.82031300000017,90.51269500000035,95.12841800000024,100.38476599999922,87.56396500000028,127.30761700000039,62.82031300000017,125.76904300000024,-0.512695000000349,107.43603499999972
347,-505.1281740000004,18.333496000000196,101.53857400000015,27.69238299999961,306.0258789999998,89.87158199999976,89.10253900000043,92.05126999999993,76.9228520000006,115.38476599999922,54.87158199999976,116.79492200000004,-18.461425999999847,102.82031300000017
348,-515.6411130000001,5.897460999999566,89.48730499999965,7.820313000000169,299.23095699999976,90.76904300000024,83.58984400000008,81.53857400000015,65.76904300000024,100.89746099999957,41.9228520000006,105.12841800000024,-31.794922000000042,100.76904300000024
349,-521.025635,-3.2050779999999577,83.0771479999994,-2.5639650000002803,288.0771479999994,89.61523400000078,80.0,73.46142599999985,59.35888699999941,92.69238299999961,28.333496000000196,95.38476599999922,-34.8718259999996,103.3334960000002
350,-518.3332520000004,-4.871825999999601,84.48730499999965,-0.256347999999889,285.0,87.56396500000028,79.48730499999965,72.69238299999961,61.9228520000006,95.51269500000035,19.871581999999762,92.82031300000017,-27.30761700000039,104.61523400000078
351,-509.4870609999998,1.153809000000365,91.41015599999992,8.846190999999635,299.3588869999994,88.58984400000008,82.56396500000028,79.35888699999941,71.6665039999998,104.87158199999976,20.897460999999566,100.25634799999989,-15.38452099999995,101.6665039999998
352,-499.2307130000004,11.153809000000365,98.20507799999996,15.512695000000349,329.6152340000008,94.48730499999965,87.56396500000028,88.3334960000002,81.79492200000004,110.38476599999922,30.128418000000238,114.48730499999965,-8.076904000000013,99.61523400000078
353,-490.7692869999996,20.769043000000238,100.12841800000024,16.666503999999804,363.84619099999964,102.56396500000028,92.05126999999993,92.69238299999961,85.0,105.76904300000024,42.17968800000017,128.58984400000008,-10.256347999999889,101.15380900000036
354,-482.9487299999996,28.974121000000196,97.05126999999993,17.94873000000007,388.0771479999994,107.82031300000017,93.46142599999985,89.87158199999976,78.9741210000002,94.74365200000011,51.666503999999804,136.6665039999998,-18.461425999999847,101.9228520000006
355,-472.5642090000006,37.43603499999972,93.20507799999996,26.538574000000153,395.2563479999999,106.9228520000006,91.41015599999992,82.82031300000017,68.0771479999994,88.20507799999996,57.17968800000017,137.82031300000017,-23.71801800000003,99.61523400000078
356,-459.35888699999987,46.153809000000365,91.79492200000004,41.410155999999915,387.4360349999997,99.87158199999976,87.69238299999961,77.05126999999993,59.48730499999965,93.0771479999994,58.846190999999635,134.3588869999994,-19.358886999999868,99.87158199999976
357,-447.3076170000004,52.56396500000028,92.82031300000017,54.48730499999965,372.6923829999996,90.76904300000024,84.61523400000078,75.76904300000024,58.0771479999994,106.0258789999998,57.30761700000039,129.48730499999965,-6.281981999999971,106.15380900000036
358,-440.0,54.87158199999976,94.23095699999976,58.974121000000196,361.15380900000036,86.6665039999998,84.74365200000011,79.48730499999965,63.7177729999994,116.6665039999998,53.20507799999996,125.0,9.358886999999413,111.9228520000006
359,-437.0512700000004,53.46142599999985,95.89746099999957,55.897460999999566,358.46142599999985,92.69238299999961,89.48730499999965,86.53857400000015,73.46142599999985,119.10253900000043,50.0,121.53857400000015,21.922852000000603,110.25634799999989
360,-436.53857400000015,50.0,98.9741210000002,52.05126999999993,362.4360349999997,106.53857400000015,97.82031300000017,94.23095699999976,83.20507799999996,115.64111300000059,51.9228520000006,119.10253900000043,29.358886999999413,104.23095699999976
361,-436.66674799999964,46.2822270000006,103.58984400000008,51.666503999999804,365.3847659999992,119.10253900000043,105.64111300000059,99.48730499999965,89.23095699999976,112.69238299999961,60.25634799999989,117.05126999999993,32.05126999999993,101.2822270000006
362,-437.179443,44.102539000000434,106.9228520000006,53.333496000000196,362.3076170000004,122.05126999999993,107.94873000000007,100.51269500000035,90.0,113.84619099999964,70.89746099999957,115.64111300000059,31.794922000000042,100.89746099999957
363,-436.923096,45.897460999999566,106.9228520000006,53.333496000000196,356.0258789999998,114.74365200000011,102.94873000000007,98.9741210000002,87.05126999999993,117.17968800000017,77.56396500000028,115.51269500000035,30.25634799999989,98.84619099999964
364,-434.7436520000001,51.79492200000004,103.58984400000008,50.12841800000024,354.7436520000001,103.84619099999964,94.61523400000078,97.43603499999972,83.7177729999994,117.82031300000017,76.41015599999992,117.30761700000039,28.077147999999397,97.17968800000017
365,-430.2563479999999,58.0771479999994,99.23095699999976,46.79492200000004,363.3334960000002,96.41015599999992,88.3334960000002,97.30761700000039,81.9228520000006,112.30761700000039,69.48730499999965,120.51269500000035,26.153809000000365,100.76904300000024
366,-424.35888699999987,60.25634799999989,96.79492200000004,47.17968800000017,378.7177729999994,94.87158199999976,87.56396500000028,97.94873000000007,81.79492200000004,101.15380900000036,62.82031300000017,125.38476599999922,26.666503999999804,106.6665039999998
367,-418.46142599999985,57.56396500000028,98.46142599999985,53.0771479999994,392.82031300000017,97.69238299999961,92.17968800000017,98.84619099999964,82.17968800000017,89.87158199999976,61.9228520000006,133.20507799999996,31.282227000000603,107.43603499999972
368,-414.61547900000005,52.69238299999961,103.20507799999996,61.153809000000365,398.46142599999985,101.0258789999998,98.3334960000002,99.48730499999965,82.30761700000039,84.48730499999965,66.6665039999998,143.58984400000008,39.102539000000434,103.84619099999964
369,-415.2563479999999,49.102539000000434,106.53857400000015,64.48730499999965,393.3334960000002,101.2822270000006,101.15380900000036,98.20507799999996,80.25634799999989,85.76904300000024,70.51269500000035,152.94873000000007,45.76904300000024,103.58984400000008
370,-421.28198199999997,49.102539000000434,103.20507799999996,57.30761700000039,381.6665039999998,96.6665039999998,97.30761700000039,92.69238299999961,74.35888699999941,86.53857400000015,66.53857400000015,156.0258789999998,46.79492200000004,107.94873000000007
371,-429.2307130000004,52.94873000000007,92.82031300000017,40.25634799999989,372.6923829999996,88.58984400000008,88.0771479999994,83.0771479999994,64.74365200000011,78.46142599999985,53.7177729999994,150.51269500000035,42.05126999999993,109.74365200000011
372,-432.9487299999996,58.974121000000196,81.0258789999998,21.538574000000153,374.6152340000008,81.0258789999998,78.7177729999994,73.3334960000002,55.897460999999566,60.897460999999566,39.35888699999941,140.2563479999999,36.2822270000006,105.89746099999957
373,-426.66674799999964,64.10253900000043,75.76904300000024,12.307617000000391,388.9741210000002,78.20507799999996,75.38476599999922,69.61523400000078,53.46142599999985,43.974121000000196,33.974121000000196,132.94873000000007,35.897460999999566,102.30761700000039
374,-410.2563479999999,65.89746099999957,81.0258789999998,19.358886999999413,408.7177729999994,82.30761700000039,79.74365200000011,75.0,59.61523400000078,39.48730499999965,42.56396500000028,134.23095699999976,43.589844000000085,102.69238299999961
375,-389.4870609999998,65.38476599999922,93.20507799999996,39.48730499999965,422.5639650000003,91.15380900000036,88.3334960000002,86.53857400000015,70.38476599999922,50.64111300000059,59.61523400000078,142.6923829999996,55.897460999999566,102.05126999999993
376,-374.4870609999998,63.974121000000196,103.58984400000008,61.53857400000015,421.6665039999998,99.61523400000078,94.61523400000078,96.53857400000015,78.46142599999985,69.74365200000011,72.30761700000039,149.7436520000001,64.74365200000011,97.56396500000028
377,-372.9487299999996,62.05126999999993,104.87158199999976,73.46142599999985,406.0258789999998,102.05126999999993,94.23095699999976,97.94873000000007,78.84619099999964,85.12841800000024,69.74365200000011,147.17968800000017,63.46142599999985,95.51269500000035
378,-383.46142599999985,59.48730499999965,97.17968800000017,71.15380900000036,384.7436520000001,97.82031300000017,88.46142599999985,90.51269500000035,72.43603499999972,89.74365200000011,53.46142599999985,134.48730499999965,53.0771479999994,100.64111300000059
379,-395.5129390000002,57.43603499999972,87.30761700000039,59.35888699999941,370.12841800000024,91.41015599999992,82.30761700000039,80.76904300000024,65.12841800000024,84.48730499999965,36.2822270000006,120.12841800000024,42.82031300000017,107.30761700000039
380,-396.41015600000037,58.0771479999994,83.46142599999985,47.94873000000007,368.5898440000001,88.46142599999985,80.12841800000024,75.89746099999957,62.43603499999972,75.51269500000035,31.666503999999804,114.48730499999965,42.94873000000007,108.20507799999996
381,-381.41015600000037,62.43603499999972,88.9741210000002,43.974121000000196,377.05126999999993,90.76904300000024,82.17968800000017,78.0771479999994,65.38476599999922,70.12841800000024,42.30761700000039,120.25634799999989,55.64111300000059,105.38476599999922
382,-356.923096,68.7177729999994,99.48730499999965,48.20507799999996,386.4101559999999,95.12841800000024,86.0258789999998,83.46142599999985,69.61523400000078,70.64111300000059,59.23095699999976,131.41015599999992,73.58984400000008,105.12841800000024
383,-336.02563499999997,73.9741210000002,107.43603499999972,56.2822270000006,390.0,97.43603499999972,88.46142599999985,87.05126999999993,70.38476599999922,74.48730499999965,71.53857400000015,138.7177729999994,86.2822270000006,105.89746099999957
