,EEG.AF3,EEG.F7,EEG.F3,EEG.FC5,EEG.T7,EEG.P7,EEG.O1,EEG.O2,EEG.P8,EEG.T8,EEG.FC6,EEG.F4,EEG.F8,EEG.AF4
0,-915.2563479999999,-39.61547900000005,139.23095699999976,-51.53857400000015,171.53857400000015,106.6665039999998,89.23095699999976,86.6665039999998,105.12841800000024,70.51269500000035,-173.33325200000036,178.3334960000002,-207.56420900000057,95.38476599999922
1,-919.2307129999999,-49.23071300000038,136.2822270000006,-52.17944299999999,167.82031300000017,104.35888699999941,82.43603499999972,83.0771479999994,100.25634799999989,72.43603499999972,-168.71801800000003,174.3588869999994,-211.15380900000036,97.43603499999972
2,-923.205078,-53.974365000000034,130.6411130000006,-50.51293900000019,162.3076170000004,101.6665039999998,76.2822270000006,80.51269500000035,95.38476599999922,76.2822270000006,-166.28198199999997,165.6411130000006,-209.8718259999996,101.79492200000004
3,-921.5385739999997,-52.051270000000386,125.0,-48.71801800000003,157.3076170000004,101.6665039999998,74.10253900000043,80.38476599999922,93.3334960000002,78.46142599999985,-168.71801800000003,156.2822270000006,-205.1281740000004,100.64111300000059
4,-911.1538089999999,-44.35888699999987,121.9228520000006,-48.07690400000001,154.48730499999965,104.35888699999941,76.15380900000036,82.30761700000039,95.25634799999989,78.20507799999996,-174.23071300000038,150.38476599999922,-202.179443,94.48730499999965
5,-894.4870609999998,-33.71801800000003,122.05126999999993,-48.33325200000036,152.82031300000017,106.9228520000006,80.25634799999989,84.10253900000043,99.61523400000078,76.79492200000004,-177.56420900000057,150.2563479999999,-205.76928699999962,91.79492200000004
6,-877.820557,-23.974365000000034,123.58984400000008,-47.69238299999961,150.0,106.6665039999998,82.43603499999972,84.10253900000043,102.43603499999972,74.74365200000011,-175.38452099999995,154.7436520000001,-215.2563479999999,94.87158199999976
7,-867.5642090000001,-19.10253899999998,123.9741210000002,-45.0,145.12841800000024,103.84619099999964,80.38476599999922,82.43603499999972,100.25634799999989,70.38476599999922,-169.4870609999998,160.76904300000024,-224.35888699999987,96.79492200000004
8,-865.128174,-22.435790999999426,121.79492200000004,-41.025634999999966,138.46142599999985,100.0,74.48730499999965,80.0,93.3334960000002,62.82031300000017,-167.0512700000004,164.23095699999976,-226.15380900000036,94.87158199999976
9,-866.794922,-33.07690400000001,118.46142599999985,-37.564209000000574,132.17968800000017,97.17968800000017,68.7177729999994,77.94873000000007,85.64111300000059,55.25634799999989,-172.9487299999996,163.20507799999996,-217.6923829999996,95.64111300000059
10,-865.2563479999999,-43.71801800000003,116.9228520000006,-36.153809000000365,130.12841800000024,97.56396500000028,67.56396500000028,77.05126999999993,82.05126999999993,53.20507799999996,-183.46142599999985,159.61523400000078,-201.66674799999964,101.9228520000006
11,-855.2563479999999,-45.51293900000019,119.61523400000078,-36.79492200000004,135.89746099999957,102.43603499999972,72.17968800000017,78.46142599999985,84.74365200000011,60.0,-187.56420900000057,157.56396500000028,-185.38452099999995,106.2822270000006
12,-838.8461910000001,-36.79492200000004,125.38476599999922,-39.10253899999998,148.3334960000002,110.38476599999922,79.61523400000078,81.9228520000006,91.53857400000015,72.94873000000007,-176.923096,158.84619099999964,-176.66674799999964,102.82031300000017
13,-824.2307129999999,-25.89746100000002,130.0,-42.17944299999999,159.87158199999976,116.41015599999992,85.0,85.38476599999922,97.82031300000017,85.89746099999957,-156.02563499999997,161.15380900000036,-180.64111300000013,97.56396500000028
14,-818.4614260000003,-22.69238299999961,129.10253900000043,-44.23071300000038,161.9228520000006,116.15380900000036,85.12841800000024,86.9228520000006,100.0,93.3334960000002,-139.23071300000038,160.38476599999922,-193.71801800000003,97.82031300000017
15,-820.128174,-28.205077999999958,123.20507799999996,-42.564209000000574,151.79492200000004,109.48730499999965,80.76904300000024,86.41015599999992,98.3334960000002,93.7177729999994,-138.076904,154.61523400000078,-204.7436520000001,100.38476599999922
16,-822.4357909999999,-35.25634799999989,116.6665039999998,-36.66674799999964,135.38476599999922,101.0258789999998,76.2822270000006,85.76904300000024,95.89746099999957,89.23095699999976,-149.7436520000001,146.79492200000004,-203.97436500000003,98.3334960000002
17,-820.2563479999999,-36.41015600000037,113.7177729999994,-29.230713000000378,121.0258789999998,95.64111300000059,75.0,86.53857400000015,94.87158199999976,83.9741210000002,-161.41015600000037,141.41015599999992,-192.43579099999943,94.48730499999965
18,-814.2307129999999,-31.794922000000042,114.74365200000011,-24.230713000000378,113.84619099999964,94.61523400000078,76.2822270000006,87.69238299999961,95.25634799999989,80.0,-162.3076170000004,140.76904300000024,-181.28198199999997,95.89746099999957
19,-808.3332519999999,-27.179442999999992,116.6665039999998,-23.71801800000003,114.10253900000043,96.53857400000015,76.41015599999992,87.17968800000017,94.74365200000011,77.05126999999993,-151.79492200000004,143.7177729999994,-180.64111300000013,100.38476599999922
20,-805.0,-27.564209000000574,116.41015599999992,-26.538574000000153,118.58984400000008,99.48730499999965,73.0771479999994,84.61523400000078,92.56396500000028,75.25634799999989,-138.46142599999985,147.05126999999993,-190.0,100.64111300000059
21,-802.9487300000001,-32.435790999999426,113.7177729999994,-31.025634999999966,123.46142599999985,102.82031300000017,67.94873000000007,81.53857400000015,90.51269500000035,76.0258789999998,-131.53857400000015,148.7177729999994,-199.23071300000038,96.53857400000015
22,-799.4870609999998,-37.948729999999614,110.51269500000035,-35.89746100000002,126.9228520000006,106.0258789999998,65.38476599999922,80.12841800000024,91.6665039999998,80.51269500000035,-132.9487299999996,149.61523400000078,-198.58984399999963,95.38476599999922
23,-793.974365,-40.64111300000013,109.23095699999976,-40.0,128.3334960000002,108.7177729999994,67.56396500000028,81.53857400000015,96.15380900000036,86.6665039999998,-137.9487299999996,151.9228520000006,-186.79492200000004,98.46142599999985
24,-788.3332519999999,-39.8718259999996,110.64111300000059,-43.20507799999996,126.6665039999998,110.25634799999989,73.0771479999994,84.35888699999941,101.41015599999992,89.74365200000011,-140.5129390000002,155.76904300000024,-172.0512700000004,98.84619099999964
25,-785.6411129999997,-38.07690400000001,112.94873000000007,-45.89746100000002,120.64111300000059,110.38476599999922,78.0771479999994,86.0258789999998,103.58984400000008,87.43603499999972,-140.0,158.58984400000008,-165.1281740000004,95.12841800000024
26,-786.1538089999999,-37.051270000000386,113.46142599999985,-48.07690400000001,112.43603499999972,108.9741210000002,79.10253900000043,84.74365200000011,101.6665039999998,82.69238299999961,-140.2563479999999,157.43603499999972,-171.53857400000015,94.61523400000078
27,-785.7692870000001,-36.025634999999966,111.2822270000006,-47.948729999999614,107.94873000000007,107.17968800000017,75.76904300000024,81.41015599999992,97.69238299999961,81.79492200000004,-143.46142599999985,151.9228520000006,-186.28198199999997,100.12841800000024
28,-778.718018,-33.33325200000036,108.58984400000008,-42.82055700000001,111.9228520000006,106.2822270000006,70.51269500000035,79.10253900000043,95.25634799999989,86.9228520000006,-147.3076170000004,146.15380900000036,-197.43579099999943,103.7177729999994
29,-763.076904,-29.61547900000005,108.58984400000008,-32.30761700000039,120.89746099999957,106.41015599999992,66.79492200000004,80.12841800000024,96.53857400000015,94.87158199999976,-146.53857400000015,144.61523400000078,-196.02563499999997,100.38476599999922
30,-743.8461909999996,-28.974365000000034,112.56396500000028,-19.61547900000005,122.82031300000017,105.89746099999957,66.79492200000004,83.58984400000008,100.12841800000024,99.48730499999965,-138.33325200000036,149.10253900000043,-184.23071300000038,96.15380900000036
31,-728.5898439999996,-33.71801800000003,117.94873000000007,-9.487060999999812,108.3334960000002,102.82031300000017,69.61523400000078,85.64111300000059,102.94873000000007,97.69238299999961,-125.25634799999989,156.9228520000006,-172.6923829999996,97.56396500000028
32,-721.1538090000004,-39.48706099999981,121.15380900000036,-5.0,80.51269500000035,98.0771479999994,73.46142599999985,84.23095699999976,103.0771479999994,91.79492200000004,-112.94872999999961,163.20507799999996,-170.64111300000013,100.25634799999989
33,-719.7436520000001,-38.846190999999635,120.51269500000035,-6.923095999999987,54.102539000000434,95.0,76.41015599999992,80.89746099999957,101.2822270000006,87.82031300000017,-107.17944299999999,164.7436520000001,-176.02563499999997,97.69238299999961
34,-720.0,-28.974365000000034,117.05126999999993,-14.743652000000111,43.20507799999996,96.53857400000015,77.82031300000017,79.23095699999976,99.74365200000011,89.74365200000011,-109.8718259999996,161.0258789999998,-178.97436500000003,93.84619099999964
35,-718.5898439999996,-16.28198199999997,112.43603499999972,-25.1281740000004,49.87158199999976,101.2822270000006,77.43603499999972,80.76904300000024,99.87158199999976,96.2822270000006,-117.82055700000001,153.9741210000002,-172.56420900000057,95.51269500000035
36,-714.8718259999996,-10.256347999999889,108.0771479999994,-33.846190999999635,64.35888699999941,105.76904300000024,75.89746099999957,83.7177729999994,100.64111300000059,102.30761700000039,-125.64111300000013,146.41015599999992,-159.10253899999998,100.12841800000024
37,-709.102539,-15.512939000000188,105.0,-37.17944299999999,74.35888699999941,107.05126999999993,74.74365200000011,85.38476599999922,100.64111300000059,103.46142599999985,-129.10253899999998,141.15380900000036,-147.0512700000004,99.23095699999976
38,-702.4357909999994,-26.923095999999987,104.10253900000043,-34.61547900000005,73.9741210000002,105.76904300000024,75.76904300000024,84.87158199999976,100.0,99.74365200000011,-127.82055700000001,140.38476599999922,-143.46142599999985,94.35888699999941
39,-695.7692869999996,-34.8718259999996,105.38476599999922,-27.820557000000008,65.76904300000024,105.64111300000059,79.23095699999976,83.58984400000008,99.48730499999965,93.7177729999994,-123.20507799999996,144.61523400000078,-147.820557,93.3334960000002
40,-688.718018,-32.69238299999961,107.56396500000028,-18.974365000000034,57.05126999999993,109.23095699999976,83.9741210000002,83.46142599999985,99.74365200000011,87.43603499999972,-116.15380900000036,152.05126999999993,-153.84619099999964,97.17968800000017
41,-680.5129390000002,-21.666747999999643,109.74365200000011,-10.1281740000004,54.102539000000434,115.0,87.30761700000039,85.64111300000059,100.51269500000035,82.30761700000039,-108.20507799999996,159.61523400000078,-155.89746100000002,98.46142599999985
42,-671.4101560000004,-9.743652000000111,111.41015599999992,-4.358886999999868,57.69238299999961,117.56396500000028,87.56396500000028,88.84619099999964,101.53857400000015,80.38476599999922,-102.05127000000039,162.94873000000007,-153.33325200000036,95.38476599999922
43,-663.5898439999996,-5.897461000000021,112.56396500000028,-3.3334960000001956,63.333496000000196,113.3334960000002,85.64111300000059,90.76904300000024,102.43603499999972,83.9741210000002,-100.1281740000004,159.87158199999976,-150.2563479999999,94.61523400000078
44,-658.718018,-12.179442999999992,112.56396500000028,-6.025634999999966,65.64111300000059,105.0,83.7177729999994,90.38476599999922,103.0771479999994,92.69238299999961,-102.17944299999999,151.79492200000004,-150.38452099999995,98.20507799999996
45,-655.7692869999996,-23.076904000000013,111.79492200000004,-7.692382999999609,63.46142599999985,99.35888699999941,83.0771479999994,88.7177729999994,103.20507799999996,102.05126999999993,-104.48706099999981,144.23095699999976,-152.56420900000057,98.9741210000002
46,-651.923096,-30.38452099999995,111.0258789999998,-5.0,60.38476599999922,101.0258789999998,83.84619099999964,87.69238299999961,102.69238299999961,107.17968800000017,-103.46142599999985,142.82031300000017,-151.79492200000004,94.10253900000043
47,-644.8718259999996,-29.74365200000011,111.0258789999998,0.512695000000349,60.25634799999989,108.3334960000002,85.0,88.20507799999996,102.05126999999993,107.30761700000039,-99.10253899999998,147.82031300000017,-145.2563479999999,91.2822270000006
48,-635.384521,-22.948729999999614,110.89746099999957,2.8203130000001693,63.20507799999996,115.12841800000024,85.25634799999989,89.87158199999976,101.9228520000006,105.12841800000024,-94.61547900000005,153.58984400000008,-135.64111300000013,95.51269500000035
49,-626.6667479999996,-14.743652000000111,108.58984400000008,-1.5385740000001533,66.15380900000036,116.2822270000006,83.58984400000008,91.0258789999998,102.17968800000017,102.82031300000017,-93.33325200000036,152.43603499999972,-129.4870609999998,100.38476599999922
50,-621.6667479999996,-9.102538999999979,103.9741210000002,-10.512939000000188,66.2822270000006,110.76904300000024,80.38476599999922,90.64111300000059,102.05126999999993,100.25634799999989,-95.64111300000013,142.43603499999972,-132.0512700000004,98.58984400000008
51,-621.281982,-7.692382999999609,98.7177729999994,-19.487060999999812,63.46142599999985,102.17968800000017,77.69238299999961,88.7177729999994,101.15380900000036,96.53857400000015,-100.0,129.23095699999976,-142.179443,94.61523400000078
52,-622.820557,-11.153809000000365,95.25634799999989,-24.487060999999812,60.12841800000024,95.64111300000059,77.56396500000028,86.41015599999992,99.35888699999941,91.79492200000004,-104.8718259999996,121.6665039999998,-152.179443,95.89746099999957
53,-621.4101560000004,-17.564209000000574,95.76904300000024,-23.71801800000003,58.589844000000085,94.87158199999976,80.64111300000059,85.64111300000059,97.69238299999961,87.43603499999972,-108.58984399999963,125.64111300000059,-154.23071300000038,99.87158199999976
54,-613.718018,-22.564209000000574,100.64111300000059,-17.820557000000008,58.589844000000085,99.87158199999976,85.89746099999957,87.43603499999972,96.9228520000006,85.25634799999989,-108.84619099999964,139.23095699999976,-146.66674799999964,99.87158199999976
55,-601.281982,-22.435790999999426,108.0771479999994,-9.8718259999996,58.333496000000196,106.2822270000006,91.2822270000006,91.15380900000036,97.82031300000017,87.43603499999972,-104.23071300000038,153.7177729999994,-136.28198199999997,96.9228520000006
56,-589.8718259999996,-17.948729999999614,113.9741210000002,-4.61547900000005,56.025878999999804,109.61523400000078,94.35888699999941,94.48730499999965,99.87158199999976,94.10253900000043,-95.89746100000002,159.87158199999976,-131.41015600000037,97.56396500000028
57,-584.2307130000004,-13.974365000000034,114.35888699999941,-5.512939000000188,52.05126999999993,107.69238299999961,93.0771479999994,95.64111300000059,101.41015599999992,102.05126999999993,-87.30761700000039,155.12841800000024,-134.61547900000005,100.76904300000024
58,-584.102539,-14.487060999999812,108.3334960000002,-10.897461000000021,48.846190999999635,102.05126999999993,88.20507799999996,94.48730499999965,101.41015599999992,106.0258789999998,-82.05127000000039,144.7436520000001,-139.7436520000001,99.87158199999976
59,-584.2307130000004,-18.58984399999963,99.61523400000078,-14.743652000000111,48.7177729999994,95.38476599999922,82.69238299999961,92.17968800000017,100.38476599999922,103.7177729999994,-81.28198199999997,137.17968800000017,-138.33325200000036,95.0
60,-580.1281740000004,-21.28198199999997,93.58984400000008,-11.538574000000153,51.666503999999804,89.23095699999976,80.0,90.51269500000035,100.38476599999922,97.94873000000007,-82.94872999999961,137.56396500000028,-127.69238299999961,93.9741210000002
61,-571.025635,-18.58984399999963,92.82031300000017,-1.2822270000006029,55.76904300000024,84.61523400000078,81.15380900000036,90.25634799999989,102.17968800000017,93.7177729999994,-83.58984399999963,144.10253900000043,-112.94872999999961,98.3334960000002
62,-561.1538090000004,-11.28198199999997,95.89746099999957,10.641113000000587,57.82031300000017,82.30761700000039,83.58984400000008,90.89746099999957,104.35888699999941,92.43603499999972,-80.64111300000013,150.0,-103.58984399999963,100.38476599999922
63,-555.384521,-5.641113000000132,98.9741210000002,17.56396500000028,55.51269500000035,81.2822270000006,83.58984400000008,89.87158199999976,103.3334960000002,91.9228520000006,-75.64111300000013,149.87158199999976,-106.41015600000037,96.9228520000006
64,-554.8718259999996,-7.435790999999426,99.61523400000078,16.025878999999804,49.61523400000078,79.35888699999941,80.0,85.64111300000059,97.56396500000028,89.23095699999976,-73.58984399999963,143.3334960000002,-119.23071300000038,95.38476599999922
65,-555.6411130000001,-16.025634999999966,98.46142599999985,6.538574000000153,44.48730499999965,76.0258789999998,74.61523400000078,79.10253900000043,89.48730499999965,85.51269500000035,-78.71801800000003,135.6411130000006,-132.43579099999943,99.74365200000011
66,-552.9487299999996,-24.74365200000011,97.30761700000039,-6.153809000000365,44.102539000000434,72.69238299999961,70.89746099999957,73.7177729999994,83.7177729999994,84.10253900000043,-89.23071300000038,132.17968800000017,-136.28198199999997,102.94873000000007
67,-545.384521,-26.025634999999966,97.30761700000039,-15.641113000000132,47.82031300000017,72.05126999999993,71.15380900000036,71.53857400000015,83.9741210000002,87.56396500000028,-97.05127000000039,134.10253900000043,-129.35888699999987,99.10253900000043
68,-536.281982,-18.076904000000013,97.94873000000007,-17.051270000000386,51.53857400000015,74.74365200000011,75.0,72.56396500000028,89.87158199999976,95.89746099999957,-93.84619099999964,138.84619099999964,-118.33325200000036,93.7177729999994
69,-529.2307130000004,-5.897461000000021,98.9741210000002,-10.0,53.0771479999994,79.48730499999965,80.76904300000024,75.64111300000059,98.20507799999996,107.30761700000039,-78.33325200000036,143.0771479999994,-110.51293900000019,94.23095699999976
70,-523.8461909999996,2.6923829999996087,101.15380900000036,1.6665039999998044,55.0,84.35888699999941,86.6665039999998,80.76904300000024,104.87158199999976,118.20507799999996,-58.71801800000003,146.53857400000015,-106.53857400000015,98.20507799999996
71,-517.5642090000006,2.4360349999997197,104.87158199999976,12.948730000000069,60.25634799999989,87.82031300000017,91.6665039999998,87.43603499999972,107.43603499999972,124.87158199999976,-47.30761700000039,150.0,-101.79492200000004,98.58984400000008
72,-509.2307130000004,-5.128174000000399,109.10253900000043,19.74365200000011,67.56396500000028,88.3334960000002,94.48730499999965,93.0771479999994,105.25634799999989,123.9741210000002,-50.64111300000013,153.46142599999985,-93.07690400000001,97.05126999999993
73,-500.897461,-13.076904000000013,111.2822270000006,20.897460999999566,71.79492200000004,85.0,93.9741210000002,93.9741210000002,99.48730499999965,114.87158199999976,-64.48706099999981,154.61523400000078,-82.69238299999961,99.10253900000043
74,-495.64111300000013,-14.358886999999868,109.23095699999976,16.410155999999915,70.12841800000024,79.23095699999976,89.61523400000078,89.10253900000043,92.94873000000007,101.2822270000006,-76.92309599999999,151.6665039999998,-76.15380900000036,102.30761700000039
75,-494.4870609999998,-8.205077999999958,103.46142599999985,7.43603499999972,64.35888699999941,73.46142599999985,82.82031300000017,80.64111300000059,88.3334960000002,90.64111300000059,-78.71801800000003,145.2563479999999,-77.82055700000001,99.87158199999976
76,-495.2563479999999,-1.4101559999999154,97.05126999999993,-2.9487300000000687,58.46142599999985,69.35888699999941,76.6665039999998,73.46142599999985,87.43603499999972,88.9741210000002,-69.74365200000011,139.48730499999965,-86.79492200000004,93.58984400000008
77,-494.35888699999987,-0.38476599999921746,94.23095699999976,-9.61547900000005,55.51269500000035,67.30761700000039,74.61523400000078,71.15380900000036,90.38476599999922,95.64111300000059,-57.82055700000001,138.46142599999985,-97.05127000000039,92.43603499999972
78,-488.33325200000036,-5.256347999999889,96.9228520000006,-7.051270000000386,56.53857400000015,67.43603499999972,77.94873000000007,74.87158199999976,96.0258789999998,103.84619099999964,-50.89746100000002,143.46142599999985,-100.89746100000002,97.43603499999972
79,-477.820557,-9.743652000000111,103.84619099999964,5.897460999999566,60.897460999999566,69.35888699999941,84.74365200000011,82.69238299999961,101.6665039999998,105.51269500000035,-49.74365200000011,152.3076170000004,-94.74365200000011,100.25634799999989
80,-467.6923829999996,-8.974365000000034,110.89746099999957,22.82031300000017,66.53857400000015,71.2822270000006,90.89746099999957,89.87158199999976,105.0,99.48730499999965,-50.0,160.12841800000024,-83.07690400000001,97.94873000000007
81,-463.20507799999996,-4.102538999999979,113.7177729999994,34.23095699999976,71.2822270000006,70.76904300000024,93.84619099999964,92.17968800000017,104.48730499999965,91.6665039999998,-48.46142599999985,162.05126999999993,-75.64111300000013,97.17968800000017
82,-465.38452099999995,-0.512695000000349,111.0258789999998,33.846190999999635,73.46142599999985,66.9228520000006,93.58984400000008,88.9741210000002,101.41015599999992,89.10253900000043,-46.66674799999964,157.05126999999993,-78.33325200000036,100.76904300000024
83,-469.35888699999987,-1.6665039999998044,104.74365200000011,24.230956999999762,73.46142599999985,61.666503999999804,92.30761700000039,83.7177729999994,98.20507799999996,94.10253900000043,-49.10253899999998,148.3334960000002,-87.43579099999943,102.30761700000039
84,-469.2307130000004,-6.153809000000365,98.84619099999964,13.589844000000085,72.17968800000017,58.0771479999994,92.05126999999993,80.51269500000035,97.43603499999972,103.3334960000002,-57.051270000000386,141.15380900000036,-94.10253899999998,97.94873000000007
85,-462.9487299999996,-9.487060999999812,96.0258789999998,10.128418000000238,70.64111300000059,57.05126999999993,93.9741210000002,81.53857400000015,99.61523400000078,111.0258789999998,-66.02563499999997,138.7177729999994,-92.05127000000039,94.23095699999976
86,-452.179443,-6.923095999999987,96.15380900000036,15.641113000000587,69.10253900000043,57.43603499999972,97.05126999999993,85.38476599999922,103.20507799999996,113.9741210000002,-68.58984399999963,140.6411130000006,-82.17944299999999,97.17968800000017
87,-440.1281740000004,2.5639650000002803,97.43603499999972,25.128418000000238,68.3334960000002,57.56396500000028,99.10253900000043,89.74365200000011,105.64111300000059,112.69238299999961,-61.025634999999966,144.87158199999976,-70.0,101.15380900000036
88,-429.4870609999998,14.487304999999651,98.0771479999994,29.230956999999762,68.7177729999994,56.410155999999915,98.7177729999994,92.82031300000017,105.51269500000035,110.89746099999957,-47.564209000000574,148.58984400000008,-60.76928699999962,99.48730499999965
89,-422.4357909999994,19.74365200000011,97.56396500000028,23.077147999999397,69.74365200000011,54.23095699999976,97.17968800000017,93.9741210000002,103.46142599999985,112.05126999999993,-37.435790999999426,150.12841800000024,-57.69238299999961,95.38476599999922
90,-420.0,11.922852000000603,96.6665039999998,10.641113000000587,70.76904300000024,51.9228520000006,96.0258789999998,93.58984400000008,101.6665039999998,114.74365200000011,-37.564209000000574,148.3334960000002,-60.38452099999995,96.0258789999998
91,-420.64111300000013,-5.769286999999622,95.76904300000024,2.1796880000001693,72.17968800000017,51.2822270000006,96.6665039999998,92.69238299999961,101.6665039999998,113.58984400000008,-46.41015600000037,143.58984400000008,-65.51293900000019,99.35888699999941
92,-421.02563499999997,-21.153809000000365,95.12841800000024,5.256347999999889,75.12841800000024,53.589844000000085,98.46142599999985,92.56396500000028,103.46142599999985,105.76904300000024,-55.76928699999962,137.94873000000007,-68.07690400000001,98.3334960000002
93,-418.58984399999963,-22.948729999999614,94.74365200000011,17.69238299999961,79.74365200000011,57.30761700000039,100.25634799999989,93.84619099999964,106.0258789999998,95.51269500000035,-57.948729999999614,134.61523400000078,-65.1281740000004,94.23095699999976
94,-412.6923829999996,-9.743652000000111,94.87158199999976,29.615234000000783,84.10253900000043,58.846190999999635,100.38476599999922,95.38476599999922,108.46142599999985,91.53857400000015,-50.1281740000004,136.2822270000006,-57.69238299999961,93.84619099999964
95,-404.2307130000004,9.230956999999762,95.64111300000059,32.69238299999961,85.38476599999922,55.38476599999922,97.94873000000007,95.51269500000035,109.61523400000078,97.30761700000039,-34.48706099999981,142.3076170000004,-49.61547900000005,96.9228520000006
96,-394.8718259999996,21.153809000000365,97.17968800000017,26.538574000000153,81.2822270000006,47.56396500000028,93.3334960000002,93.3334960000002,108.20507799999996,107.05126999999993,-17.564209000000574,148.9741210000002,-44.23071300000038,96.53857400000015
97,-387.4357909999994,19.615234000000783,98.58984400000008,17.05126999999993,72.30761700000039,38.589844000000085,87.94873000000007,88.7177729999994,103.7177729999994,110.76904300000024,-7.564209000000574,150.6411130000006,-43.58984399999963,92.43603499999972
98,-385.0,8.717772999999397,98.0771479999994,11.538574000000153,61.79492200000004,31.922852000000603,83.58984400000008,83.0771479999994,97.30761700000039,104.35888699999941,-9.8718259999996,144.61523400000078,-47.82055700000001,92.56396500000028
99,-387.3076170000004,-1.153809000000365,95.25634799999989,14.102539000000434,55.64111300000059,30.0,82.05126999999993,79.10253900000043,91.41015599999992,93.7177729999994,-21.923095999999987,133.46142599999985,-55.89746100000002,98.58984400000008
100,-389.8718259999996,-1.153809000000365,91.53857400000015,23.717772999999397,58.46142599999985,33.589844000000085,84.35888699999941,78.9741210000002,89.35888699999941,88.3334960000002,-34.61547900000005,123.9741210000002,-64.61547900000005,101.6665039999998
101,-387.5642090000006,7.948730000000069,90.38476599999922,34.87158199999976,70.0,40.897460999999566,90.25634799999989,83.3334960000002,92.05126999999993,93.9741210000002,-38.974365000000034,121.9228520000006,-70.1281740000004,97.30761700000039
102,-379.102539,17.69238299999961,93.7177729999994,41.9228520000006,84.10253900000043,48.333496000000196,97.69238299999961,89.74365200000011,97.82031300000017,107.30761700000039,-34.10253899999998,128.3334960000002,-69.35888699999987,92.17968800000017
103,-367.820557,20.128418000000238,99.74365200000011,42.30761700000039,92.94873000000007,51.53857400000015,102.43603499999972,94.74365200000011,102.94873000000007,119.61523400000078,-26.41015600000037,138.46142599999985,-61.79492200000004,93.0771479999994
104,-358.71801800000003,14.487304999999651,104.35888699999941,38.0771479999994,93.7177729999994,48.974121000000196,101.6665039999998,95.38476599999922,104.35888699999941,122.69238299999961,-24.487060999999812,145.2563479999999,-50.0,95.64111300000059
105,-354.35888699999987,6.282227000000603,103.7177729999994,32.30761700000039,89.35888699999941,42.17968800000017,95.0,91.6665039999998,100.76904300000024,115.25634799999989,-32.69238299999961,143.3334960000002,-38.58984399999963,94.10253900000043
106,-354.102539,1.4101559999999154,97.69238299999961,26.794922000000042,85.0,34.87158199999976,86.0258789999998,85.76904300000024,93.9741210000002,103.58984400000008,-46.66674799999964,133.7177729999994,-32.69238299999961,92.05126999999993
107,-354.8718259999996,2.3076170000003913,90.12841800000024,21.794922000000042,83.7177729999994,30.128418000000238,79.10253900000043,81.15380900000036,87.56396500000028,95.89746099999957,-56.153809000000365,122.82031300000017,-33.58984399999963,94.74365200000011
108,-353.97436500000003,6.538574000000153,85.64111300000059,18.333496000000196,84.10253900000043,29.230956999999762,77.17968800000017,80.12841800000024,84.10253900000043,95.38476599999922,-51.92309599999999,117.69238299999961,-39.10253899999998,98.7177729999994
109,-350.5129390000002,8.717772999999397,86.79492200000004,19.615234000000783,81.0258789999998,30.51269500000035,79.61523400000078,81.53857400000015,84.10253900000043,98.7177729999994,-34.10253899999998,119.87158199999976,-45.64111300000013,97.30761700000039
110,-346.15380900000036,5.128418000000238,91.79492200000004,25.897460999999566,71.79492200000004,30.897460999999566,83.58984400000008,82.17968800000017,85.51269500000035,100.12841800000024,-13.205077999999958,125.89746099999957,-51.025634999999966,93.20507799999996
111,-342.179443,-2.0512699999999313,96.0258789999998,32.94873000000007,59.87158199999976,28.717772999999397,85.64111300000059,79.87158199999976,86.2822270000006,98.0771479999994,-2.9487300000000687,130.51269500000035,-55.1281740000004,93.58984400000008
112,-338.20507799999996,-5.897461000000021,96.0258789999998,35.25634799999989,53.20507799999996,24.871581999999762,85.25634799999989,76.41015599999992,85.51269500000035,94.48730499999965,-9.61547900000005,131.79492200000004,-57.69238299999961,97.05126999999993
113,-333.33325200000036,-2.1796869999998307,93.0771479999994,31.153809000000365,56.9228520000006,22.30761700000039,83.84619099999964,75.76904300000024,84.61523400000078,92.56396500000028,-27.69238299999961,131.79492200000004,-58.46142599999985,95.76904300000024
114,-327.5642090000006,6.538574000000153,90.76904300000024,23.717772999999397,67.56396500000028,21.410155999999915,83.58984400000008,78.84619099999964,85.0,92.56396500000028,-44.48706099999981,132.82031300000017,-57.17944299999999,90.51269500000035
115,-322.820557,12.17968800000017,91.53857400000015,18.205077999999958,74.35888699999941,19.48730499999965,84.10253900000043,82.94873000000007,85.76904300000024,91.9228520000006,-49.35888699999987,134.87158199999976,-54.35888699999987,89.48730499999965
116,-321.923096,9.615234000000783,93.84619099999964,18.717772999999397,70.51269500000035,14.615234000000783,83.0771479999994,84.10253900000043,85.0,89.10253900000043,-40.25634799999989,135.12841800000024,-50.76928699999962,94.48730499999965
117,-324.7436520000001,1.2822270000006029,95.12841800000024,26.538574000000153,60.38476599999922,8.717772999999397,79.87158199999976,82.30761700000039,83.46142599999985,86.41015599999992,-22.564209000000574,132.3076170000004,-46.025634999999966,97.05126999999993
118,-327.179443,-3.846190999999635,95.38476599999922,39.74365200000011,55.25634799999989,6.794922000000042,77.30761700000039,81.41015599999992,84.23095699999976,89.87158199999976,-4.102538999999979,128.9741210000002,-38.58984399999963,93.46142599999985
119,-323.46142599999985,1.2822270000006029,96.2822270000006,53.333496000000196,60.897460999999566,11.282227000000603,79.10253900000043,84.61523400000078,90.12841800000024,102.69238299999961,8.205077999999958,128.3334960000002,-28.974365000000034,91.15380900000036
120,-311.79492200000004,15.769043000000238,98.0771479999994,61.153809000000365,71.15380900000036,19.102539000000434,85.12841800000024,91.41015599999992,99.23095699999976,120.25634799999989,9.102539000000434,130.6411130000006,-20.0,94.87158199999976
121,-296.79492200000004,30.769043000000238,99.10253900000043,58.589844000000085,73.58984400000008,23.717772999999397,90.0,97.05126999999993,105.0,132.17968800000017,-1.7949220000000423,133.58984400000008,-16.538574000000153,98.84619099999964
122,-287.5642090000006,35.25634799999989,96.9228520000006,45.897460999999566,61.53857400000015,19.74365200000011,87.94873000000007,97.05126999999993,102.82031300000017,131.0258789999998,-19.61547900000005,134.48730499999965,-21.923095999999987,97.82031300000017
123,-290.1281740000004,23.717772999999397,91.9228520000006,28.717772999999397,40.12841800000024,7.948730000000069,78.9741210000002,90.76904300000024,93.9741210000002,118.58984400000008,-34.8718259999996,132.94873000000007,-35.38452099999995,96.15380900000036
124,-302.820557,0.6411130000005869,87.05126999999993,15.769043000000238,22.05126999999993,-4.61547900000005,68.7177729999994,82.43603499999972,84.87158199999976,103.84619099999964,-38.58984399999963,130.51269500000035,-51.153809000000365,98.84619099999964
125,-315.897461,-20.641113000000132,86.15380900000036,13.205077999999958,17.82031300000017,-8.58984399999963,64.74365200000011,77.82031300000017,80.89746099999957,95.12841800000024,-28.974365000000034,128.7177729999994,-61.153809000000365,101.15380900000036
126,-319.61547900000005,-26.41015600000037,90.38476599999922,21.666503999999804,27.43603499999972,-1.0258789999998044,69.61523400000078,79.48730499999965,82.82031300000017,94.23095699999976,-13.076904000000013,127.05126999999993,-60.38452099999995,97.05126999999993
127,-311.28198199999997,-14.102538999999979,96.15380900000036,35.64111300000059,39.35888699999941,11.794922000000042,78.46142599999985,83.3334960000002,86.15380900000036,97.30761700000039,-2.8203119999998307,122.17968800000017,-49.48706099999981,91.15380900000036
128,-295.1281740000004,6.282227000000603,96.0258789999998,48.333496000000196,40.0,19.615234000000783,82.82031300000017,82.94873000000007,85.64111300000059,98.46142599999985,-5.512939000000188,110.76904300000024,-33.20507799999996,91.79492200000004
129,-277.0512700000004,21.794922000000042,85.89746099999957,55.51269500000035,26.282227000000603,18.589844000000085,78.9741210000002,76.15380900000036,80.12841800000024,95.0,-17.051270000000386,95.89746099999957,-16.153809000000365,96.79492200000004
130,-261.66674799999964,26.025878999999804,71.41015599999992,56.2822270000006,9.615234000000783,13.846190999999635,71.79492200000004,69.35888699999941,74.61523400000078,90.25634799999989,-25.641113000000132,88.20507799999996,-2.9487300000000687,97.69238299999961
131,-252.9487299999996,21.538574000000153,65.12841800000024,52.17968800000017,6.666503999999804,12.948730000000069,71.41015599999992,72.30761700000039,76.53857400000015,90.89746099999957,-23.58984399999963,97.82031300000017,1.5385740000001533,94.23095699999976
132,-254.35888699999987,13.846190999999635,75.76904300000024,46.2822270000006,23.333496000000196,17.56396500000028,82.43603499999972,87.69238299999961,88.20507799999996,100.25634799999989,-13.076904000000013,123.84619099999964,-6.153809000000365,93.9741210000002
133,-266.28198199999997,5.3847659999992175,98.58984400000008,41.153809000000365,49.35888699999941,22.82031300000017,99.10253900000043,107.17968800000017,103.58984400000008,114.35888699999941,-2.6923829999996087,151.53857400000015,-23.58984399999963,97.94873000000007
134,-285.0,-5.128174000000399,118.3334960000002,37.05126999999993,65.38476599999922,21.794922000000042,108.58984400000008,117.94873000000007,111.79492200000004,123.9741210000002,0.8974609999995664,163.0771479999994,-42.051270000000386,98.84619099999964
135,-304.8718259999996,-18.846190999999635,120.89746099999957,31.025878999999804,56.666503999999804,11.666503999999804,102.17968800000017,112.30761700000039,106.0258789999998,121.2822270000006,-3.4614259999998467,150.89746099999957,-51.28198199999997,94.48730499999965
136,-321.28198199999997,-32.30761700000039,104.48730499999965,21.153809000000365,23.974121000000196,-4.487060999999812,82.17968800000017,93.3334960000002,89.74365200000011,106.6665039999998,-12.948729999999614,122.56396500000028,-49.10253899999998,92.17968800000017
137,-332.0512700000004,-40.25634799999989,81.79492200000004,10.256347999999889,-13.333252000000357,-19.61547900000005,61.2822270000006,73.0771479999994,74.10253900000043,88.7177729999994,-23.846190999999635,96.79492200000004,-42.17944299999999,95.38476599999922
138,-337.6923829999996,-42.564209000000574,71.79492200000004,5.0,-28.076904000000013,-26.025634999999966,53.333496000000196,65.51269500000035,70.38476599999922,80.12841800000024,-32.30761700000039,90.25634799999989,-39.35888699999987,98.20507799999996
139,-343.33325200000036,-46.66674799999964,85.12841800000024,9.615234000000783,-5.128174000000399,-21.025634999999966,63.974121000000196,76.6665039999998,82.30761700000039,89.35888699999941,-37.30761700000039,105.89746099999957,-45.0,96.2822270000006
140,-356.53857400000015,-60.76928699999962,113.20507799999996,19.48730499999965,40.64111300000059,-10.1281740000004,84.23095699999976,98.3334960000002,101.53857400000015,112.43603499999972,-40.25634799999989,128.84619099999964,-59.48706099999981,95.12841800000024
141,-381.41015600000037,-83.33325200000036,133.3334960000002,24.74365200000011,70.89746099999957,-3.717772999999397,95.89746099999957,112.17968800000017,112.30761700000039,132.3076170000004,-42.564209000000574,137.05126999999993,-82.17944299999999,98.84619099999964
142,-412.9487299999996,-100.64111300000013,128.3334960000002,19.48730499999965,54.48730499999965,-8.333252000000357,86.6665039999998,104.35888699999941,103.84619099999964,132.17968800000017,-42.435790999999426,120.76904300000024,-109.10253899999998,101.41015599999992
143,-439.7436520000001,-98.20507799999996,105.38476599999922,6.922852000000603,-3.846190999999635,-19.8718259999996,63.46142599999985,79.48730499999965,81.2822270000006,112.17968800000017,-38.58984399999963,93.58984400000008,-130.1281740000004,97.17968800000017
144,-451.79492200000004,-78.20507799999996,90.12841800000024,-4.102538999999979,-65.51293900000019,-26.794922000000042,47.94873000000007,58.7177729999994,63.0771479999994,92.05126999999993,-34.10253899999998,83.20507799999996,-134.7436520000001,90.89746099999957
145,-443.33325200000036,-60.25634799999989,102.56396500000028,-5.641113000000132,-90.76928699999962,-20.641113000000132,57.30761700000039,61.025878999999804,65.25634799999989,92.30761700000039,-34.23071300000038,106.79492200000004,-120.51293900000019,90.89746099999957
146,-404.102539,-62.564209000000574,136.41015599999992,4.743652000000111,-71.41015600000037,-3.5898440000000846,87.30761700000039,86.53857400000015,86.9228520000006,113.84619099999964,-37.564209000000574,155.51269500000035,-92.94872999999961,94.35888699999941
147,-313.20507799999996,-80.64111300000013,164.23095699999976,24.615234000000783,-36.025634999999966,14.102539000000434,116.53857400000015,116.41015599999992,111.9228520000006,137.05126999999993,-31.794922000000042,200.12841800000024,-54.35888699999987,93.9741210000002
148,-144.23071300000038,-87.69238299999961,161.53857400000015,51.79492200000004,-23.461425999999847,23.589844000000085,126.15380900000036,130.0,123.0771479999994,141.15380900000036,-3.4614259999998467,212.56396500000028,2.8203130000001693,90.64111300000059
149,114.87158199999976,-59.35888699999987,128.20507799999996,87.05126999999993,-49.23071300000038,23.589844000000085,115.64111300000059,122.05126999999993,117.30761700000039,123.7177729999994,46.9228520000006,184.7436520000001,87.69238299999961,91.15380900000036
150,441.6665039999998,-2.0512699999999313,87.56396500000028,131.41015599999992,-94.8718259999996,18.974121000000196,100.64111300000059,105.38476599999922,106.15380900000036,102.17968800000017,102.82031300000017,131.6665039999998,194.3588869999994,94.74365200000011
151,784.8715819999998,47.05126999999993,66.41015599999992,184.10253900000043,-129.35888699999987,15.256347999999889,98.58984400000008,98.20507799999996,104.74365200000011,98.0771479999994,147.05126999999993,79.48730499999965,302.05126999999993,94.23095699999976
152,1098.589844,52.05126999999993,72.94873000000007,241.41015599999992,-139.7436520000001,14.102539000000434,114.35888699999941,108.58984400000008,117.94873000000007,119.35888699999941,179.61523400000078,49.35888699999941,391.6665039999998,89.48730499999965
153,1382.6923829999996,12.56396500000028,91.9228520000006,298.20507799999996,-141.923096,13.205077999999958,137.82031300000017,127.82031300000017,137.05126999999993,153.84619099999964,217.82031300000017,45.897460999999566,462.05126999999993,88.46142599999985
154,1684.8715819999998,-32.564209000000574,98.7177729999994,348.9741210000002,-163.33325200000036,7.948730000000069,151.79492200000004,139.23095699999976,146.2822270000006,177.6923829999996,277.05126999999993,56.666503999999804,530.6411130000006,92.82031300000017
155,2057.6923829999996,-36.41015600000037,78.20507799999996,391.15380900000036,-216.28198199999997,-3.5898440000000846,145.89746099999957,131.9228520000006,135.38476599999922,172.17968800000017,354.87158199999976,62.69238299999961,620.8974609999996,95.89746099999957
156,2506.1538090000004,17.05126999999993,37.69238299999961,428.9741210000002,-285.64111300000013,-17.69238299999961,124.74365200000011,110.51269500000035,109.48730499999965,139.48730499999965,436.0258789999998,51.410155999999915,747.4360349999997,94.87158199999976
157,2970.384765999999,102.30761700000039,0.38476599999921746,472.4360349999997,-338.33325200000036,-25.0,106.2822270000006,92.82031300000017,87.05126999999993,104.48730499999965,509.87158199999976,27.43603499999972,907.6923829999996,96.6665039999998
158,3356.6665040000007,174.23095699999976,-11.41015600000037,530.0,-347.9487299999996,-17.69238299999961,107.82031300000017,96.79492200000004,86.2822270000006,95.51269500000035,580.3847659999992,7.051269999999931,1083.0771479999994,104.23095699999976
159,3591.410156,204.87158199999976,5.512695000000349,601.4101559999999,-316.02563499999997,2.0512699999999313,131.53857400000015,125.12841800000024,109.48730499999965,120.76904300000024,658.9741210000002,3.077147999999397,1245.6411130000006,109.74365200000011
160,3662.94873,201.79492200000004,32.56396500000028,676.794922,-272.179443,20.897460999999566,162.3076170000004,161.0258789999998,139.87158199999976,161.53857400000015,750.1284180000002,13.461425999999847,1373.589844,107.43603499999972
161,3625.8974609999996,196.6665039999998,46.2822270000006,745.0,-250.2563479999999,25.25634799999989,180.38476599999922,182.6923829999996,155.76904300000024,190.38476599999922,845.8974609999996,25.0,1465.3847659999992,103.3334960000002
162,3564.230956999999,219.3588869999994,38.333496000000196,802.4360349999997,-262.4357909999994,15.0,179.7436520000001,181.41015599999992,148.9741210000002,195.76904300000024,929.4873049999997,27.82031300000017,1542.5639650000003,105.12841800000024
163,3537.3076170000004,274.48730499999965,20.0,854.2309569999998,-295.897461,3.3334960000001956,170.89746099999957,169.10253900000043,130.51269500000035,189.10253900000043,986.794922,21.153809000000365,1629.8715819999998,108.84619099999964
164,3549.743651999999,340.0,9.743652000000111,907.0512699999999,-332.820557,2.6923829999996087,168.58984400000008,163.9741210000002,117.82031300000017,189.7436520000001,1015.3847659999992,9.615234000000783,1729.743652,107.69238299999961
165,3569.1025390000004,385.12841800000024,16.025878999999804,962.4360349999997,-366.15380900000036,11.922852000000603,176.79492200000004,172.82031300000017,119.61523400000078,207.05126999999993,1028.0771479999994,-2.5639650000002803,1819.1025390000004,104.35888699999941
166,3567.5639650000003,395.89746099999957,32.69238299999961,1016.1538090000004,-396.41015600000037,20.384765999999217,188.46142599999985,187.94873000000007,130.89746099999957,235.0,1043.589844,-11.923095999999987,1874.2309569999998,106.41015599999992
167,3545.6411129999997,385.0,47.43603499999972,1061.794922,-421.28198199999997,19.358886999999413,194.3588869999994,197.3076170000004,141.41015599999992,259.7436520000001,1071.6665039999998,-15.897461000000021,1893.7177729999994,112.30761700000039
168,3521.0258790000007,376.53857400000015,51.2822270000006,1095.256348,-435.897461,8.974121000000196,190.2563479999999,195.0,143.0771479999994,268.9741210000002,1104.1025390000004,-15.897461000000021,1895.1284180000002,113.58984400000008
169,3506.1538090000004,384.6152340000008,42.05126999999993,1116.5385740000002,-440.64111300000013,-4.230713000000378,177.94873000000007,182.94873000000007,134.61523400000078,257.17968800000017,1122.4360349999997,-16.41015600000037,1896.6665039999998,109.87158199999976
170,3500.6411129999997,406.15380900000036,24.74365200000011,1128.205078,-442.5642090000006,-13.846190999999635,162.94873000000007,167.43603499999972,120.76904300000024,230.2563479999999,1117.94873,-20.25634799999989,1906.9228520000006,108.9741210000002
171,3499.4873049999997,433.46142599999985,8.077147999999397,1134.2309569999998,-444.2307130000004,-15.38452099999995,152.17968800000017,155.38476599999922,109.48730499999965,203.20507799999996,1101.1538090000004,-23.846190999999635,1927.3076170000004,112.82031300000017
172,3499.3588870000003,466.53857400000015,-0.8974609999995664,1138.7177729999994,-439.35888699999987,-8.205077999999958,151.0258789999998,151.53857400000015,106.6665039999998,191.41015599999992,1092.94873,-21.153809000000365,1952.94873,114.61523400000078
173,3499.743651999999,509.7436520000001,-1.0258789999998044,1142.5639650000003,-420.38452099999995,3.9741210000001956,159.61523400000078,155.38476599999922,112.94873000000007,200.38476599999922,1105.5126950000003,-11.794922000000042,1970.6411130000006,112.05126999999993
174,3500.256348000001,560.6411130000006,2.8203130000001693,1143.7177729999994,-390.2563479999999,14.102539000000434,172.05126999999993,162.3076170000004,123.0771479999994,221.9228520000006,1134.743652,-1.6665039999998044,1965.7690430000002,111.6665039999998
175,3500.384765999999,606.794922,5.0,1141.6665039999998,-363.46142599999985,17.30761700000039,180.89746099999957,167.56396500000028,131.2822270000006,241.15380900000036,1167.05127,2.3076170000003913,1936.9228520000006,116.6665039999998
176,3500.256348000001,637.1796880000002,3.9741210000001956,1139.743652,-355.0,13.589844000000085,183.20507799999996,169.7436520000001,134.7436520000001,247.43603499999972,1190.1284180000002,-2.1796869999998307,1899.8715819999998,119.48730499999965
177,3500.128418000001,649.4873049999997,1.7949220000000423,1139.4873049999997,-367.820557,5.769043000000238,180.89746099999957,169.7436520000001,134.7436520000001,241.15380900000036,1195.3847659999992,-14.358886999999868,1872.5639650000003,115.25634799999989
178,3500.0,647.1796880000002,0.256347999999889,1134.743652,-390.0,-4.102538999999979,176.9228520000006,167.43603499999972,133.0771479999994,230.2563479999999,1179.2309569999998,-32.051270000000386,1857.3076170000004,110.51269500000035
179,3500.128418000001,630.6411130000006,-1.0258789999998044,1114.1025390000004,-402.179443,-14.61547900000005,171.9228520000006,161.53857400000015,129.23095699999976,222.05126999999993,1145.5126950000003,-51.79492200000004,1841.2822270000006,113.0771479999994
180,3500.128418000001,599.3588869999994,-3.077147999999397,1072.4360349999997,-390.38452099999995,-21.28198199999997,166.2822270000006,152.94873000000007,122.69238299999961,219.87158199999976,1108.0771479999994,-67.82055700000001,1813.0771479999994,119.10253900000043
181,3500.128418000001,558.5898440000001,-3.5898440000000846,1018.9741210000002,-354.102539,-18.461425999999847,162.3076170000004,145.76904300000024,115.38476599999922,223.20507799999996,1082.6923829999996,-72.56420900000057,1774.1025390000004,121.15380900000036
182,3500.128418000001,524.6152340000008,1.153809000000365,974.3588869999994,-306.28198199999997,-4.61547900000005,163.3334960000002,145.12841800000024,112.17968800000017,230.12841800000024,1075.1284180000002,-62.435790999999426,1734.3588869999994,120.12841800000024
183,3500.128418000001,517.4360349999997,11.410155999999915,957.5639650000003,-263.97436500000003,13.717772999999397,168.9741210000002,151.2822270000006,115.25634799999989,237.56396500000028,1076.794922,-43.33325200000036,1700.6411130000006,121.6665039999998
184,3500.128418000001,550.0,20.51269500000035,972.3076170000004,-237.43579099999943,26.666503999999804,174.48730499999965,158.9741210000002,121.9228520000006,242.17968800000017,1075.0,-27.564209000000574,1672.6923829999996,123.84619099999964
185,3500.128418000001,617.0512699999999,20.128418000000238,1002.5639650000003,-223.58984399999963,28.717772999999397,174.7436520000001,162.3076170000004,127.17968800000017,242.82031300000017,1065.256348,-25.1281740000004,1648.3334960000002,120.76904300000024
186,3500.128418000001,692.3076170000004,8.974121000000196,1022.9487300000001,-208.076904,21.666503999999804,170.89746099999957,160.76904300000024,129.10253900000043,242.82031300000017,1053.9741210000002,-34.61547900000005,1628.9741210000002,114.61523400000078
187,3500.128418000001,738.5898440000001,-3.846190999999635,1016.4101559999999,-174.7436520000001,12.43603499999972,169.48730499999965,159.3588869999994,130.76904300000024,246.41015599999992,1047.94873,-45.25634799999989,1616.1538090000004,114.48730499999965
188,3500.128418000001,729.7436520000001,-5.38452099999995,985.6411130000006,-117.94872999999961,8.077147999999397,175.2563479999999,163.7177729999994,135.6411130000006,253.58984400000008,1044.743652,-45.1281740000004,1604.4873049999997,120.51269500000035
189,3500.128418000001,670.0,9.615234000000783,948.4614259999998,-46.92309599999999,10.512695000000349,185.76904300000024,173.0771479999994,143.0771479999994,258.5898440000001,1032.8203130000002,-31.28198199999997,1581.794922,123.9741210000002
190,3500.128418000001,596.9228520000006,33.589844000000085,921.9228520000006,19.74365200000011,16.153809000000365,193.20507799999996,180.6411130000006,148.20507799999996,255.12841800000024,1002.9487300000001,-12.948729999999614,1538.205078,120.89746099999957
191,3500.128418000001,555.8974609999996,50.76904300000024,908.205078,65.25634799999989,18.846190999999635,190.89746099999957,179.48730499999965,146.41015599999992,242.3076170000004,958.5898440000001,-4.61547900000005,1475.6411130000006,117.82031300000017
192,3500.256348000001,568.205078,48.20507799999996,896.1538090000004,80.89746099999957,14.487304999999651,177.94873000000007,168.3334960000002,136.6665039999998,222.6923829999996,915.7690430000002,-15.256347999999889,1411.6665039999998,118.9741210000002
193,3500.8974609999996,616.5385740000002,24.615234000000783,875.3847659999992,68.84619099999964,3.4614259999998467,158.46142599999985,150.76904300000024,121.53857400000015,199.10253900000043,891.6665039999998,-42.17944299999999,1369.6152340000008,119.35888699999941
194,3502.5639650000003,663.3334960000002,-8.076904000000013,848.5898440000001,42.43603499999972,-8.974365000000034,140.2563479999999,133.58984400000008,106.2822270000006,174.61523400000078,893.205078,-71.66674799999964,1363.9741210000002,116.41015599999992
195,3504.1025390000004,681.4101559999999,-30.641113000000132,830.6411130000006,25.897460999999566,-16.666747999999643,132.17968800000017,123.9741210000002,97.94873000000007,157.05126999999993,912.5639650000003,-87.82055700000001,1388.4614259999998,116.0258789999998
196,3503.7177730000003,671.0258789999998,-28.58984399999963,833.7177729999994,43.846190999999635,-13.846190999999635,139.61523400000078,128.0771479999994,103.20507799999996,157.17968800000017,933.0771479999994,-81.02563499999997,1417.3076170000004,122.17968800000017
197,3501.6665040000007,649.3588869999994,-2.1796869999998307,852.8203130000002,102.56396500000028,0.769043000000238,161.0258789999998,147.3076170000004,123.20507799999996,179.61523400000078,940.0,-53.846190999999635,1422.3076170000004,127.30761700000039
198,3502.05127,629.6152340000008,33.20507799999996,866.1538090000004,179.48730499999965,21.922852000000603,186.79492200000004,174.48730499999965,149.61523400000078,215.38476599999922,925.8974609999996,-18.974365000000034,1390.7690430000002,123.84619099999964
199,3507.4360349999997,613.205078,55.897460999999566,851.6665039999998,233.3334960000002,38.333496000000196,202.94873000000007,195.12841800000024,167.56396500000028,243.84619099999964,892.4360349999997,5.128418000000238,1330.8974609999996,116.6665039999998
200,3514.230956999999,597.4360349999997,52.30761700000039,806.4101559999999,232.56396500000028,40.0,199.23095699999976,195.38476599999922,164.48730499999965,245.6411130000006,847.0512699999999,4.358886999999413,1263.3334960000002,115.0
201,3515.128418000001,583.205078,26.153809000000365,751.0258789999998,180.2563479999999,25.51269500000035,176.79492200000004,173.0771479999994,140.38476599999922,216.15380900000036,800.7690430000002,-20.512939000000188,1207.94873,118.20507799999996
202,3507.05127,575.5126950000003,-3.5898440000000846,715.0,114.10253900000043,4.743652000000111,148.3334960000002,141.15380900000036,108.7177729999994,170.89746099999957,765.8974609999996,-53.46142599999985,1175.8974609999996,118.84619099999964
203,3493.589844,577.6923829999996,-17.179442999999992,712.6923829999996,79.74365200000011,-9.743652000000111,130.12841800000024,118.9741210000002,87.69238299999961,136.15380900000036,752.0512699999999,-73.46142599999985,1166.1538090000004,117.05126999999993
204,3479.1025390000004,587.6923829999996,-9.102538999999979,733.8461909999996,97.30761700000039,-11.153809000000365,130.38476599999922,117.69238299999961,87.30761700000039,130.12841800000024,759.7436520000001,-71.15380900000036,1169.1025390000004,118.84619099999964
205,3463.8461909999996,600.2563479999999,10.128418000000238,753.4614259999998,150.12841800000024,-2.5639650000002803,144.10253900000043,133.7177729999994,102.82031300000017,150.12841800000024,777.6923829999996,-54.35888699999987,1173.0771479999994,123.3334960000002
206,3445.6411129999997,610.0,25.0,752.3076170000004,202.56396500000028,7.948730000000069,159.23095699999976,153.20507799999996,120.51269500000035,176.41015599999992,789.1025390000004,-39.61547900000005,1170.8974609999996,123.46142599999985
207,3422.3076170000004,613.8461909999996,27.43603499999972,730.2563479999999,227.82031300000017,14.487304999999651,166.6665039999998,163.20507799999996,128.58984400000008,189.3588869999994,782.1796880000002,-39.10253899999998,1160.256348,118.84619099999964
208,3391.410156,611.5385740000002,20.25634799999989,701.6665039999998,224.7436520000001,15.769043000000238,165.89746099999957,160.51269500000035,125.89746099999957,183.9741210000002,758.5898440000001,-52.17944299999999,1142.05127,117.05126999999993
209,3349.871581999999,604.7436520000001,12.56396500000028,680.5126950000003,211.41015599999992,12.948730000000069,163.0771479999994,151.9228520000006,119.87158199999976,170.51269500000035,729.7436520000001,-67.56420900000057,1118.4614259999998,120.38476599999922
210,3298.8461909999996,595.8974609999996,11.794922000000042,670.3847659999992,205.89746099999957,8.461425999999847,163.84619099999964,147.3076170000004,119.61523400000078,163.0771479999994,706.794922,-71.15380900000036,1092.3076170000004,121.9228520000006
211,3244.871581999999,588.4614259999998,19.48730499999965,666.4101559999999,211.6665039999998,4.102539000000434,168.7177729999994,151.6665039999998,128.46142599999985,168.84619099999964,692.3076170000004,-56.66674799999964,1066.0258789999998,118.20507799999996
212,3195.256348000001,586.5385740000002,30.769043000000238,663.205078,217.05126999999993,2.5639650000002803,173.84619099999964,161.41015599999992,141.0258789999998,184.3588869999994,683.205078,-30.1281740000004,1041.794922,115.89746099999957
213,3151.9228519999997,593.0771479999994,37.94873000000007,659.1025390000004,208.58984400000008,5.897460999999566,174.3588869999994,168.20507799999996,148.84619099999964,198.84619099999964,676.5385740000002,-6.538574000000153,1021.5385740000002,119.35888699999941
214,3113.0771480000003,606.2822270000006,37.30761700000039,653.0771479999994,182.94873000000007,13.974121000000196,169.10253900000043,167.17968800000017,146.53857400000015,202.3076170000004,672.9487300000001,0.0,1007.4360349999997,122.56396500000028
215,3076.9228519999997,617.8203130000002,31.153809000000365,642.0512699999999,148.20507799999996,22.94873000000007,161.41015599999992,160.12841800000024,136.2822270000006,192.3076170000004,672.8203130000002,-13.58984399999963,1001.2822270000006,119.48730499999965
216,3040.5126950000003,618.0771479999994,24.358886999999413,623.5898440000001,115.51269500000035,27.56396500000028,155.0,151.9228520000006,125.25634799999989,174.48730499999965,672.0512699999999,-37.82055700000001,1000.2563479999999,115.38476599999922
217,2996.6665040000007,603.7177729999994,19.48730499999965,601.794922,91.6665039999998,24.230956999999762,150.51269500000035,145.76904300000024,118.7177729999994,157.6923829999996,664.2309569999998,-57.564209000000574,996.9228520000006,117.56396500000028
218,2937.5639650000003,581.0258789999998,16.282227000000603,586.1538090000004,79.61523400000078,13.717772999999397,146.41015599999992,141.79492200000004,117.56396500000028,148.0771479999994,646.6665039999998,-62.30761700000039,983.4614259999998,122.56396500000028
219,2861.410156,559.6152340000008,15.128418000000238,583.205078,80.51269500000035,1.4101559999999154,142.6923829999996,139.10253900000043,119.48730499999965,147.94873000000007,623.5898440000001,-52.564209000000574,958.4614259999998,122.69238299999961
220,2775.5126950000003,544.8715819999998,18.077147999999397,588.9741210000002,94.48730499999965,-5.641113000000132,142.05126999999993,138.0771479999994,122.56396500000028,157.17968800000017,602.5639650000003,-37.30761700000039,928.3334960000002,119.48730499999965
221,2692.94873,538.0771479999994,25.897460999999566,592.9487300000001,117.56396500000028,-1.9228520000006029,147.82031300000017,139.87158199999976,126.79492200000004,172.82031300000017,587.4360349999997,-25.641113000000132,903.7177729999994,120.0
222,2624.743651999999,540.0,36.9228520000006,586.5385740000002,140.38476599999922,12.307617000000391,159.10253900000043,145.38476599999922,132.05126999999993,187.94873000000007,577.0512699999999,-21.41015600000037,891.794922,123.58984400000008
223,2572.94873,550.7690430000002,46.153809000000365,569.1025390000004,149.7436520000001,29.615234000000783,169.87158199999976,153.20507799999996,137.17968800000017,194.23095699999976,566.794922,-22.69238299999961,889.4873049999997,123.3334960000002
224,2527.3076170000004,565.3847659999992,49.35888699999941,545.8974609999996,136.2822270000006,38.7177729999994,172.94873000000007,159.23095699999976,139.3588869999994,187.43603499999972,552.8203130000002,-25.38452099999995,885.6411130000006,118.9741210000002
225,2470.8974609999996,573.3334960000002,45.38476599999922,522.5639650000003,101.79492200000004,32.82031300000017,165.89746099999957,159.23095699999976,136.53857400000015,171.0258789999998,536.1538090000004,-26.666747999999643,871.1538090000004,117.69238299999961
226,2392.4360349999997,565.7690430000002,36.9228520000006,501.9228520000006,61.025878999999804,16.153809000000365,152.56396500000028,152.3076170000004,129.61523400000078,153.58984400000008,520.6411130000006,-26.923095999999987,845.5126950000003,120.76904300000024
227,2295.5126950000003,543.8461909999996,28.974121000000196,483.7177729999994,31.794922000000042,0.6411130000005869,139.7436520000001,141.53857400000015,121.9228520000006,142.94873000000007,509.23095699999976,-28.461425999999847,814.4873049999997,121.2822270000006
228,2195.0,517.9487300000001,25.384765999999217,466.4101559999999,24.102539000000434,-3.717772999999397,133.0771479999994,132.3076170000004,116.6665039999998,142.3076170000004,500.76904300000024,-33.33325200000036,782.3076170000004,117.05126999999993
229,2105.6411130000006,499.7436520000001,27.69238299999961,450.76904300000024,34.74365200000011,3.717772999999397,134.10253900000043,128.20507799999996,116.0258789999998,150.2563479999999,491.6665039999998,-39.35888699999987,748.4614259999998,115.38476599999922
230,2030.6411130000006,496.4101559999999,35.25634799999989,440.76904300000024,53.20507799999996,17.17968800000017,141.2822270000006,131.41015599999992,120.38476599999922,162.05126999999993,482.17968800000017,-39.48706099999981,712.5639650000003,120.12841800000024
231,1961.6665039999998,506.4101559999999,45.897460999999566,438.84619099999964,68.3334960000002,29.358886999999413,151.2822270000006,140.89746099999957,128.0771479999994,172.17968800000017,476.9228520000006,-28.846190999999635,677.3076170000004,124.23095699999976
232,1885.5126950000003,520.3847659999992,55.897460999999566,439.7436520000001,71.15380900000036,35.12841800000024,159.3588869999994,152.05126999999993,135.51269500000035,177.17968800000017,478.5898440000001,-10.38452099999995,646.2822270000006,121.9228520000006
233,1791.6665039999998,525.5126950000003,60.38476599999922,429.87158199999976,56.53857400000015,32.69238299999961,161.2822270000006,157.94873000000007,138.7177729999994,176.2822270000006,481.4101559999999,4.743652000000111,619.3588869999994,117.94873000000007
234,1678.7177729999994,514.8715819999998,56.666503999999804,400.0,27.05126999999993,24.230956999999762,155.12841800000024,153.9741210000002,135.2563479999999,171.0258789999998,474.10253900000043,5.769043000000238,593.7177729999994,118.9741210000002
235,1555.5126950000003,493.5898440000001,47.30761700000039,355.2563479999999,-2.8203119999998307,15.897460999999566,143.7177729999994,143.0771479999994,127.94873000000007,164.23095699999976,450.76904300000024,-7.820557000000008,568.0771479999994,121.6665039999998
236,1434.743652,474.6152340000008,39.35888699999941,313.3334960000002,-15.256347999999889,13.846190999999635,133.84619099999964,133.58984400000008,122.56396500000028,158.0771479999994,417.5639650000003,-25.38452099999995,543.8461909999996,119.87158199999976
237,1322.6923829999996,467.5639650000003,39.35888699999941,288.0771479999994,-3.3334960000001956,19.358886999999413,131.6665039999998,132.56396500000028,123.3334960000002,153.7177729999994,386.15380900000036,-33.846190999999635,522.4360349999997,116.2822270000006
238,1215.7690430000002,471.0258789999998,48.20507799999996,277.05126999999993,21.538574000000153,28.205077999999958,137.82031300000017,139.7436520000001,129.3588869999994,150.2563479999999,364.3588869999994,-28.71801800000003,502.4360349999997,117.82031300000017
239,1105.256348,475.76904300000024,61.025878999999804,264.87158199999976,38.333496000000196,35.0,146.2822270000006,148.46142599999985,135.38476599999922,147.17968800000017,352.4360349999997,-15.38452099999995,480.0,122.05126999999993
240,986.9228520000006,472.94873000000007,71.79492200000004,237.43603499999972,34.35888699999941,37.43603499999972,150.2563479999999,152.43603499999972,137.3076170000004,145.12841800000024,345.12841800000024,-2.9487300000000687,452.4360349999997,120.89746099999957
241,864.2309569999998,460.12841800000024,76.6665039999998,193.7177729999994,14.743652000000111,36.410155999999915,147.82031300000017,150.51269500000035,135.76904300000024,146.53857400000015,336.53857400000015,2.6923829999996087,420.2563479999999,115.0
242,744.6152340000008,441.15380900000036,76.53857400000015,144.48730499999965,-4.487060999999812,33.46142599999985,141.9228520000006,146.2822270000006,134.48730499999965,152.3076170000004,322.4360349999997,1.153809000000365,387.94873000000007,112.43603499999972
243,632.0512699999999,423.5898440000001,74.48730499999965,103.0771479999994,-10.38452099999995,30.51269500000035,137.3076170000004,143.7177729999994,135.76904300000024,160.12841800000024,302.3076170000004,-4.487060999999812,361.53857400000015,115.25634799999989
244,525.7690430000002,413.20507799999996,74.23095699999976,76.53857400000015,-2.1796869999998307,30.128418000000238,136.79492200000004,144.3588869999994,139.23095699999976,165.76904300000024,279.3588869999994,-9.358886999999868,343.9741210000002,116.9228520000006
245,420.6411130000006,409.10253900000043,77.17968800000017,61.153809000000365,10.0,32.69238299999961,139.48730499999965,145.6411130000006,142.05126999999993,165.38476599999922,256.6665039999998,-10.38452099999995,330.0,115.64111300000059
246,311.0258789999998,404.10253900000043,81.41015599999992,46.79492200000004,14.230956999999762,36.53857400000015,141.79492200000004,144.3588869999994,142.17968800000017,158.3334960000002,233.84619099999964,-8.076904000000013,308.0771479999994,117.05126999999993
247,195.12841800000024,390.2563479999999,84.10253900000043,25.0,5.897460999999566,38.589844000000085,140.2563479999999,138.9741210000002,138.58984400000008,146.6665039999998,208.3334960000002,-5.256347999999889,270.2563479999999,122.82031300000017
248,76.41015599999992,367.05126999999993,84.61523400000078,-5.769286999999622,-8.974365000000034,37.69238299999961,135.12841800000024,131.9228520000006,132.94873000000007,134.10253900000043,179.7436520000001,-3.5898440000000846,220.2563479999999,124.61523400000078
249,-39.61547900000005,341.15380900000036,85.76904300000024,-40.38452099999995,-18.205077999999958,35.897460999999566,130.12841800000024,126.9228520000006,128.20507799999996,124.74365200000011,152.17968800000017,-1.5385740000001533,171.79492200000004,118.58984400000008
250,-150.64111300000013,320.2563479999999,89.87158199999976,-73.20507799999996,-11.41015600000037,35.76904300000024,128.46142599999985,126.53857400000015,126.9228520000006,121.6665039999998,132.17968800000017,2.9487300000000687,135.12841800000024,112.82031300000017
251,-258.20507799999996,307.82031300000017,96.41015599999992,-100.89746100000002,12.43603499999972,38.589844000000085,130.2563479999999,129.87158199999976,129.3588869999994,125.51269500000035,123.0771479999994,9.615234000000783,108.0771479999994,114.87158199999976
252,-363.97436500000003,301.53857400000015,102.30761700000039,-122.69238299999961,45.12841800000024,43.589844000000085,132.6923829999996,133.9741210000002,133.46142599999985,133.9741210000002,122.82031300000017,16.538574000000153,80.89746099999957,120.0
253,-465.1281740000004,296.2822270000006,105.89746099999957,-138.71801800000003,74.48730499999965,48.974121000000196,133.46142599999985,136.41015599999992,137.56396500000028,143.0771479999994,124.23095699999976,22.05126999999993,46.53857400000015,119.87158199999976
254,-554.8718259999996,288.84619099999964,107.94873000000007,-150.0,91.53857400000015,52.30761700000039,133.0771479999994,137.3076170000004,141.53857400000015,150.51269500000035,118.20507799999996,26.153809000000365,8.589844000000085,116.2822270000006
255,-628.205078,278.3334960000002,110.64111300000059,-159.10253899999998,95.89746099999957,51.666503999999804,132.82031300000017,138.46142599999985,145.89746099999957,156.0258789999998,99.87158199999976,30.641113000000587,-24.10253899999998,116.0258789999998
256,-687.0512700000004,265.89746099999957,114.61523400000078,-169.8718259999996,96.41015599999992,46.79492200000004,132.43603499999972,140.6411130000006,150.12841800000024,159.48730499999965,72.56396500000028,37.30761700000039,-47.17944299999999,117.94873000000007
257,-742.3076170000004,252.05126999999993,118.7177729999994,-183.076904,102.17968800000017,38.7177729999994,130.38476599999922,141.9228520000006,151.15380900000036,158.7177729999994,45.12841800000024,46.025878999999804,-65.1281740000004,115.64111300000059
258,-807.9487300000001,235.38476599999922,121.2822270000006,-195.38452099999995,116.15380900000036,29.48730499999965,125.0,138.84619099999964,146.41015599999992,151.0258789999998,25.769043000000238,54.74365200000011,-86.92309599999999,110.76904300000024
259,-890.6411129999997,215.0,122.30761700000039,-201.28198199999997,134.7436520000001,22.82031300000017,118.0771479999994,131.53857400000015,137.6923829999996,136.6665039999998,17.05126999999993,60.64111300000059,-115.64111300000013,110.64111300000059
260,-984.4870609999998,193.20507799999996,123.7177729999994,-198.84619099999964,151.9228520000006,22.69238299999961,114.23095699999976,124.87158199999976,130.2563479999999,121.2822270000006,14.743652000000111,63.589844000000085,-145.89746100000002,115.64111300000059
261,-1076.153809,175.2563479999999,127.56396500000028,-192.179443,163.84619099999964,29.871581999999762,117.05126999999993,124.61523400000078,129.87158199999976,112.30761700000039,12.051269999999931,65.25634799999989,-170.76928699999962,117.82031300000017
262,-1156.153809,164.23095699999976,133.58984400000008,-189.10253899999998,169.7436520000001,39.35888699999941,124.74365200000011,131.2822270000006,136.2822270000006,114.23095699999976,3.5898440000000846,67.17968800000017,-189.61547900000005,115.51269500000035
263,-1223.589844,158.3334960000002,138.84619099999964,-195.76928699999962,171.6665039999998,43.46142599999985,131.2822270000006,139.61523400000078,144.3588869999994,125.76904300000024,-10.38452099999995,69.10253900000043,-209.4870609999998,114.87158199999976
264,-1283.205078,152.56396500000028,140.12841800000024,-211.28198199999997,172.17968800000017,38.846190999999635,131.41015599999992,142.94873000000007,147.82031300000017,139.48730499999965,-25.0,71.0258789999998,-237.6923829999996,117.82031300000017
265,-1339.4870609999998,142.56396500000028,137.3076170000004,-228.97436500000003,170.2563479999999,29.871581999999762,125.51269500000035,140.12841800000024,144.7436520000001,147.82031300000017,-35.64111300000013,74.61523400000078,-273.71801800000003,117.30761700000039
266,-1394.4870609999998,127.30761700000039,133.84619099999964,-241.53857400000015,161.53857400000015,24.358886999999413,119.10253900000043,135.12841800000024,138.84619099999964,147.82031300000017,-42.948729999999614,80.89746099999957,-310.2563479999999,110.89746099999957
267,-1447.4357909999999,109.74365200000011,133.58984400000008,-245.64111300000013,143.84619099999964,26.410155999999915,118.0771479999994,133.20507799999996,136.41015599999992,142.82031300000017,-51.28198199999997,88.58984400000008,-338.71801800000003,106.6665039999998
268,-1496.5385739999997,93.58984400000008,137.6923829999996,-242.6923829999996,123.7177729999994,33.974121000000196,122.94873000000007,136.41015599999992,140.51269500000035,139.23095699999976,-63.46142599999985,94.48730499999965,-356.15380900000036,110.38476599999922
269,-1539.4870609999998,81.0258789999998,143.58984400000008,-236.66674799999964,114.87158199999976,40.76904300000024,128.9741210000002,142.17968800000017,148.3334960000002,140.12841800000024,-78.58984399999963,95.76904300000024,-366.15380900000036,116.15380900000036
270,-1575.5129390000002,71.15380900000036,147.3076170000004,-232.179443,127.43603499999972,41.53857400000015,129.48730499999965,145.38476599999922,153.0771479999994,142.05126999999993,-93.33325200000036,92.30761700000039,-375.7692869999996,116.15380900000036
271,-1605.897461,61.410155999999915,146.53857400000015,-232.9487299999996,158.20507799999996,34.87158199999976,121.53857400000015,141.6665039999998,149.48730499999965,138.9741210000002,-106.41015600000037,86.6665039999998,-390.1281740000004,112.30761700000039
272,-1633.076904,51.153809000000365,141.79492200000004,-239.4870609999998,190.76904300000024,24.230956999999762,108.7177729999994,130.89746099999957,138.0771479999994,128.0771479999994,-118.07690400000001,83.3334960000002,-407.179443,111.15380900000036
273,-1659.102539,42.17968800000017,136.53857400000015,-248.33325200000036,208.3334960000002,16.153809000000365,97.82031300000017,118.58984400000008,125.64111300000059,113.84619099999964,-128.84619099999964,85.25634799999989,-420.1281740000004,111.15380900000036
274,-1685.0,35.64111300000059,134.3588869999994,-254.35888699999987,206.6665039999998,15.256347999999889,94.48730499999965,111.41015599999992,119.74365200000011,104.87158199999976,-138.84619099999964,92.82031300000017,-424.2307130000004,107.56396500000028
275,-1710.769287,29.615234000000783,136.79492200000004,-255.0,196.53857400000015,21.025878999999804,99.35888699999941,112.05126999999993,122.69238299999961,107.43603499999972,-147.3076170000004,102.05126999999993,-422.5642090000006,103.20507799999996
276,-1735.256348,20.0,142.17968800000017,-252.43579099999943,194.23095699999976,28.461425999999847,107.69238299999961,117.05126999999993,130.38476599999922,120.25634799999989,-152.9487299999996,108.20507799999996,-422.3076170000004,104.61523400000078
277,-1755.128174,4.6152340000007825,147.56396500000028,-250.89746100000002,208.9741210000002,33.46142599999985,113.7177729999994,120.89746099999957,136.2822270000006,135.76904300000024,-153.84619099999964,109.48730499999965,-427.5642090000006,109.35888699999941
278,-1767.820557,-14.61547900000005,151.15380900000036,-252.56420900000057,237.43603499999972,35.25634799999989,113.9741210000002,120.89746099999957,137.43603499999972,146.0258789999998,-150.64111300000013,107.69238299999961,-436.28198199999997,108.84619099999964
279,-1774.615479,-32.17944299999999,152.17968800000017,-257.0512700000004,265.6411130000006,35.25634799999989,109.35888699999941,118.20507799999996,135.51269500000035,147.43603499999972,-148.71801800000003,106.53857400000015,-443.97436500000003,103.20507799999996
280,-1781.666748,-42.82055700000001,150.38476599999922,-261.28198199999997,280.2563479999999,33.0771479999994,102.43603499999972,114.48730499999965,133.0771479999994,141.41015599999992,-156.02563499999997,107.94873000000007,-449.4870609999998,101.2822270000006
281,-1793.846191,-44.48706099999981,146.6665039999998,-260.7692869999996,278.9741210000002,28.846190999999635,95.25634799999989,111.2822270000006,131.41015599999992,130.38476599999922,-174.61547900000005,111.2822270000006,-454.2307130000004,105.64111300000059
282,-1809.3588870000003,-40.25634799999989,144.10253900000043,-252.43579099999943,272.82031300000017,25.641113000000587,90.12841800000024,110.64111300000059,130.38476599999922,118.20507799999996,-195.38452099999995,115.38476599999922,-458.58984399999963,109.23095699999976
283,-1821.794922,-37.564209000000574,146.79492200000004,-238.97436500000003,276.0258789999998,27.94873000000007,90.12841800000024,114.61523400000078,131.0258789999998,109.48730499999965,-204.23071300000038,120.64111300000059,-460.897461,108.0771479999994
284,-1826.794922,-42.435790999999426,155.6411130000006,-228.58984399999963,290.6411130000006,37.30761700000039,96.53857400000015,122.17968800000017,133.84619099999964,109.10253900000043,-196.923096,127.94873000000007,-461.53857400000015,107.17968800000017
285,-1827.4357909999999,-55.89746100000002,166.15380900000036,-228.71801800000003,302.82031300000017,48.333496000000196,105.38476599999922,128.7177729999994,137.6923829999996,116.9228520000006,-183.58984399999963,136.0258789999998,-463.71801800000003,110.0
286,-1831.025635,-71.41015600000037,171.2822270000006,-239.7436520000001,296.2822270000006,52.30761700000039,110.0,128.58984400000008,139.10253900000043,126.15380900000036,-180.76928699999962,141.41015599999992,-470.5129390000002,110.38476599999922
287,-1842.4357909999999,-80.64111300000013,167.6923829999996,-253.33325200000036,266.79492200000004,44.102539000000434,106.2822270000006,120.0,135.76904300000024,128.0771479999994,-196.02563499999997,141.53857400000015,-480.7692869999996,104.61523400000078
288,-1859.230713,-79.35888699999987,158.20507799999996,-259.7436520000001,226.2822270000006,27.82031300000017,96.79492200000004,106.79492200000004,128.3334960000002,118.3334960000002,-221.41015600000037,137.82031300000017,-490.0,99.23095699999976
289,-1874.871826,-70.64111300000013,149.48730499999965,-255.38452099999995,194.23095699999976,13.717772999999397,88.46142599999985,96.41015599999992,120.25634799999989,101.2822270000006,-241.41015600000037,133.7177729999994,-494.8718259999996,101.0258789999998
290,-1883.718018,-60.76928699999962,145.89746099999957,-243.71801800000003,183.84619099999964,11.153809000000365,86.0258789999998,93.7177729999994,115.51269500000035,85.64111300000059,-245.64111300000013,131.53857400000015,-495.0,105.51269500000035
291,-1884.4870609999998,-54.48706099999981,147.6923829999996,-231.79492200000004,193.3334960000002,21.153809000000365,88.84619099999964,97.69238299999961,115.38476599999922,78.58984400000008,-236.66674799999964,130.38476599999922,-492.179443,105.38476599999922
292,-1881.410156,-54.48706099999981,151.0258789999998,-223.33325200000036,208.20507799999996,35.51269500000035,92.56396500000028,102.17968800000017,117.43603499999972,82.43603499999972,-226.923096,128.20507799999996,-487.9487299999996,103.0771479999994
293,-1879.743652,-60.76928699999962,152.05126999999993,-217.56420900000057,212.94873000000007,44.23095699999976,92.94873000000007,101.53857400000015,118.7177729999994,92.43603499999972,-227.56420900000057,124.74365200000011,-483.58984399999963,105.38476599999922
294,-1881.794922,-71.28198199999997,150.51269500000035,-211.79492200000004,204.61523400000078,43.20507799999996,88.9741210000002,95.89746099999957,117.56396500000028,100.38476599999922,-239.35888699999987,122.43603499999972,-479.8718259999996,110.0
295,-1885.769287,-81.66674799999964,149.10253900000043,-205.0,192.6923829999996,36.53857400000015,83.58984400000008,90.25634799999989,115.38476599999922,99.23095699999976,-251.79492200000004,125.12841800000024,-477.820557,109.23095699999976
296,-1888.846191,-87.94872999999961,150.76904300000024,-198.33325200000036,189.23095699999976,32.30761700000039,81.53857400000015,90.0,115.0,89.61523400000078,-252.9487299999996,133.84619099999964,-477.820557,103.46142599999985
297,-1889.230713,-88.58984399999963,155.6411130000006,-195.0,196.15380900000036,34.87158199999976,85.64111300000059,96.53857400000015,118.46142599999985,78.84619099999964,-239.61547900000005,146.0258789999998,-479.102539,100.64111300000059
298,-1888.076904,-85.0,160.51269500000035,-197.0512700000004,205.89746099999957,42.17968800000017,93.7177729999994,105.89746099999957,123.84619099999964,75.0,-220.76928699999962,155.6411130000006,-481.15380900000036,102.17968800000017
299,-1887.4357909999999,-80.1281740000004,161.15380900000036,-205.2563479999999,208.0771479999994,47.56396500000028,100.25634799999989,111.9228520000006,126.6665039999998,79.35888699999941,-210.1281740000004,156.9228520000006,-484.35888699999987,102.05126999999993
300,-1888.846191,-77.69238299999961,156.53857400000015,-217.0512700000004,198.20507799999996,45.51269500000035,100.64111300000059,110.38476599999922,124.48730499999965,86.6665039999998,-213.84619099999964,148.58984400000008,-490.0,99.35888699999941
301,-1890.6411129999997,-80.1281740000004,150.12841800000024,-225.76928699999962,180.0,37.17968800000017,95.0,102.82031300000017,118.9741210000002,89.48730499999965,-225.38452099999995,136.2822270000006,-496.66674799999964,101.15380900000036
302,-1888.846191,-86.66674799999964,147.43603499999972,-224.4870609999998,161.9228520000006,30.384765999999217,88.20507799999996,95.38476599999922,115.25634799999989,85.0,-232.43579099999943,129.7436520000001,-499.2307130000004,108.20507799999996
303,-1880.5129390000002,-92.30761700000039,151.15380900000036,-211.66674799999964,151.2822270000006,32.30761700000039,85.38476599999922,93.84619099999964,117.17968800000017,76.41015599999992,-229.23071300000038,135.2563479999999,-493.58984399999963,111.79492200000004
304,-1867.820557,-92.69238299999961,158.7177729999994,-194.61547900000005,147.6923829999996,42.43603499999972,88.20507799999996,99.48730499999965,123.9741210000002,69.87158199999976,-222.0512700000004,150.76904300000024,-481.41015600000037,106.9228520000006
305,-1856.794922,-88.46142599999985,164.10253900000043,-185.38452099999995,143.9741210000002,52.30761700000039,92.94873000000007,107.30761700000039,131.2822270000006,69.23095699999976,-222.9487299999996,166.6665039999998,-470.5129390000002,101.15380900000036
306,-1851.923096,-84.23071300000038,163.0771479999994,-190.0,132.94873000000007,53.0771479999994,94.23095699999976,111.15380900000036,135.0,73.20507799999996,-236.41015600000037,173.7177729999994,-467.179443,102.05126999999993
307,-1851.025635,-83.20507799999996,157.43603499999972,-202.6923829999996,114.35888699999941,44.35888699999941,89.61523400000078,108.9741210000002,134.10253900000043,77.56396500000028,-254.7436520000001,171.0258789999998,-470.64111300000013,105.38476599999922
308,-1847.6923829999996,-84.61547900000005,153.58984400000008,-210.64111300000013,95.25634799999989,34.35888699999941,82.69238299999961,104.10253900000043,131.53857400000015,79.74365200000011,-264.2307130000004,165.6411130000006,-474.102539,104.74365200000011
309,-1838.076904,-85.51293900000019,156.0258789999998,-205.64111300000013,83.20507799999996,32.17968800000017,79.74365200000011,101.0258789999998,131.2822270000006,82.05126999999993,-256.923096,165.2563479999999,-472.179443,102.82031300000017
310,-1823.846191,-85.38452099999995,163.7177729999994,-190.76928699999962,80.64111300000059,40.76904300000024,84.23095699999976,102.30761700000039,135.0,86.79492200000004,-235.89746100000002,171.53857400000015,-465.1281740000004,105.12841800000024
311,-1811.025635,-86.66674799999964,170.76904300000024,-177.0512700000004,83.58984400000008,54.87158199999976,93.3334960000002,106.2822270000006,139.7436520000001,92.56396500000028,-212.56420900000057,179.10253900000043,-457.3076170000004,108.46142599999985
312,-1805.128174,-92.17944299999999,171.41015599999992,-174.8718259999996,84.23095699999976,65.25634799999989,99.87158199999976,108.3334960000002,139.87158199999976,94.10253900000043,-199.35888699999987,180.2563479999999,-454.102539,105.76904300000024
313,-1807.3076170000004,-102.05127000000039,163.46142599999985,-185.64111300000013,75.76904300000024,65.0,97.82031300000017,104.61523400000078,132.94873000000007,87.69238299999961,-202.0512700000004,170.6411130000006,-458.84619099999964,99.48730499999965
314,-1812.820557,-111.41015600000037,150.89746099999957,-200.89746100000002,57.94873000000007,54.48730499999965,87.30761700000039,95.25634799999989,121.6665039999998,75.76904300000024,-216.66674799999964,153.7177729999994,-470.0,97.82031300000017
315,-1812.94873,-113.20507799999996,141.53857400000015,-208.58984399999963,37.94873000000007,42.05126999999993,75.64111300000059,86.2822270000006,113.84619099999964,66.53857400000015,-230.89746100000002,139.23095699999976,-479.61547900000005,101.41015599999992
316,-1801.923096,-103.33325200000036,141.6665039999998,-202.6923829999996,24.615234000000783,37.82031300000017,72.17968800000017,85.51269500000035,115.51269500000035,67.05126999999993,-233.58984399999963,136.79492200000004,-478.33325200000036,102.94873000000007
317,-1782.94873,-86.66674799999964,150.12841800000024,-189.35888699999987,20.769043000000238,44.35888699999941,80.0,95.38476599999922,126.6665039999998,76.9228520000006,-223.20507799999996,147.17968800000017,-463.97436500000003,100.89746099999957
318,-1766.5385739999997,-75.25634799999989,158.9741210000002,-180.5129390000002,20.641113000000587,55.0,93.20507799999996,109.61523400000078,139.3588869999994,88.3334960000002,-209.23071300000038,161.6665039999998,-444.61547900000005,101.53857400000015
319,-1760.769287,-78.58984399999963,159.61523400000078,-182.43579099999943,17.17968800000017,60.64111300000059,101.2822270000006,118.0771479999994,144.3588869999994,90.76904300000024,-203.33325200000036,168.9741210000002,-432.6923829999996,105.76904300000024
320,-1763.589844,-94.48706099999981,151.41015599999992,-189.4870609999998,10.769043000000238,58.333496000000196,99.23095699999976,114.74365200000011,137.82031300000017,80.25634799999989,-208.97436500000003,166.15380900000036,-433.71801800000003,106.15380900000036
321,-1765.128174,-110.38452099999995,142.43603499999972,-191.41015600000037,7.43603499999972,53.846190999999635,91.2822270000006,104.23095699999976,125.25634799999989,65.12841800000024,-219.61547900000005,160.2563479999999,-442.6923829999996,100.25634799999989
322,-1757.5642090000001,-114.48706099999981,141.53857400000015,-186.15380900000036,11.282227000000603,54.102539000000434,86.53857400000015,95.76904300000024,116.41015599999992,59.87158199999976,-226.66674799999964,160.38476599999922,-449.4870609999998,96.0258789999998
323,-1742.3076170000004,-106.28198199999997,149.23095699999976,-181.79492200000004,18.717772999999397,60.51269500000035,89.87158199999976,95.76904300000024,118.0771479999994,71.41015599999992,-226.53857400000015,167.6923829999996,-447.9487299999996,98.84619099999964
324,-1727.5642090000001,-95.89746100000002,157.94873000000007,-187.0512700000004,21.025878999999804,67.56396500000028,96.9228520000006,102.56396500000028,127.69238299999961,91.79492200000004,-221.53857400000015,175.2563479999999,-439.61547900000005,103.20507799999996
325,-1720.5129390000002,-94.35888699999987,158.84619099999964,-201.28198199999997,12.56396500000028,68.46142599999985,99.23095699999976,108.0771479999994,136.2822270000006,105.0,-216.66674799999964,174.23095699999976,-429.7436520000001,102.30761700000039
326,-1720.769287,-104.10253899999998,150.2563479999999,-213.84619099999964,-3.717772999999397,61.410155999999915,92.69238299999961,105.64111300000059,136.41015599999992,101.79492200000004,-215.38452099999995,163.58984400000008,-423.33325200000036,99.87158199999976
327,-1721.410156,-116.41015600000037,137.56396500000028,-214.35888699999987,-20.25634799999989,51.79492200000004,81.2822270000006,95.38476599999922,128.0771479999994,87.30761700000039,-217.9487299999996,150.0,-421.53857400000015,102.05126999999993
328,-1715.128174,-119.61547900000005,128.7177729999994,-202.56420900000057,-31.153809000000365,47.82031300000017,73.0771479999994,84.35888699999941,118.0771479999994,73.46142599999985,-221.923096,142.82031300000017,-423.20507799999996,105.64111300000059
329,-1699.871826,-109.35888699999987,128.46142599999985,-188.076904,-36.41015600000037,53.333496000000196,72.69238299999961,79.48730499999965,113.46142599999985,68.20507799999996,-224.61547900000005,146.6665039999998,-426.02563499999997,104.35888699999941
330,-1680.256348,-92.30761700000039,136.0258789999998,-180.64111300000013,-39.48706099999981,65.0,78.58984400000008,82.94873000000007,116.2822270000006,71.15380900000036,-223.58984399999963,158.7177729999994,-426.66674799999964,101.0258789999998
331,-1662.179443,-80.0,146.79492200000004,-179.8718259999996,-40.76928699999962,75.12841800000024,86.6665039999998,91.15380900000036,123.46142599999985,77.43603499999972,-216.66674799999964,171.9228520000006,-422.3076170000004,102.43603499999972
332,-1648.4614260000003,-78.84619099999964,155.6411130000006,-177.820557,-36.53857400000015,79.48730499999965,93.20507799999996,98.9741210000002,130.38476599999922,83.58984400000008,-202.43579099999943,180.89746099999957,-411.53857400000015,106.6665039999998
333,-1638.846191,-86.41015600000037,159.7436520000001,-169.10253899999998,-24.74365200000011,78.58984400000008,96.79492200000004,103.7177729999994,134.61523400000078,89.23095699999976,-183.46142599999985,183.0771479999994,-397.179443,105.76904300000024
334,-1632.3076170000004,-95.76928699999962,159.10253900000043,-158.20507799999996,-9.743652000000111,74.87158199999976,97.30761700000039,104.48730499999965,135.76904300000024,95.12841800000024,-167.179443,179.7436520000001,-385.7692869999996,100.25634799999989
335,-1627.6923829999996,-101.02563499999997,155.0,-154.61547900000005,-0.8974609999995664,70.25634799999989,94.74365200000011,102.30761700000039,134.7436520000001,101.15380900000036,-162.43579099999943,173.58984400000008,-382.820557,98.3334960000002
336,-1623.718018,-101.15380900000036,149.48730499999965,-163.58984399999963,-4.871825999999601,66.15380900000036,89.87158199999976,98.46142599999985,132.05126999999993,105.12841800000024,-172.43579099999943,168.46142599999985,-388.076904,101.79492200000004
337,-1618.589844,-100.25634799999989,143.84619099999964,-180.0,-20.512939000000188,64.23095699999976,84.48730499999965,94.35888699999941,127.43603499999972,103.58984400000008,-190.89746100000002,166.15380900000036,-395.38452099999995,103.3334960000002
338,-1612.5642090000001,-103.84619099999964,139.48730499999965,-193.58984399999963,-40.64111300000013,64.10253900000043,80.25634799999989,89.87158199999976,121.41015599999992,96.0258789999998,-206.79492200000004,165.89746099999957,-398.076904,99.87158199999976
339,-1607.179443,-112.30761700000039,136.79492200000004,-196.923096,-56.53857400000015,64.23095699999976,78.3334960000002,84.48730499999965,115.25634799999989,86.0258789999998,-211.923096,164.87158199999976,-393.71801800000003,97.82031300000017
340,-1602.5642090000001,-120.1281740000004,135.89746099999957,-190.0,-62.948729999999614,63.20507799999996,78.58984400000008,78.9741210000002,111.6665039999998,80.38476599999922,-205.38452099999995,161.79492200000004,-384.7436520000001,100.38476599999922
341,-1596.153809,-119.23071300000038,136.53857400000015,-178.46142599999985,-60.1281740000004,61.79492200000004,80.12841800000024,76.15380900000036,112.82031300000017,82.05126999999993,-192.820557,158.20507799999996,-374.102539,101.6665039999998
342,-1585.0,-107.56420900000057,138.9741210000002,-168.076904,-52.17944299999999,62.05126999999993,82.69238299999961,78.20507799999996,118.20507799999996,88.84619099999964,-181.79492200000004,157.05126999999993,-363.46142599999985,97.56396500000028
343,-1568.4614260000003,-90.76928699999962,143.3334960000002,-161.28198199999997,-43.974365000000034,66.15380900000036,87.17968800000017,84.61523400000078,126.0258789999998,95.51269500000035,-176.79492200000004,159.7436520000001,-352.5642090000006,94.87158199999976
344,-1549.743652,-77.82055700000001,149.10253900000043,-158.076904,-36.66674799999964,74.35888699999941,93.9741210000002,93.3334960000002,133.7177729999994,100.0,-177.179443,165.6411130000006,-341.923096,99.23095699999976
345,-1533.846191,-74.74365200000011,154.3588869999994,-157.0512700000004,-29.487060999999812,84.74365200000011,101.79492200000004,101.41015599999992,138.84619099999964,102.94873000000007,-178.46142599999985,172.17968800000017,-333.33325200000036,104.87158199999976
346,-1525.128174,-82.05127000000039,156.2822270000006,-157.6923829999996,-24.10253899999998,92.56396500000028,106.79492200000004,106.15380900000036,139.48730499999965,105.12841800000024,-178.46142599999985,175.6411130000006,-330.64111300000013,103.58984400000008
347,-1523.718018,-95.64111300000013,152.94873000000007,-159.10253899999998,-24.10253899999998,93.84619099999964,105.51269500000035,105.25634799999989,135.0,103.9741210000002,-178.71801800000003,173.58984400000008,-335.7692869999996,98.3334960000002
348,-1525.128174,-107.56420900000057,145.2563479999999,-159.10253899999998,-31.41015600000037,88.46142599999985,97.82031300000017,99.23095699999976,127.30761700000039,96.79492200000004,-181.02563499999997,167.17968800000017,-345.2563479999999,97.43603499999972
349,-1522.179443,-110.25634799999989,137.05126999999993,-155.1281740000004,-43.71801800000003,80.51269500000035,87.30761700000039,91.6665039999998,120.0,84.23095699999976,-182.56420900000057,160.89746099999957,-350.2563479999999,100.51269500000035
350,-1511.153809,-101.92309599999999,133.46142599999985,-146.79492200000004,-56.92309599999999,74.61523400000078,79.61523400000078,87.30761700000039,116.79492200000004,72.69238299999961,-178.20507799999996,159.48730499999965,-343.20507799999996,100.51269500000035
351,-1494.615479,-88.07690400000001,135.6411130000006,-137.820557,-69.10253899999998,71.53857400000015,77.94873000000007,87.82031300000017,118.58984400000008,70.0,-166.28198199999997,164.23095699999976,-325.38452099999995,96.79492200000004
352,-1478.846191,-76.92309599999999,140.89746099999957,-133.84619099999964,-79.35888699999987,70.0,81.0258789999998,91.2822270000006,123.46142599999985,80.0,-152.43579099999943,170.89746099999957,-307.820557,96.15380900000036
353,-1467.05127,-71.66674799999964,144.23095699999976,-137.820557,-86.28198199999997,69.35888699999941,84.48730499999965,94.48730499999965,127.43603499999972,97.69238299999961,-145.2563479999999,174.10253900000043,-301.28198199999997,98.84619099999964
354,-1457.820557,-69.74365200000011,143.46142599999985,-145.89746100000002,-87.43579099999943,70.51269500000035,84.48730499999965,94.87158199999976,127.43603499999972,112.94873000000007,-148.97436500000003,171.41015599999992,-308.33325200000036,98.46142599999985
355,-1447.94873,-68.84619099999964,140.2563479999999,-151.28198199999997,-83.71801800000003,73.58984400000008,81.0258789999998,92.43603499999972,123.58984400000008,117.30761700000039,-160.64111300000013,165.6411130000006,-321.923096,94.48730499999965
356,-1437.3076170000004,-70.25634799999989,137.05126999999993,-150.64111300000013,-79.48706099999981,77.17968800000017,76.2822270000006,88.7177729999994,118.20507799999996,109.48730499999965,-173.076904,160.2563479999999,-331.41015600000037,95.25634799999989
357,-1428.974365,-77.69238299999961,135.51269500000035,-145.89746100000002,-79.10253899999998,79.10253900000043,72.05126999999993,85.64111300000059,114.23095699999976,94.74365200000011,-180.0,156.79492200000004,-329.7436520000001,102.82031300000017
358,-1424.615479,-91.41015600000037,135.38476599999922,-141.41015600000037,-82.69238299999961,78.58984400000008,69.10253900000043,84.61523400000078,113.46142599999985,81.2822270000006,-179.23071300000038,154.87158199999976,-317.6923829999996,107.94873000000007
359,-1421.281982,-105.38452099999995,136.79492200000004,-139.61547900000005,-85.76928699999962,77.43603499999972,67.82031300000017,86.2822270000006,115.25634799999989,75.76904300000024,-172.9487299999996,154.87158199999976,-302.3076170000004,104.61523400000078
360,-1415.0,-111.02563499999997,139.87158199999976,-139.7436520000001,-85.64111300000013,78.20507799999996,69.35888699999941,89.61523400000078,117.82031300000017,79.74365200000011,-164.4870609999998,158.20507799999996,-291.79492200000004,99.48730499999965
361,-1404.230713,-104.10253899999998,142.94873000000007,-140.76928699999962,-84.23071300000038,81.53857400000015,73.46142599999985,92.43603499999972,118.9741210000002,87.43603499999972,-157.3076170000004,164.3588869999994,-289.4870609999998,99.61523400000078
362,-1391.794922,-87.94872999999961,143.46142599999985,-142.56420900000057,-86.53857400000015,85.51269500000035,77.43603499999972,93.58984400000008,117.43603499999972,90.64111300000059,-152.43579099999943,170.38476599999922,-292.4357909999994,101.53857400000015
363,-1381.5385739999997,-72.56420900000057,140.6411130000006,-144.23071300000038,-94.8718259999996,87.43603499999972,79.10253900000043,93.3334960000002,115.0,86.2822270000006,-149.7436520000001,173.7177729999994,-295.2563479999999,99.23095699999976
364,-1374.4870609999998,-68.46142599999985,136.6665039999998,-143.46142599999985,-106.02563499999997,86.41015599999992,78.84619099999964,93.84619099999964,114.61523400000078,80.38476599999922,-148.71801800000003,173.9741210000002,-295.2563479999999,95.89746099999957
365,-1368.4614260000003,-77.30761700000039,135.38476599999922,-138.076904,-113.33325200000036,84.23095699999976,79.10253900000043,96.41015599999992,118.20507799999996,80.76904300000024,-148.71801800000003,172.56396500000028,-292.6923829999996,98.0771479999994
366,-1360.0,-90.76928699999962,138.58984400000008,-128.97436500000003,-112.56420900000057,84.35888699999941,81.15380900000036,100.64111300000059,124.10253900000043,88.7177729999994,-148.46142599999985,171.6665039999998,-288.46142599999985,102.82031300000017
367,-1348.589844,-97.17944299999999,145.12841800000024,-120.51293900000019,-106.41015600000037,87.82031300000017,83.58984400000008,104.10253900000043,128.84619099999964,98.46142599999985,-145.5129390000002,172.94873000000007,-283.20507799999996,102.56396500000028
368,-1336.923096,-91.66674799999964,151.79492200000004,-117.30761700000039,-102.17944299999999,91.15380900000036,84.74365200000011,104.87158199999976,129.3588869999994,104.35888699999941,-138.84619099999964,175.76904300000024,-278.076904,98.46142599999985
369,-1328.333252,-80.76928699999962,155.0,-119.8718259999996,-104.23071300000038,90.12841800000024,83.58984400000008,103.20507799999996,126.0258789999998,105.38476599999922,-129.35888699999987,178.46142599999985,-275.0,97.82031300000017
370,-1322.4357909999999,-74.61547900000005,153.46142599999985,-123.97436500000003,-109.48706099999981,84.48730499999965,81.0258789999998,101.53857400000015,121.6665039999998,103.9741210000002,-121.02563499999997,179.10253900000043,-273.97436500000003,100.76904300000024
371,-1315.769287,-77.43579099999943,148.20507799999996,-126.02563499999997,-110.51293900000019,78.9741210000002,78.46142599999985,102.05126999999993,119.10253900000043,101.53857400000015,-118.33325200000036,177.05126999999993,-272.9487299999996,100.38476599999922
372,-1305.5129390000002,-84.61547900000005,141.0258789999998,-126.41015600000037,-104.23071300000038,77.82031300000017,76.9228520000006,103.9741210000002,118.84619099999964,99.10253900000043,-123.20507799999996,172.56396500000028,-270.2563479999999,96.2822270000006
373,-1292.6923829999996,-87.56420900000057,133.46142599999985,-127.82055700000001,-97.17944299999999,80.64111300000059,75.51269500000035,103.20507799999996,118.9741210000002,97.30761700000039,-133.33325200000036,166.6665039999998,-267.0512700000004,95.76904300000024
374,-1281.923096,-83.20507799999996,126.9228520000006,-131.15380900000036,-98.84619099999964,82.69238299999961,72.56396500000028,96.6665039999998,117.17968800000017,96.15380900000036,-143.33325200000036,161.15380900000036,-265.897461,100.76904300000024
375,-1275.897461,-75.0,123.20507799999996,-133.97436500000003,-112.43579099999943,81.53857400000015,67.17968800000017,85.76904300000024,112.94873000000007,94.35888699999941,-147.3076170000004,157.3076170000004,-267.179443,103.3334960000002
376,-1273.718018,-70.25634799999989,123.58984400000008,-133.076904,-129.7436520000001,78.58984400000008,61.666503999999804,76.0258789999998,108.0771479999994,91.15380900000036,-143.076904,155.0,-268.46142599999985,99.87158199999976
377,-1271.666748,-73.97436500000003,127.69238299999961,-128.71801800000003,-138.20507799999996,77.43603499999972,59.102539000000434,72.30761700000039,106.2822270000006,87.43603499999972,-133.71801800000003,153.7177729999994,-266.15380900000036,97.05126999999993
378,-1265.5129390000002,-84.23071300000038,132.82031300000017,-123.33325200000036,-131.15380900000036,78.9741210000002,60.897460999999566,75.38476599999922,109.48730499999965,84.87158199999976,-124.8718259999996,153.46142599999985,-258.58984399999963,99.61523400000078
379,-1254.102539,-93.46142599999985,135.6411130000006,-118.97436500000003,-113.07690400000001,81.6665039999998,65.38476599999922,81.41015599999992,115.25634799999989,82.94873000000007,-121.28198199999997,154.3588869999994,-247.820557,102.05126999999993
380,-1240.6411129999997,-95.64111300000013,134.10253900000043,-115.51293900000019,-95.38452099999995,82.82031300000017,68.58984400000008,86.0258789999998,118.3334960000002,79.74365200000011,-123.71801800000003,155.6411130000006,-238.97436500000003,99.35888699999941
381,-1230.769287,-91.79492200000004,129.3588869999994,-111.41015600000037,-87.05127000000039,81.0258789999998,67.69238299999961,86.53857400000015,116.2822270000006,75.25634799999989,-128.84619099999964,155.76904300000024,-238.076904,96.41015599999992
382,-1226.5385739999997,-87.56420900000057,125.12841800000024,-106.41015600000037,-87.56420900000057,77.17968800000017,63.846190999999635,84.10253900000043,111.2822270000006,73.46142599999985,-131.02563499999997,155.2563479999999,-245.89746100000002,99.48730499999965
383,-1224.4870609999998,-86.66674799999964,125.25634799999989,-102.30761700000039,-89.8718259999996,74.23095699999976,60.51269500000035,82.43603499999972,108.20507799999996,78.3334960000002,-126.53857400000015,156.9228520000006,-255.5129390000002,104.23095699999976
