,EEG.AF3,EEG.F7,EEG.F3,EEG.FC5,EEG.T7,EEG.P7,EEG.O1,EEG.O2,EEG.P8,EEG.T8,EEG.FC6,EEG.F4,EEG.F8,EEG.AF4
0,-1535.769287,130.51269500000035,146.2822270000006,22.43603499999972,335.6411130000006,92.94873000000007,96.9228520000006,124.87158199999976,141.15380900000036,154.23095699999976,77.43603499999972,143.3334960000002,-238.97436500000003,104.48730499999965
1,-1557.3076170000004,145.2563479999999,152.94873000000007,34.35888699999941,337.82031300000017,98.3334960000002,103.58984400000008,126.0258789999998,139.48730499999965,155.89746099999957,74.48730499999965,155.76904300000024,-249.8718259999996,106.41015599999992
2,-1572.6923829999996,159.23095699999976,161.15380900000036,45.64111300000059,344.48730499999965,108.46142599999985,113.3334960000002,128.0771479999994,138.3334960000002,162.05126999999993,70.76904300000024,173.84619099999964,-259.2307130000004,106.53857400000015
3,-1588.589844,162.94873000000007,163.7177729999994,49.102539000000434,346.53857400000015,114.48730499999965,118.0771479999994,127.43603499999972,136.0258789999998,170.38476599999922,65.0,187.05126999999993,-263.71801800000003,103.9741210000002
4,-1607.05127,153.46142599999985,157.05126999999993,41.53857400000015,340.89746099999957,111.79492200000004,114.10253900000043,121.9228520000006,131.53857400000015,176.79492200000004,57.05126999999993,188.0771479999994,-265.5129390000002,104.23095699999976
5,-1624.871826,135.89746099999957,144.87158199999976,28.717772999999397,333.84619099999964,102.69238299999961,104.87158199999976,113.9741210000002,126.2822270000006,178.7177729999994,49.23095699999976,178.84619099999964,-268.58984399999963,108.3334960000002
6,-1637.05127,118.3334960000002,135.6411130000006,21.410155999999915,334.6152340000008,93.58984400000008,97.43603499999972,108.46142599999985,122.69238299999961,175.76904300000024,44.23095699999976,168.58984400000008,-275.7692869999996,109.61523400000078
7,-1643.846191,105.64111300000059,135.38476599999922,26.538574000000153,344.48730499999965,89.10253900000043,96.41015599999992,109.10253900000043,122.30761700000039,169.7436520000001,42.69238299999961,166.0258789999998,-285.897461,105.25634799999989
8,-1651.025635,96.15380900000036,142.82031300000017,41.153809000000365,353.84619099999964,87.94873000000007,100.51269500000035,114.23095699999976,124.23095699999976,162.94873000000007,41.666503999999804,172.6923829999996,-295.5129390000002,101.9228520000006
9,-1663.589844,87.05126999999993,151.15380900000036,54.23095699999976,352.4360349999997,86.53857400000015,104.74365200000011,118.20507799999996,125.12841800000024,157.05126999999993,37.82031300000017,183.3334960000002,-301.41015600000037,104.74365200000011
10,-1680.0,79.10253900000043,154.23095699999976,55.38476599999922,340.3847659999992,83.84619099999964,105.12841800000024,117.05126999999993,122.56396500000028,151.6665039999998,31.410155999999915,190.2563479999999,-302.3076170000004,108.7177729999994
11,-1692.5642090000001,76.15380900000036,151.41015599999992,43.7177729999994,328.0771479999994,82.30761700000039,101.0258789999998,111.2822270000006,117.05126999999993,146.15380900000036,26.153809000000365,190.38476599999922,-299.2307130000004,107.69238299999961
12,-1695.256348,80.64111300000059,146.79492200000004,28.205077999999958,324.87158199999976,84.35888699999941,95.76904300000024,105.51269500000035,112.05126999999993,141.53857400000015,25.384765999999217,185.38476599999922,-295.0,104.74365200000011
13,-1688.974365,89.48730499999965,145.2563479999999,20.897460999999566,328.5898440000001,89.23095699999976,93.7177729999994,103.7177729999994,110.76904300000024,140.12841800000024,28.846190999999635,180.51269500000035,-292.0512700000004,106.2822270000006
14,-1681.153809,96.2822270000006,149.23095699999976,26.794922000000042,328.0771479999994,93.3334960000002,96.2822270000006,107.43603499999972,113.9741210000002,143.9741210000002,32.69238299999961,179.87158199999976,-290.64111300000013,110.38476599999922
15,-1680.128174,95.51269500000035,157.3076170000004,41.53857400000015,314.10253900000043,93.7177729999994,101.53857400000015,114.23095699999976,119.87158199999976,151.53857400000015,33.7177729999994,183.9741210000002,-290.0,110.89746099999957
16,-1688.846191,87.94873000000007,165.51269500000035,55.0,288.5898440000001,90.38476599999922,105.38476599999922,120.51269500000035,124.61523400000078,159.48730499999965,31.282227000000603,190.76904300000024,-290.2563479999999,108.20507799999996
17,-1702.5642090000001,79.87158199999976,170.0,60.64111300000059,263.46142599999985,85.76904300000024,106.0258789999998,123.0771479999994,125.38476599999922,163.58984400000008,26.794922000000042,196.6665039999998,-292.0512700000004,107.43603499999972
18,-1713.205078,77.69238299999961,169.3588869999994,58.7177729999994,251.15380900000036,83.7177729999994,103.84619099999964,122.17968800000017,121.53857400000015,161.41015599999992,22.82031300000017,200.0,-294.35888699999987,108.20507799999996
19,-1715.5129390000002,82.94873000000007,165.0,54.61523400000078,253.3334960000002,86.15380900000036,100.76904300000024,119.35888699999941,116.15380900000036,153.58984400000008,20.641113000000587,200.12841800000024,-295.0,105.25634799999989
20,-1711.666748,90.0,159.61523400000078,52.43603499999972,260.3847659999992,91.15380900000036,97.82031300000017,116.2822270000006,112.56396500000028,142.94873000000007,20.25634799999989,197.43603499999972,-293.33325200000036,100.0
21,-1709.102539,90.89746099999957,155.38476599999922,52.56396500000028,258.3334960000002,94.23095699999976,95.38476599999922,113.0771479999994,112.17968800000017,133.46142599999985,20.897460999999566,193.46142599999985,-291.28198199999997,99.48730499999965
22,-1711.666748,83.58984400000008,153.46142599999985,53.846190999999635,241.41015599999992,92.30761700000039,94.10253900000043,110.38476599999922,114.23095699999976,127.56396500000028,22.69238299999961,191.41015599999992,-290.0,104.48730499999965
23,-1716.794922,72.94873000000007,154.48730499999965,55.76904300000024,215.89746099999957,87.69238299999961,95.25634799999989,110.12841800000024,116.79492200000004,127.56396500000028,27.05126999999993,194.61523400000078,-288.84619099999964,107.69238299999961
24,-1719.102539,64.74365200000011,157.56396500000028,57.69238299999961,193.7177729999994,84.23095699999976,98.58984400000008,113.0771479999994,118.9741210000002,134.10253900000043,33.46142599999985,203.0771479999994,-286.79492200000004,105.0
25,-1716.666748,60.897460999999566,160.2563479999999,58.974121000000196,181.41015599999992,83.7177729999994,101.9228520000006,117.69238299999961,120.12841800000024,145.0,37.56396500000028,212.17968800000017,-284.7436520000001,102.17968800000017
26,-1711.794922,60.0,159.48730499999965,59.74365200000011,175.12841800000024,85.38476599999922,102.69238299999961,120.51269500000035,120.0,154.61523400000078,35.12841800000024,214.87158199999976,-283.46142599999985,103.46142599999985
27,-1707.4357909999999,60.12841800000024,155.2563479999999,61.79492200000004,166.15380900000036,88.20507799999996,100.64111300000059,119.87158199999976,119.23095699999976,157.6923829999996,26.025878999999804,208.20507799999996,-281.923096,104.87158199999976
28,-1705.0,60.76904300000024,150.38476599999922,65.89746099999957,149.3588869999994,90.89746099999957,98.3334960000002,116.53857400000015,118.7177729999994,153.0771479999994,15.897460999999566,195.6411130000006,-277.5642090000006,102.69238299999961
29,-1705.128174,61.2822270000006,148.20507799999996,70.51269500000035,128.0771479999994,91.41015599999992,97.69238299999961,112.43603499999972,118.46142599999985,144.7436520000001,10.769043000000238,184.3588869999994,-271.28198199999997,100.89746099999957
30,-1707.94873,60.12841800000024,149.48730499999965,71.53857400000015,110.0,88.46142599999985,98.20507799999996,108.46142599999985,117.05126999999993,138.0771479999994,12.43603499999972,180.12841800000024,-267.3076170000004,104.23095699999976
31,-1712.3076170000004,56.2822270000006,151.41015599999992,67.69238299999961,101.41015599999992,83.3334960000002,97.94873000000007,104.35888699999941,113.46142599999985,135.6411130000006,17.30761700000039,183.46142599999985,-269.61547900000005,108.7177729999994
32,-1715.256348,50.0,150.89746099999957,60.64111300000059,101.79492200000004,79.61523400000078,95.12841800000024,100.0,108.0771479999994,135.89746099999957,19.615234000000783,190.0,-277.9487299999996,108.0771479999994
33,-1714.230713,42.30761700000039,146.9228520000006,53.20507799999996,104.48730499999965,79.61523400000078,90.0,95.38476599999922,102.56396500000028,136.41015599999992,16.282227000000603,194.10253900000043,-288.076904,104.74365200000011
34,-1708.4614260000003,34.61523400000078,141.15380900000036,47.94873000000007,102.69238299999961,82.17968800000017,84.23095699999976,91.9228520000006,98.84619099999964,135.51269500000035,9.615234000000783,192.3076170000004,-294.7436520000001,105.12841800000024
35,-1699.4870609999998,28.717772999999397,136.41015599999992,46.666503999999804,93.84619099999964,84.10253900000043,80.38476599999922,90.89746099999957,97.69238299999961,132.82031300000017,5.256347999999889,185.89746099999957,-295.2563479999999,107.82031300000017
36,-1690.128174,25.128418000000238,135.2563479999999,50.64111300000059,80.76904300000024,83.3334960000002,79.87158199999976,92.17968800000017,98.46142599999985,128.3334960000002,7.051269999999931,179.23095699999976,-290.7692869999996,106.53857400000015
37,-1683.076904,23.205077999999958,137.56396500000028,59.102539000000434,67.43603499999972,80.25634799999989,82.05126999999993,93.3334960000002,99.48730499999965,121.53857400000015,13.205077999999958,175.89746099999957,-286.28198199999997,101.79492200000004
38,-1679.102539,22.30761700000039,141.2822270000006,69.48730499999965,57.17968800000017,77.69238299999961,84.48730499999965,92.17968800000017,99.48730499999965,114.10253900000043,18.205077999999958,177.3076170000004,-286.02563499999997,100.89746099999957
39,-1675.6411129999997,24.102539000000434,144.23095699999976,78.84619099999964,52.43603499999972,78.84619099999964,85.51269500000035,89.23095699999976,98.7177729999994,108.9741210000002,18.461425999999847,182.82031300000017,-288.71801800000003,105.12841800000024
40,-1668.076904,31.282227000000603,146.15380900000036,85.76904300000024,54.102539000000434,85.12841800000024,85.64111300000059,87.94873000000007,98.46142599999985,109.23095699999976,15.512695000000349,190.89746099999957,-288.84619099999964,107.17968800000017
41,-1654.230713,44.23095699999976,148.0771479999994,90.89746099999957,60.38476599999922,94.10253900000043,86.15380900000036,91.9228520000006,99.87158199999976,115.89746099999957,13.717772999999397,198.9741210000002,-280.38452099999995,104.61523400000078
42,-1637.179443,57.94873000000007,150.38476599999922,93.84619099999964,67.82031300000017,101.2822270000006,87.43603499999972,100.12841800000024,102.94873000000007,126.9228520000006,15.512695000000349,204.23095699999976,-264.2307130000004,102.94873000000007
43,-1623.333252,64.61523400000078,152.17968800000017,93.7177729999994,73.58984400000008,103.46142599999985,88.84619099999964,107.82031300000017,105.76904300000024,137.56396500000028,18.974121000000196,203.46142599999985,-248.20507799999996,106.0258789999998
44,-1617.179443,58.7177729999994,151.41015599999992,89.61523400000078,76.9228520000006,100.89746099999957,89.35888699999941,110.0,106.2822270000006,142.3076170000004,20.128418000000238,195.89746099999957,-242.3076170000004,108.46142599999985
45,-1618.718018,42.69238299999961,147.3076170000004,82.94873000000007,78.84619099999964,96.0258789999998,88.58984400000008,105.25634799999989,103.84619099999964,138.46142599999985,16.282227000000603,184.87158199999976,-251.15380900000036,106.15380900000036
46,-1623.205078,24.615234000000783,141.79492200000004,76.2822270000006,79.61523400000078,91.2822270000006,87.30761700000039,96.79492200000004,99.87158199999976,129.48730499999965,9.487304999999651,176.2822270000006,-269.8718259999996,103.46142599999985
47,-1625.5129390000002,13.717772999999397,137.6923829999996,71.79492200000004,78.58984400000008,88.7177729999994,87.05126999999993,90.25634799999989,97.30761700000039,122.43603499999972,5.128418000000238,175.51269500000035,-287.5642090000006,105.12841800000024
48,-1622.179443,13.077147999999397,137.94873000000007,70.0,75.12841800000024,88.84619099999964,88.7177729999994,88.9741210000002,97.56396500000028,121.79492200000004,6.538574000000153,183.9741210000002,-294.4870609999998,107.17968800000017
49,-1613.076904,19.48730499999965,143.0771479999994,70.76904300000024,69.48730499999965,90.89746099999957,91.41015599999992,92.69238299999961,99.87158199999976,125.12841800000024,11.922852000000603,197.3076170000004,-288.33325200000036,104.35888699999941
50,-1601.025635,25.769043000000238,150.89746099999957,74.23095699999976,62.69238299999961,92.17968800000017,93.0771479999994,96.79492200000004,101.2822270000006,126.41015599999992,15.384765999999217,207.82031300000017,-274.35888699999987,100.64111300000059
51,-1590.128174,26.025878999999804,156.53857400000015,79.10253900000043,56.025878999999804,89.74365200000011,91.15380900000036,96.53857400000015,100.0,121.53857400000015,13.077147999999397,209.48730499999965,-261.66674799999964,102.43603499999972
52,-1583.333252,20.641113000000587,156.41015599999992,81.9228520000006,51.9228520000006,83.20507799999996,84.61523400000078,90.64111300000059,95.0,111.53857400000015,7.179688000000169,201.6665039999998,-256.28198199999997,107.56396500000028
53,-1579.3588870000003,15.128418000000238,150.2563479999999,79.48730499999965,52.56396500000028,74.74365200000011,75.38476599999922,81.41015599999992,87.69238299999961,101.6665039999998,3.717772999999397,189.3588869999994,-257.0512700000004,107.82031300000017
54,-1574.102539,15.256347999999889,142.3076170000004,72.82031300000017,57.56396500000028,69.35888699999941,67.82031300000017,74.10253900000043,81.0258789999998,96.9228520000006,6.538574000000153,180.51269500000035,-258.46142599999985,102.94873000000007
55,-1564.4870609999998,21.410155999999915,137.43603499999972,67.30761700000039,63.7177729999994,70.51269500000035,65.12841800000024,71.9228520000006,77.69238299999961,97.05126999999993,13.205077999999958,180.12841800000024,-255.89746100000002,99.74365200000011
56,-1551.666748,27.43603499999972,137.3076170000004,67.56396500000028,66.15380900000036,77.17968800000017,66.6665039999998,74.23095699999976,77.56396500000028,96.41015599999992,17.30761700000039,186.79492200000004,-250.64111300000013,100.64111300000059
57,-1541.153809,26.025878999999804,139.61523400000078,73.3334960000002,62.05126999999993,85.0,69.10253900000043,77.30761700000039,78.20507799999996,90.0,14.487304999999651,193.84619099999964,-247.0512700000004,100.89746099999957
58,-1536.794922,15.769043000000238,141.2822270000006,80.25634799999989,53.846190999999635,89.10253900000043,70.25634799999989,79.10253900000043,78.46142599999985,80.12841800000024,6.410155999999915,195.51269500000035,-248.71801800000003,99.61523400000078
59,-1537.3076170000004,2.9487300000000687,141.15380900000036,83.84619099999964,46.2822270000006,87.69238299999961,71.0258789999998,79.74365200000011,79.61523400000078,76.15380900000036,-0.12841800000023795,191.53857400000015,-253.84619099999964,101.2822270000006
60,-1537.05127,-3.5898440000000846,140.38476599999922,83.20507799999996,41.2822270000006,82.43603499999972,73.20507799999996,80.76904300000024,83.46142599999985,85.12841800000024,0.512695000000349,186.15380900000036,-257.9487299999996,105.89746099999957
61,-1531.153809,0.256347999999889,140.51269500000035,80.51269500000035,36.666503999999804,76.53857400000015,76.79492200000004,82.43603499999972,88.9741210000002,104.48730499999965,8.589844000000085,183.3334960000002,-257.4357909999994,106.79492200000004
62,-1519.230713,10.512695000000349,141.41015599999992,78.7177729999994,28.077147999999397,72.17968800000017,78.46142599999985,82.82031300000017,92.17968800000017,122.82031300000017,18.205077999999958,184.48730499999965,-253.46142599999985,101.6665039999998
63,-1505.128174,18.205077999999958,141.9228520000006,78.58984400000008,14.358886999999413,69.87158199999976,75.12841800000024,79.61523400000078,89.74365200000011,129.3588869999994,21.794922000000042,187.56396500000028,-249.4870609999998,97.69238299999961
64,-1493.718018,16.666503999999804,140.2563479999999,79.35888699999941,-0.512695000000349,68.58984400000008,67.05126999999993,72.30761700000039,82.17968800000017,121.0258789999998,16.153809000000365,189.23095699999976,-247.56420900000057,100.51269500000035
65,-1487.4357909999999,7.307617000000391,136.41015599999992,79.74365200000011,-9.61547900000005,67.69238299999961,58.46142599999985,63.846190999999635,73.84619099999964,104.35888699999941,5.256347999999889,187.17968800000017,-245.2563479999999,105.12841800000024
66,-1483.974365,-2.9487300000000687,132.3076170000004,79.10253900000043,-7.820557000000008,67.17968800000017,54.102539000000434,58.46142599999985,69.23095699999976,89.74365200000011,-2.6923829999996087,182.43603499999972,-238.84619099999964,104.61523400000078
67,-1478.589844,-7.692382999999609,130.38476599999922,77.43603499999972,3.9741210000001956,68.20507799999996,56.410155999999915,58.7177729999994,70.25634799999989,84.87158199999976,-1.6665039999998044,178.20507799999996,-228.71801800000003,101.9228520000006
68,-1468.4614260000003,-4.61547900000005,132.3076170000004,76.0258789999998,18.846190999999635,71.41015599999992,63.0771479999994,63.7177729999994,75.12841800000024,89.87158199999976,8.589844000000085,177.6923829999996,-220.1281740000004,103.46142599999985
69,-1454.4870609999998,4.6152340000007825,137.43603499999972,76.41015599999992,28.974121000000196,76.79492200000004,70.0,69.74365200000011,80.0,97.69238299999961,22.56396500000028,181.9228520000006,-218.46142599999985,107.30761700000039
70,-1441.025635,14.743652000000111,143.0771479999994,78.84619099999964,30.128418000000238,82.30761700000039,73.84619099999964,73.9741210000002,81.9228520000006,100.38476599999922,32.69238299999961,188.84619099999964,-223.97436500000003,107.69238299999961
71,-1432.4357909999999,19.358886999999413,146.2822270000006,81.79492200000004,24.102539000000434,84.74365200000011,74.23095699999976,74.48730499999965,80.64111300000059,95.64111300000059,33.7177729999994,193.84619099999964,-231.79492200000004,105.0
72,-1429.615479,14.487304999999651,145.0,83.20507799999996,16.410155999999915,82.56396500000028,73.20507799999996,71.79492200000004,77.69238299999961,87.56396500000028,25.641113000000587,192.94873000000007,-235.76928699999962,104.74365200000011
73,-1429.3588870000003,1.2822270000006029,139.7436520000001,82.69238299999961,12.307617000000391,77.17968800000017,71.9228520000006,67.56396500000028,74.87158199999976,81.41015599999992,13.589844000000085,185.2563479999999,-233.46142599999985,106.0258789999998
74,-1427.94873,-14.61547900000005,133.46142599999985,81.0258789999998,11.794922000000042,71.79492200000004,70.38476599999922,64.10253900000043,73.20507799999996,79.61523400000078,4.230956999999762,174.48730499999965,-227.43579099999943,103.58984400000008
75,-1423.846191,-27.179442999999992,128.9741210000002,77.43603499999972,9.743652000000111,67.82031300000017,67.82031300000017,62.17968800000017,72.30761700000039,80.0,1.6665039999998044,166.15380900000036,-223.46142599999985,98.3334960000002
76,-1418.718018,-32.69238299999961,126.9228520000006,69.74365200000011,1.0258789999998044,64.74365200000011,63.20507799999996,60.76904300000024,70.76904300000024,79.35888699999941,4.6152340000007825,163.9741210000002,-225.76928699999962,97.82031300000017
77,-1413.589844,-31.794922000000042,126.15380900000036,58.333496000000196,-12.820557000000008,61.666503999999804,57.30761700000039,58.846190999999635,67.17968800000017,76.0258789999998,8.333496000000196,166.9228520000006,-233.076904,102.82031300000017
78,-1408.076904,-27.051270000000386,125.12841800000024,48.333496000000196,-23.461425999999847,59.102539000000434,52.30761700000039,56.53857400000015,61.9228520000006,71.2822270000006,8.589844000000085,171.0258789999998,-240.1281740000004,105.89746099999957
79,-1400.897461,-22.948729999999614,123.3334960000002,46.025878999999804,-24.10253899999998,58.333496000000196,50.64111300000059,55.12841800000024,56.79492200000004,68.46142599999985,5.641113000000587,172.05126999999993,-242.179443,103.46142599999985
80,-1392.05127,-22.30761700000039,121.15380900000036,52.43603499999972,-15.256347999999889,59.48730499999965,52.94873000000007,54.48730499999965,54.35888699999941,70.38476599999922,3.077147999999397,168.20507799999996,-239.4870609999998,101.41015599999992
81,-1382.5642090000001,-24.61547900000005,119.23095699999976,62.30761700000039,-3.9741210000001956,62.05126999999993,57.69238299999961,54.74365200000011,55.897460999999566,76.41015599999992,4.743652000000111,161.2822270000006,-235.76928699999962,104.35888699999941
82,-1373.4614260000003,-26.41015600000037,117.82031300000017,69.61523400000078,2.9487300000000687,65.64111300000059,62.30761700000039,55.897460999999566,60.51269500000035,82.05126999999993,10.769043000000238,155.12841800000024,-233.97436500000003,107.30761700000039
83,-1365.384521,-25.512939000000188,116.79492200000004,71.6665039999998,2.4360349999997197,68.20507799999996,64.87158199999976,57.43603499999972,65.38476599999922,82.05126999999993,16.922852000000603,153.20507799999996,-234.10253899999998,105.12841800000024
84,-1360.0,-23.461425999999847,115.25634799999989,68.84619099999964,-4.102538999999979,66.9228520000006,64.35888699999941,57.69238299999961,67.56396500000028,75.51269500000035,17.43603499999972,155.0,-233.71801800000003,101.53857400000015
85,-1357.94873,-23.205077999999958,113.0771479999994,63.0771479999994,-12.435790999999426,62.05126999999993,61.410155999999915,55.25634799999989,65.25634799999989,66.41015599999992,10.641113000000587,157.17968800000017,-230.38452099999995,101.9228520000006
86,-1356.025635,-25.0,111.41015599999992,57.56396500000028,-15.897461000000021,57.94873000000007,58.333496000000196,51.9228520000006,60.38476599999922,61.2822270000006,1.7949220000000423,157.05126999999993,-223.33325200000036,103.46142599999985
87,-1348.974365,-26.025634999999966,112.82031300000017,56.025878999999804,-10.0,60.64111300000059,58.589844000000085,51.2822270000006,57.43603499999972,64.48730499999965,-1.7949220000000423,154.87158199999976,-215.0,100.89746099999957
88,-1334.615479,-24.230713000000378,117.94873000000007,60.51269500000035,3.2050779999999577,70.76904300000024,64.10253900000043,55.38476599999922,60.25634799999989,74.87158199999976,3.3334960000001956,153.58984400000008,-208.71801800000003,97.17968800000017
89,-1316.025635,-21.28198199999997,124.10253900000043,68.84619099999964,15.384765999999217,82.17968800000017,72.17968800000017,62.56396500000028,67.82031300000017,86.2822270000006,13.461425999999847,155.2563479999999,-206.15380900000036,98.7177729999994
90,-1300.256348,-21.28198199999997,127.05126999999993,75.89746099999957,18.205077999999958,87.17968800000017,77.17968800000017,68.20507799999996,75.12841800000024,91.2822270000006,20.769043000000238,158.58984400000008,-207.0512700000004,103.9741210000002
91,-1292.4357909999999,-26.28198199999997,124.48730499999965,77.56396500000028,9.743652000000111,82.69238299999961,74.87158199999976,68.20507799999996,77.05126999999993,87.56396500000028,20.0,160.2563479999999,-209.4870609999998,104.87158199999976
92,-1292.6923829999996,-33.33325200000036,117.82031300000017,72.82031300000017,-3.846190999999635,72.43603499999972,66.41015599999992,62.82031300000017,73.3334960000002,79.48730499999965,12.17968800000017,157.94873000000007,-212.179443,100.89746099999957
93,-1296.025635,-35.89746100000002,111.41015599999992,65.0,-12.692382999999609,63.846190999999635,57.43603499999972,56.410155999999915,68.0771479999994,75.12841800000024,3.3334960000001956,153.58984400000008,-213.97436500000003,99.35888699999941
94,-1295.897461,-30.25634799999989,108.84619099999964,58.974121000000196,-11.025634999999966,62.05126999999993,53.974121000000196,54.23095699999976,66.2822270000006,77.69238299999961,-0.6411130000005869,150.89746099999957,-213.58984399999963,102.56396500000028
95,-1288.4614260000003,-18.71801800000003,110.0,58.0771479999994,-1.6665039999998044,66.6665039999998,57.43603499999972,57.43603499999972,68.9741210000002,83.9741210000002,1.2822270000006029,151.15380900000036,-211.15380900000036,104.74365200000011
96,-1275.256348,-8.58984399999963,111.79492200000004,61.2822270000006,6.282227000000603,72.30761700000039,63.333496000000196,62.30761700000039,73.0771479999994,88.20507799999996,3.846190999999635,152.05126999999993,-208.20507799999996,102.17968800000017
97,-1260.897461,-5.769286999999622,111.53857400000015,65.25634799999989,5.256347999999889,73.46142599999985,66.41015599999992,64.35888699999941,74.48730499999965,87.56396500000028,2.5639650000002803,150.38476599999922,-206.79492200000004,99.87158199999976
98,-1249.615479,-11.025634999999966,109.74365200000011,66.79492200000004,-3.846190999999635,70.0,64.74365200000011,62.69238299999961,72.94873000000007,83.84619099999964,-1.6665039999998044,147.56396500000028,-206.41015600000037,100.89746099999957
99,-1241.666748,-19.358886999999868,109.48730499999965,66.2822270000006,-12.051270000000386,66.9228520000006,62.05126999999993,60.64111300000059,71.53857400000015,80.76904300000024,-1.7949220000000423,147.6923829999996,-205.1281740000004,101.6665039999998
100,-1235.128174,-25.38452099999995,113.3334960000002,66.41015599999992,-10.769286999999622,69.10253900000043,62.69238299999961,62.17968800000017,73.3334960000002,80.89746099999957,7.692382999999609,153.3334960000002,-201.79492200000004,99.74365200000011
101,-1228.076904,-26.025634999999966,120.25634799999989,69.61523400000078,1.153809000000365,76.9228520000006,68.3334960000002,68.0771479999994,77.94873000000007,85.0,22.94873000000007,162.6923829999996,-197.9487299999996,99.48730499999965
102,-1219.871826,-21.538574000000153,126.2822270000006,75.51269500000035,17.43603499999972,86.53857400000015,76.53857400000015,75.38476599999922,82.69238299999961,91.79492200000004,32.94873000000007,171.41015599999992,-194.61547900000005,104.48730499999965
103,-1210.5129390000002,-12.948729999999614,127.82031300000017,80.76904300000024,30.384765999999217,93.46142599999985,83.3334960000002,80.25634799999989,85.89746099999957,99.10253900000043,30.128418000000238,175.89746099999957,-191.02563499999997,108.9741210000002
104,-1199.871826,-3.4614259999998467,124.87158199999976,82.05126999999993,36.410155999999915,96.15380900000036,86.15380900000036,81.15380900000036,86.9228520000006,104.23095699999976,17.30761700000039,175.12841800000024,-185.2563479999999,106.53857400000015
105,-1189.615479,2.5639650000002803,120.0,78.58984400000008,36.79492200000004,94.74365200000011,84.61523400000078,78.7177729999994,86.15380900000036,105.38476599999922,4.743652000000111,170.2563479999999,-178.076904,101.15380900000036
106,-1182.6923829999996,0.0,115.51269500000035,73.9741210000002,34.23095699999976,89.74365200000011,79.48730499999965,74.48730499999965,83.7177729999994,101.41015599999992,1.153809000000365,163.84619099999964,-173.97436500000003,100.0
107,-1180.897461,-11.28198199999997,112.17968800000017,72.17968800000017,30.25634799999989,82.69238299999961,73.3334960000002,70.25634799999989,80.0,93.20507799999996,7.051269999999931,158.9741210000002,-176.28198199999997,101.79492200000004
108,-1182.94873,-26.153809000000365,110.12841800000024,73.7177729999994,24.48730499999965,75.51269500000035,68.84619099999964,67.17968800000017,76.0258789999998,84.23095699999976,16.794922000000042,156.2822270000006,-183.58984399999963,100.25634799999989
109,-1184.3588870000003,-36.92309599999999,108.84619099999964,75.25634799999989,16.922852000000603,70.38476599999922,67.56396500000028,66.0258789999998,73.7177729999994,80.0,23.461425999999847,154.3588869999994,-191.02563499999997,95.76904300000024
110,-1181.153809,-38.974365000000034,108.20507799999996,74.23095699999976,10.128418000000238,68.46142599999985,68.84619099999964,66.2822270000006,73.9741210000002,83.58984400000008,24.230956999999762,151.15380900000036,-194.23071300000038,94.61523400000078
111,-1171.281982,-32.69238299999961,107.94873000000007,71.6665039999998,9.487304999999651,70.38476599999922,71.79492200000004,66.9228520000006,76.6665039999998,92.43603499999972,21.666503999999804,146.6665039999998,-190.76928699999962,97.82031300000017
112,-1156.666748,-22.564209000000574,108.0771479999994,70.89746099999957,18.717772999999397,75.76904300000024,75.38476599999922,67.94873000000007,80.51269500000035,100.25634799999989,20.384765999999217,143.0771479999994,-181.28198199999997,99.61523400000078
113,-1142.179443,-13.58984399999963,108.7177729999994,73.46142599999985,34.102539000000434,82.43603499999972,78.9741210000002,68.7177729999994,83.9741210000002,102.43603499999972,22.30761700000039,142.6923829999996,-168.97436500000003,98.7177729999994
114,-1132.94873,-9.230713000000378,109.10253900000043,77.17968800000017,46.153809000000365,87.43603499999972,80.89746099999957,69.10253900000043,85.64111300000059,100.38476599999922,25.897460999999566,145.12841800000024,-158.97436500000003,99.87158199999976
115,-1130.0,-9.61547900000005,108.46142599999985,78.58984400000008,47.82031300000017,88.84619099999964,80.0,68.7177729999994,85.51269500000035,99.48730499999965,28.077147999999397,148.7177729999994,-155.76928699999962,103.9741210000002
116,-1129.4870609999998,-12.820557000000008,107.17968800000017,76.9228520000006,40.25634799999989,87.56396500000028,76.53857400000015,68.58984400000008,84.61523400000078,103.7177729999994,28.717772999999397,152.17968800000017,-158.58984399999963,104.48730499999965
117,-1126.153809,-16.41015600000037,106.79492200000004,74.48730499999965,31.410155999999915,85.89746099999957,72.82031300000017,69.48730499999965,84.74365200000011,111.41015599999992,30.128418000000238,156.2822270000006,-162.9487299999996,99.35888699999941
118,-1118.205078,-19.230713000000378,108.58984400000008,74.23095699999976,28.333496000000196,85.51269500000035,71.41015599999992,71.53857400000015,86.15380900000036,116.53857400000015,34.23095699999976,161.9228520000006,-163.84619099999964,95.76904300000024
119,-1108.076904,-20.89746100000002,111.41015599999992,77.69238299999961,30.897460999999566,86.2822270000006,73.0771479999994,73.20507799999996,87.69238299999961,113.46142599999985,39.23095699999976,167.6923829999996,-159.8718259999996,98.84619099999964
120,-1098.333252,-20.25634799999989,113.20507799999996,83.3334960000002,34.74365200000011,87.43603499999972,76.41015599999992,73.58984400000008,87.69238299999961,102.30761700000039,41.79492200000004,171.53857400000015,-153.71801800000003,102.94873000000007
121,-1090.0,-16.794922000000042,113.3334960000002,87.94873000000007,35.76904300000024,88.7177729999994,80.0,73.9741210000002,86.15380900000036,89.74365200000011,40.12841800000024,172.82031300000017,-148.46142599999985,101.79492200000004
122,-1082.05127,-12.435790999999426,112.82031300000017,88.7177729999994,33.46142599999985,89.61523400000078,82.94873000000007,76.15380900000036,84.74365200000011,83.9741210000002,35.51269500000035,172.56396500000028,-146.66674799999964,98.9741210000002
123,-1074.615479,-11.28198199999997,112.56396500000028,85.64111300000059,30.51269500000035,88.9741210000002,84.48730499999965,79.10253900000043,85.0,88.0771479999994,31.794922000000042,171.0258789999998,-147.43579099999943,100.89746099999957
124,-1068.718018,-15.256347999999889,112.30761700000039,81.0258789999998,30.0,85.89746099999957,83.58984400000008,80.64111300000059,86.15380900000036,98.20507799999996,31.410155999999915,167.6923829999996,-148.076904,104.87158199999976
125,-1065.384521,-22.30761700000039,111.41015599999992,76.79492200000004,33.333496000000196,81.6665039999998,80.76904300000024,78.9741210000002,86.79492200000004,106.79492200000004,33.46142599999985,162.05126999999993,-146.28198199999997,103.7177729999994
126,-1064.3588870000003,-28.333252000000357,109.61523400000078,72.94873000000007,38.7177729999994,78.0771479999994,77.30761700000039,74.48730499999965,85.64111300000059,108.20507799999996,33.7177729999994,155.2563479999999,-142.43579099999943,98.7177729999994
127,-1063.589844,-30.512939000000188,107.43603499999972,68.7177729999994,41.79492200000004,77.43603499999972,74.35888699999941,69.23095699999976,82.94873000000007,103.0771479999994,30.0,148.84619099999964,-139.61547900000005,97.05126999999993
128,-1059.4870609999998,-29.10253899999998,106.0258789999998,65.64111300000059,39.87158199999976,80.64111300000059,73.20507799999996,65.89746099999957,80.12841800000024,96.6665039999998,24.615234000000783,144.7436520000001,-140.5129390000002,99.74365200000011
129,-1049.743652,-25.89746100000002,106.6665039999998,67.56396500000028,35.25634799999989,86.2822270000006,73.7177729999994,66.41015599999992,78.0771479999994,93.7177729999994,22.82031300000017,143.7177729999994,-144.8718259999996,100.89746099999957
130,-1035.769287,-23.076904000000013,109.10253900000043,76.79492200000004,33.333496000000196,91.41015599999992,75.89746099999957,69.87158199999976,77.69238299999961,95.64111300000059,27.17968800000017,145.2563479999999,-150.1281740000004,98.9741210000002
131,-1021.923096,-21.41015600000037,112.05126999999993,90.51269500000035,38.333496000000196,92.94873000000007,78.58984400000008,74.23095699999976,79.23095699999976,100.0,35.64111300000059,147.43603499999972,-152.820557,99.10253900000043
132,-1011.281982,-19.8718259999996,112.94873000000007,101.0258789999998,49.61523400000078,90.0,81.15380900000036,76.9228520000006,82.30761700000039,103.46142599999985,43.7177729999994,147.17968800000017,-150.64111300000013,102.43603499999972
133,-1004.871826,-17.948729999999614,110.38476599999922,101.0258789999998,60.76904300000024,84.35888699999941,82.17968800000017,77.17968800000017,85.0,103.84619099999964,47.17968800000017,142.82031300000017,-144.7436520000001,103.0771479999994
134,-1001.923096,-17.435790999999426,105.12841800000024,88.9741210000002,64.23095699999976,78.7177729999994,81.0258789999998,75.38476599999922,85.12841800000024,101.0258789999998,43.846190999999635,134.87158199999976,-139.10253899999998,98.9741210000002
135,-1000.128174,-20.38452099999995,99.61523400000078,71.6665039999998,57.56396500000028,76.0258789999998,77.82031300000017,72.30761700000039,82.30761700000039,96.0258789999998,35.25634799999989,126.53857400000015,-136.28198199999997,97.05126999999993
136,-996.923096,-25.769286999999622,96.41015599999992,60.12841800000024,46.666503999999804,78.0771479999994,75.25634799999989,69.10253900000043,78.3334960000002,90.64111300000059,25.769043000000238,121.9228520000006,-135.2563479999999,100.89746099999957
137,-989.615479,-29.358886999999868,97.43603499999972,62.05126999999993,41.53857400000015,84.61523400000078,75.38476599999922,67.30761700000039,75.51269500000035,85.76904300000024,21.153809000000365,124.35888699999941,-132.6923829999996,104.35888699999941
138,-978.205078,-26.794922000000042,102.05126999999993,75.89746099999957,47.94873000000007,92.30761700000039,78.9741210000002,68.58984400000008,75.38476599999922,82.94873000000007,24.74365200000011,133.3334960000002,-127.30761700000039,101.6665039999998
139,-965.128174,-18.205077999999958,108.20507799999996,91.9228520000006,62.17968800000017,96.15380900000036,83.84619099999964,72.82031300000017,77.94873000000007,85.25634799999989,35.76904300000024,144.61523400000078,-121.02563499999997,97.17968800000017
140,-953.076904,-8.461425999999847,113.20507799999996,99.35888699999941,75.0,93.9741210000002,87.43603499999972,78.7177729999994,83.0771479999994,94.23095699999976,49.61523400000078,152.6923829999996,-116.66674799999964,97.69238299999961
141,-942.9487300000001,-2.9487300000000687,115.12841800000024,94.87158199999976,78.7177729999994,88.3334960000002,87.82031300000017,84.10253900000043,88.9741210000002,107.43603499999972,60.0,153.58984400000008,-114.74365200000011,101.15380900000036
142,-934.615479,-3.9741210000001956,113.3334960000002,83.84619099999964,73.58984400000008,84.35888699999941,85.38476599999922,87.17968800000017,93.20507799999996,118.0771479999994,63.46142599999985,147.3076170000004,-112.82055700000001,101.6665039999998
143,-927.6923829999996,-9.743652000000111,108.9741210000002,75.38476599999922,66.41015599999992,85.76904300000024,82.17968800000017,87.56396500000028,94.74365200000011,121.15380900000036,60.76904300000024,138.0771479999994,-108.33325200000036,100.25634799999989
144,-921.4101559999999,-15.256347999999889,104.87158199999976,75.64111300000059,65.64111300000059,92.56396500000028,81.41015599999992,87.05126999999993,95.0,117.56396500000028,57.43603499999972,132.3076170000004,-99.23071300000038,102.43603499999972
145,-914.3588870000003,-16.025634999999966,104.35888699999941,83.46142599999985,73.7177729999994,101.41015599999992,85.0,88.3334960000002,95.89746099999957,112.43603499999972,58.589844000000085,134.48730499999965,-85.76928699999962,106.41015599999992
146,-906.025635,-11.153809000000365,108.46142599999985,93.3334960000002,85.0,107.82031300000017,90.89746099999957,92.17968800000017,97.94873000000007,110.51269500000035,64.35888699999941,142.94873000000007,-72.05127000000039,105.38476599999922
147,-897.9487300000001,-5.38452099999995,114.61523400000078,98.7177729999994,90.25634799999989,108.7177729999994,95.0,95.76904300000024,100.0,113.7177729999994,70.51269500000035,151.0258789999998,-64.61547900000005,99.74365200000011
148,-891.794922,-4.487060999999812,117.69238299999961,97.69238299999961,85.25634799999989,105.0,94.61523400000078,95.64111300000059,100.0,120.51269500000035,71.79492200000004,153.20507799999996,-66.92309599999999,97.05126999999993
149,-888.076904,-10.1281740000004,115.38476599999922,92.82031300000017,74.23095699999976,99.87158199999976,90.64111300000059,91.15380900000036,97.30761700000039,126.2822270000006,67.17968800000017,148.46142599999985,-76.66674799999964,99.35888699999941
150,-885.128174,-18.333252000000357,108.7177729999994,87.82031300000017,65.89746099999957,95.64111300000059,85.51269500000035,84.10253900000043,92.43603499999972,126.15380900000036,59.61523400000078,139.7436520000001,-86.66674799999964,100.76904300000024
151,-881.4101559999999,-23.71801800000003,101.41015599999992,84.35888699999941,65.38476599999922,92.82031300000017,80.89746099999957,77.05126999999993,87.05126999999993,119.74365200000011,53.7177729999994,131.0258789999998,-91.28198199999997,98.7177729999994
152,-876.1538089999999,-22.820557000000008,97.30761700000039,82.94873000000007,71.0258789999998,90.38476599999922,77.82031300000017,72.69238299999961,83.20507799999996,111.53857400000015,52.69238299999961,125.76904300000024,-89.74365200000011,98.3334960000002
153,-868.4614260000003,-16.794922000000042,98.46142599999985,83.9741210000002,76.79492200000004,88.9741210000002,77.17968800000017,72.56396500000028,82.05126999999993,107.30761700000039,56.025878999999804,126.0258789999998,-85.25634799999989,101.9228520000006
154,-857.5642090000001,-8.974365000000034,104.61523400000078,88.46142599999985,78.0771479999994,89.23095699999976,79.23095699999976,76.41015599999992,83.3334960000002,107.43603499999972,61.410155999999915,131.41015599999992,-81.28198199999997,103.7177729999994
155,-843.5898440000001,-2.1796869999998307,113.0771479999994,95.76904300000024,74.10253900000043,91.15380900000036,82.69238299999961,81.6665039999998,85.76904300000024,107.69238299999961,65.89746099999957,138.7177729999994,-78.46142599999985,100.12841800000024
156,-829.102539,2.0512699999999313,119.87158199999976,103.3334960000002,68.0771479999994,92.82031300000017,86.0258789999998,85.25634799999989,87.94873000000007,105.51269500000035,67.82031300000017,143.84619099999964,-76.53857400000015,96.6665039999998
157,-818.3332519999999,4.230956999999762,122.05126999999993,108.20507799999996,64.48730499999965,92.56396500000028,88.0771479999994,85.12841800000024,88.7177729999994,102.43603499999972,66.79492200000004,144.3588869999994,-74.8718259999996,99.35888699999941
158,-813.5898440000001,5.0,119.87158199999976,109.35888699999941,66.0258789999998,91.0258789999998,88.3334960000002,82.30761700000039,88.0771479999994,102.56396500000028,63.46142599999985,140.2563479999999,-72.43579099999943,104.10253900000043
159,-814.2307129999999,4.358886999999413,116.15380900000036,106.9228520000006,72.43603499999972,90.0,87.43603499999972,78.58984400000008,86.41015599999992,107.82031300000017,59.61523400000078,134.61523400000078,-69.23071300000038,103.9741210000002
160,-816.923096,1.4101559999999154,113.3334960000002,101.41015599999992,80.38476599999922,91.2822270000006,85.76904300000024,75.51269500000035,84.35888699999941,114.87158199999976,56.53857400000015,130.6411130000006,-66.79492200000004,101.15380900000036
161,-818.076904,-3.4614259999998467,111.53857400000015,94.23095699999976,86.79492200000004,94.23095699999976,83.9741210000002,73.20507799999996,82.43603499999972,117.17968800000017,55.0,129.7436520000001,-67.30761700000039,101.6665039999998
162,-815.2563479999999,-7.692382999999609,110.76904300000024,89.10253900000043,90.12841800000024,97.69238299999961,82.56396500000028,72.30761700000039,81.15380900000036,110.0,55.51269500000035,131.41015599999992,-71.02563499999997,104.23095699999976
163,-807.179443,-7.820557000000008,111.41015599999992,90.38476599999922,91.0258789999998,100.38476599999922,83.20507799999996,73.84619099999964,81.41015599999992,96.79492200000004,58.0771479999994,133.9741210000002,-74.8718259999996,103.3334960000002
164,-795.2563479999999,-3.9741210000001956,113.9741210000002,98.46142599999985,90.38476599999922,101.79492200000004,85.64111300000059,77.17968800000017,83.20507799999996,86.53857400000015,60.64111300000059,135.38476599999922,-75.51293900000019,99.35888699999941
165,-783.8461910000001,0.0,116.6665039999998,107.69238299999961,87.69238299999961,101.0258789999998,88.20507799999996,79.23095699999976,84.23095699999976,85.64111300000059,60.12841800000024,133.7177729999994,-72.94872999999961,98.46142599999985
166,-776.6667480000001,-0.512695000000349,116.79492200000004,110.25634799999989,82.69238299999961,98.3334960000002,88.3334960000002,77.30761700000039,81.9228520000006,91.9228520000006,55.64111300000059,128.58984400000008,-69.8718259999996,100.64111300000059
167,-774.2307129999999,-6.794922000000042,113.58984400000008,102.94873000000007,77.05126999999993,94.48730499999965,85.0,72.30761700000039,76.41015599999992,98.0771479999994,51.025878999999804,123.0771479999994,-68.46142599999985,100.25634799999989
168,-773.4614260000003,-15.897461000000021,108.9741210000002,90.12841800000024,72.94873000000007,90.0,79.61523400000078,67.30761700000039,70.76904300000024,99.61523400000078,50.76904300000024,121.0258789999998,-68.84619099999964,96.9228520000006
169,-771.025635,-23.076904000000013,105.89746099999957,80.51269500000035,71.53857400000015,84.87158199999976,75.0,65.64111300000059,68.46142599999985,97.43603499999972,55.51269500000035,123.7177729999994,-69.8718259999996,97.17968800000017
170,-766.281982,-25.0,105.25634799999989,80.12841800000024,71.6665039999998,79.35888699999941,73.3334960000002,67.69238299999961,69.74365200000011,95.0,60.51269500000035,128.20507799999996,-71.28198199999997,102.30761700000039
171,-761.281982,-21.923095999999987,105.76904300000024,88.20507799999996,71.0258789999998,75.25634799999989,74.48730499999965,71.53857400000015,71.6665039999998,93.20507799999996,59.74365200000011,129.7436520000001,-73.46142599999985,105.38476599999922
172,-758.3332519999999,-17.30761700000039,106.15380900000036,98.0771479999994,69.23095699999976,74.48730499999965,77.30761700000039,75.0,71.2822270000006,91.41015599999992,52.30761700000039,126.41015599999992,-76.15380900000036,102.43603499999972
173,-756.4101559999999,-13.974365000000034,106.15380900000036,102.82031300000017,68.0771479999994,77.56396500000028,80.64111300000059,76.9228520000006,69.61523400000078,89.74365200000011,43.846190999999635,120.38476599999922,-77.17944299999999,99.61523400000078
174,-752.4357909999999,-12.564209000000574,106.53857400000015,100.64111300000059,71.6665039999998,82.82031300000017,83.84619099999964,78.0771479999994,69.87158199999976,90.51269500000035,42.30761700000039,116.53857400000015,-73.71801800000003,102.43603499999972
175,-743.718018,-12.307617000000391,107.43603499999972,96.41015599999992,81.79492200000004,88.46142599999985,86.41015599999992,79.35888699999941,74.10253900000043,95.51269500000035,51.153809000000365,117.43603499999972,-64.23071300000038,105.76904300000024
176,-732.3076170000004,-13.205077999999958,108.84619099999964,96.15380900000036,94.35888699999941,92.69238299999961,87.30761700000039,81.0258789999998,80.51269500000035,103.58984400000008,64.87158199999976,122.17968800000017,-51.28198199999997,103.84619099999964
177,-722.9487299999996,-16.025634999999966,110.12841800000024,101.2822270000006,100.89746099999957,93.58984400000008,85.64111300000059,81.6665039999998,84.61523400000078,111.15380900000036,73.3334960000002,126.6665039999998,-41.153809000000365,100.0
178,-718.4614259999998,-20.1281740000004,110.12841800000024,107.05126999999993,94.61523400000078,90.12841800000024,81.15380900000036,79.61523400000078,83.0771479999994,114.87158199999976,70.76904300000024,127.30761700000039,-39.8718259999996,101.2822270000006
179,-717.820557,-22.69238299999961,107.82031300000017,107.17968800000017,77.82031300000017,84.35888699999941,75.25634799999989,74.74365200000011,76.6665039999998,113.46142599999985,60.38476599999922,123.46142599999985,-48.07690400000001,105.12841800000024
180,-716.5385740000002,-20.641113000000132,103.46142599999985,100.38476599999922,62.05126999999993,80.51269500000035,70.89746099999957,70.0,70.0,109.61523400000078,51.666503999999804,117.94873000000007,-60.1281740000004,104.61523400000078
181,-710.2563479999999,-12.948729999999614,99.74365200000011,91.9228520000006,59.74365200000011,82.30761700000039,71.0258789999998,68.9741210000002,68.84619099999964,107.82031300000017,52.30761700000039,114.35888699999941,-67.94872999999961,100.25634799999989
182,-698.5898439999996,-2.1796869999998307,100.38476599999922,89.74365200000011,74.74365200000011,90.38476599999922,76.79492200000004,73.46142599999985,75.51269500000035,110.64111300000059,63.0771479999994,114.87158199999976,-66.02563499999997,98.7177729999994
183,-684.8718259999996,7.051269999999931,105.51269500000035,97.56396500000028,97.69238299999961,101.15380900000036,85.38476599999922,81.6665039999998,85.89746099999957,115.76904300000024,77.17968800000017,118.58984400000008,-55.25634799999989,100.76904300000024
184,-674.7436520000001,10.384765999999217,111.2822270000006,109.35888699999941,111.9228520000006,108.58984400000008,91.41015599999992,88.58984400000008,92.82031300000017,116.9228520000006,84.48730499999965,122.05126999999993,-42.948729999999614,101.2822270000006
185,-672.0512700000004,6.410155999999915,112.43603499999972,114.74365200000011,106.0258789999998,107.43603499999972,90.38476599999922,90.25634799999989,91.79492200000004,111.15380900000036,79.23095699999976,121.6665039999998,-37.564209000000574,99.10253900000043
186,-674.7436520000001,-2.1796869999998307,107.30761700000039,108.7177729999994,83.58984400000008,97.82031300000017,83.20507799999996,85.89746099999957,84.35888699999941,101.2822270000006,65.0,117.82031300000017,-41.79492200000004,99.61523400000078
187,-675.6411130000001,-9.743652000000111,99.87158199999976,97.94873000000007,60.76904300000024,85.12841800000024,75.64111300000059,79.10253900000043,76.6665039999998,93.7177729999994,52.43603499999972,113.84619099999964,-49.61547900000005,103.46142599999985
188,-668.8461909999996,-12.051270000000386,96.41015599999992,94.35888699999941,53.333496000000196,77.05126999999993,73.20507799999996,73.84619099999964,73.46142599999985,91.15380900000036,50.38476599999922,112.82031300000017,-51.79492200000004,103.9741210000002
189,-655.0,-9.102538999999979,99.87158199999976,103.58984400000008,64.35888699999941,78.0771479999994,76.79492200000004,72.69238299999961,75.38476599999922,92.30761700000039,59.23095699999976,115.25634799999989,-44.61547900000005,99.23095699999976
190,-641.1538090000004,-5.128174000000399,107.56396500000028,118.84619099999964,84.35888699999941,86.79492200000004,82.82031300000017,75.51269500000035,79.87158199999976,94.74365200000011,72.05126999999993,118.9741210000002,-33.71801800000003,96.41015599999992
191,-633.974365,-4.230713000000378,113.84619099999964,126.9228520000006,101.15380900000036,97.17968800000017,87.05126999999993,80.64111300000059,84.23095699999976,98.58984400000008,79.87158199999976,121.41015599999992,-28.076904000000013,100.25634799999989
192,-634.102539,-6.666747999999643,114.48730499999965,119.61523400000078,109.35888699999941,102.82031300000017,88.0771479999994,85.89746099999957,87.05126999999993,105.0,78.9741210000002,121.79492200000004,-31.923095999999987,105.25634799999989
193,-636.923096,-9.487060999999812,110.0,100.89746099999957,111.0258789999998,100.76904300000024,86.79492200000004,88.9741210000002,88.20507799999996,113.0771479999994,71.53857400000015,120.38476599999922,-42.30761700000039,105.0
194,-637.4357909999994,-10.1281740000004,103.84619099999964,82.94873000000007,108.58984400000008,92.56396500000028,85.0,88.3334960000002,87.05126999999993,118.7177729999994,63.333496000000196,117.82031300000017,-52.051270000000386,101.9228520000006
195,-634.615479,-9.358886999999868,100.0,76.79492200000004,103.20507799999996,83.0771479999994,83.3334960000002,83.9741210000002,83.0771479999994,117.43603499999972,60.25634799999989,114.48730499999965,-55.76928699999962,101.79492200000004
196,-629.615479,-8.974365000000034,99.87158199999976,83.46142599999985,95.76904300000024,77.82031300000017,81.41015599999992,78.0771479999994,76.79492200000004,108.58984400000008,64.23095699999976,111.2822270000006,-52.30761700000039,103.0771479999994
197,-623.718018,-10.1281740000004,101.9228520000006,94.74365200000011,90.0,79.74365200000011,79.74365200000011,74.23095699999976,71.0258789999998,97.30761700000039,72.17968800000017,108.84619099999964,-45.0,101.2822270000006
198,-617.4357909999994,-12.179442999999992,103.7177729999994,99.87158199999976,89.23095699999976,87.43603499999972,80.12841800000024,75.12841800000024,69.23095699999976,91.79492200000004,77.56396500000028,107.56396500000028,-37.17944299999999,98.58984400000008
199,-610.897461,-13.58984399999963,104.61523400000078,95.89746099999957,93.84619099999964,96.2822270000006,83.84619099999964,80.89746099999957,73.20507799999996,96.15380900000036,74.74365200000011,107.82031300000017,-31.025634999999966,100.25634799999989
200,-603.974365,-12.948729999999614,106.2822270000006,89.35888699999941,101.0258789999998,102.17968800000017,90.25634799999989,89.10253900000043,80.89746099999957,106.0258789999998,63.20507799999996,109.87158199999976,-26.666747999999643,104.23095699999976
201,-597.179443,-10.256347999999889,110.51269500000035,88.84619099999964,107.43603499999972,103.58984400000008,96.53857400000015,95.89746099999957,87.82031300000017,112.05126999999993,49.35888699999941,114.23095699999976,-24.74365200000011,103.46142599999985
202,-591.923096,-7.307617000000391,115.64111300000059,96.0258789999998,110.51269500000035,101.2822270000006,99.61523400000078,98.0771479999994,90.0,108.0771479999994,41.153809000000365,120.0,-26.28198199999997,98.46142599999985
203,-589.2307130000004,-6.153809000000365,117.30761700000039,104.23095699999976,108.9741210000002,96.53857400000015,97.69238299999961,94.87158199999976,85.76904300000024,95.64111300000059,42.30761700000039,123.84619099999964,-31.794922000000042,96.9228520000006
204,-588.076904,-7.948729999999614,112.43603499999972,105.76904300000024,103.58984400000008,90.51269500000035,91.41015599999992,88.20507799999996,76.9228520000006,82.30761700000039,49.48730499999965,121.6665039999998,-38.974365000000034,100.51269500000035
205,-586.1538090000004,-11.538574000000153,103.3334960000002,99.48730499999965,96.6665039999998,84.74365200000011,84.48730499999965,81.79492200000004,68.20507799999996,75.51269500000035,55.64111300000059,112.82031300000017,-43.20507799999996,102.17968800000017
206,-581.5385740000002,-15.769286999999622,95.51269500000035,90.64111300000059,90.51269500000035,80.25634799999989,81.15380900000036,78.0771479999994,63.589844000000085,77.43603499999972,56.410155999999915,101.15380900000036,-41.53857400000015,98.9741210000002
207,-574.615479,-18.846190999999635,92.82031300000017,85.0,86.6665039999998,77.69238299999961,81.6665039999998,76.79492200000004,64.23095699999976,84.74365200000011,52.30761700000039,93.0771479999994,-34.8718259999996,96.6665039999998
208,-566.025635,-18.205077999999958,95.0,84.74365200000011,87.05126999999993,78.9741210000002,84.10253900000043,76.9228520000006,69.10253900000043,92.82031300000017,48.846190999999635,93.46142599999985,-26.666747999999643,98.58984400000008
209,-555.384521,-11.153809000000365,99.10253900000043,88.84619099999964,95.0,85.76904300000024,86.9228520000006,78.7177729999994,76.15380900000036,99.23095699999976,52.69238299999961,102.69238299999961,-19.74365200000011,100.0
210,-543.4614259999998,1.0258789999998044,101.9228520000006,95.76904300000024,110.89746099999957,96.53857400000015,90.25634799999989,82.43603499999972,83.0771479999994,104.10253900000043,64.61523400000078,115.25634799999989,-14.230713000000378,97.69238299999961
211,-533.205078,12.56396500000028,101.9228520000006,104.35888699999941,128.3334960000002,105.64111300000059,93.7177729999994,87.30761700000039,87.69238299999961,108.46142599999985,78.20507799999996,123.20507799999996,-9.358886999999868,97.43603499999972
212,-527.5642090000006,17.30761700000039,98.9741210000002,112.82031300000017,137.56396500000028,106.9228520000006,96.41015599999992,90.76904300000024,88.7177729999994,113.0771479999994,85.76904300000024,121.9228520000006,-4.487060999999812,103.46142599999985
213,-526.281982,14.743652000000111,95.12841800000024,118.20507799999996,133.84619099999964,100.38476599999922,96.9228520000006,91.79492200000004,87.17968800000017,117.05126999999993,85.25634799999989,114.35888699999941,0.6411130000005869,109.48730499999965
214,-526.025635,10.384765999999217,93.7177729999994,117.94873000000007,122.43603499999972,92.17968800000017,96.0258789999998,91.9228520000006,86.0258789999998,120.12841800000024,80.89746099999957,108.58984400000008,6.538574000000153,108.20507799999996
215,-522.179443,10.384765999999217,96.41015599999992,112.69238299999961,113.46142599999985,89.10253900000043,95.12841800000024,93.58984400000008,88.46142599999985,122.94873000000007,78.46142599999985,110.89746099999957,13.589844000000085,102.17968800000017
216,-512.3076170000004,16.922852000000603,101.9228520000006,106.41015599999992,113.0771479999994,93.3334960000002,95.12841800000024,97.30761700000039,95.25634799999989,126.79492200000004,79.74365200000011,120.64111300000059,21.282227000000603,99.87158199999976
217,-497.820557,26.410155999999915,107.30761700000039,104.10253900000043,118.20507799999996,101.15380900000036,95.76904300000024,101.53857400000015,102.94873000000007,131.2822270000006,82.05126999999993,131.41015599999992,27.94873000000007,101.6665039999998
218,-484.102539,33.0771479999994,109.10253900000043,107.05126999999993,121.41015599999992,106.6665039999998,96.0258789999998,103.7177729999994,107.56396500000028,134.10253900000043,81.79492200000004,135.76904300000024,31.666503999999804,101.6665039999998
219,-476.923096,32.94873000000007,106.53857400000015,112.17968800000017,118.7177729999994,106.6665039999998,95.25634799999989,102.69238299999961,106.53857400000015,132.17968800000017,78.0771479999994,131.15380900000036,31.794922000000042,99.48730499999965
220,-477.820557,26.922852000000603,101.0258789999998,115.12841800000024,113.84619099999964,103.46142599999985,93.9741210000002,98.9741210000002,100.89746099999957,124.48730499999965,74.23095699999976,120.51269500000035,28.589844000000085,100.0
221,-483.33325200000036,20.0,96.0258789999998,114.23095699999976,114.10253900000043,101.41015599999992,93.0771479999994,95.0,93.58984400000008,113.0771479999994,75.0,109.10253900000043,24.358886999999413,103.20507799999996
222,-487.820557,15.897460999999566,94.35888699999941,111.79492200000004,121.0258789999998,101.79492200000004,93.0771479999994,92.69238299999961,87.43603499999972,102.05126999999993,81.2822270000006,101.53857400000015,20.384765999999217,102.82031300000017
223,-489.7436520000001,13.077147999999397,96.6665039999998,110.0,128.20507799999996,100.64111300000059,92.69238299999961,91.15380900000036,83.58984400000008,95.51269500000035,88.7177729999994,100.89746099999957,16.025878999999804,98.46142599999985
224,-487.9487299999996,8.974121000000196,100.64111300000059,110.12841800000024,127.43603499999972,94.10253900000043,89.48730499999965,88.46142599999985,81.79492200000004,96.6665039999998,91.79492200000004,107.56396500000028,11.153809000000365,97.43603499999972
225,-476.66674799999964,8.333496000000196,103.7177729999994,113.3334960000002,118.46142599999985,85.64111300000059,85.38476599999922,84.61523400000078,82.82031300000017,106.41015599999992,90.89746099999957,119.87158199999976,10.128418000000238,101.9228520000006
226,-449.35888699999987,19.871581999999762,105.89746099999957,121.15380900000036,110.64111300000059,84.23095699999976,85.76904300000024,84.48730499999965,88.58984400000008,122.69238299999961,90.89746099999957,133.58984400000008,19.48730499999965,105.38476599999922
227,-414.4870609999998,41.666503999999804,108.9741210000002,131.2822270000006,113.84619099999964,93.58984400000008,94.23095699999976,92.43603499999972,98.58984400000008,139.3588869999994,94.10253900000043,142.43603499999972,37.43603499999972,103.7177729999994
228,-399.102539,54.23095699999976,113.9741210000002,136.0258789999998,128.3334960000002,106.41015599999992,106.53857400000015,105.12841800000024,107.69238299999961,148.3334960000002,94.87158199999976,141.41015599999992,50.76904300000024,101.79492200000004
229,-427.820557,35.64111300000059,118.9741210000002,127.69238299999961,143.9741210000002,111.15380900000036,113.46142599999985,113.20507799999996,108.84619099999964,145.0,85.64111300000059,131.53857400000015,43.7177729999994,103.84619099999964
230,-495.1281740000004,-12.435790999999426,120.89746099999957,107.69238299999961,148.84619099999964,103.46142599999985,108.84619099999964,109.35888699999941,99.74365200000011,130.51269500000035,66.9228520000006,120.25634799999989,14.871581999999762,105.38476599999922
231,-561.025635,-59.10253899999998,118.3334960000002,88.7177729999994,138.0771479999994,90.51269500000035,93.84619099999964,94.35888699999941,84.74365200000011,111.53857400000015,49.102539000000434,114.48730499999965,-19.487060999999812,101.15380900000036
232,-578.5898439999996,-70.38452099999995,112.30761700000039,85.12841800000024,117.69238299999961,83.20507799999996,77.30761700000039,77.05126999999993,72.94873000000007,96.2822270000006,42.82031300000017,114.48730499999965,-36.92309599999999,95.51269500000035
233,-534.8718259999996,-40.51293900000019,107.30761700000039,98.7177729999994,100.64111300000059,85.51269500000035,69.35888699999941,68.20507799999996,71.0258789999998,90.25634799999989,48.846190999999635,114.74365200000011,-28.974365000000034,94.74365200000011
234,-467.3076170000004,0.6411130000005869,107.94873000000007,117.56396500000028,97.82031300000017,93.0771479999994,74.61523400000078,72.82031300000017,79.48730499999965,94.48730499999965,56.9228520000006,110.64111300000059,-7.820557000000008,97.30761700000039
235,-437.6923829999996,13.974121000000196,116.41015599999992,126.0258789999998,109.61523400000078,98.46142599999985,88.84619099999964,86.79492200000004,91.53857400000015,104.35888699999941,57.05126999999993,104.61523400000078,2.5639650000002803,96.79492200000004
236,-482.0512700000004,-17.69238299999961,129.87158199999976,116.53857400000015,124.61523400000078,97.94873000000007,102.05126999999993,99.61523400000078,98.3334960000002,112.43603499999972,48.46142599999985,103.20507799999996,-12.820557000000008,94.10253900000043
237,-579.4870609999998,-79.8718259999996,140.76904300000024,95.12841800000024,127.56396500000028,93.3334960000002,104.61523400000078,101.0258789999998,93.84619099999964,111.9228520000006,38.333496000000196,109.23095699999976,-48.33325200000036,94.87158199999976
238,-664.615479,-139.23071300000038,141.6665039999998,73.58984400000008,110.38476599999922,87.82031300000017,92.82031300000017,87.56396500000028,78.7177729999994,99.23095699999976,32.94873000000007,116.41015599999992,-80.64111300000013,98.20507799999996
239,-674.3588869999999,-164.61547900000005,128.9741210000002,58.589844000000085,78.0771479999994,81.79492200000004,70.0,64.23095699999976,58.333496000000196,76.0258789999998,32.56396500000028,112.56396500000028,-87.30761700000039,97.82031300000017
240,-587.179443,-139.61547900000005,104.35888699999941,48.974121000000196,44.102539000000434,73.3334960000002,45.12841800000024,41.153809000000365,40.897460999999566,50.38476599999922,32.94873000000007,90.64111300000059,-62.82055700000001,93.7177729999994
241,-427.0512700000004,-72.94872999999961,76.41015599999992,44.35888699999941,21.922852000000603,64.35888699999941,30.384765999999217,28.846190999999635,33.7177729999994,35.51269500000035,31.794922000000042,59.23095699999976,-20.1281740000004,92.94873000000007
242,-238.076904,-1.0258789999998044,59.48730499999965,51.9228520000006,20.641113000000587,63.46142599999985,36.53857400000015,35.38476599999922,42.30761700000039,43.46142599999985,32.05126999999993,41.53857400000015,19.871581999999762,97.17968800000017
243,-54.23071300000038,25.0,67.30761700000039,79.23095699999976,41.79492200000004,80.38476599999922,66.15380900000036,62.30761700000039,66.9228520000006,76.9228520000006,39.74365200000011,58.20507799999996,41.2822270000006,99.61523400000078
244,114.48730499999965,-26.153809000000365,102.43603499999972,120.76904300000024,76.53857400000015,113.7177729999994,108.84619099999964,100.89746099999957,100.25634799999989,123.58984400000008,57.05126999999993,108.46142599999985,39.35888699999941,97.17968800000017
245,279.87158199999976,-136.41015600000037,148.9741210000002,155.6411130000006,105.64111300000059,146.2822270000006,144.10253900000043,133.84619099999964,129.23095699999976,161.0258789999998,76.9228520000006,164.48730499999965,19.74365200000011,95.64111300000059
246,465.2563479999999,-240.5129390000002,179.3588869999994,162.17968800000017,105.89746099999957,155.0,152.17968800000017,144.10253900000043,140.38476599999922,168.0771479999994,86.41015599999992,189.23095699999976,-2.9487300000000687,98.20507799999996
247,697.8203130000002,-261.28198199999997,171.53857400000015,139.87158199999976,61.9228520000006,130.38476599999922,127.30761700000039,125.64111300000059,127.43603499999972,139.10253900000043,80.12841800000024,164.23095699999976,-6.538574000000153,100.25634799999989
248,1007.1796880000002,-155.2563479999999,127.05126999999993,116.6665039999998,-21.28198199999997,87.43603499999972,84.48730499999965,90.0,98.7177729999994,91.79492200000004,70.12841800000024,104.87158199999976,32.30761700000039,97.82031300000017
249,1416.410156,56.79492200000004,70.51269500000035,132.17968800000017,-118.33325200000036,57.05126999999993,52.05126999999993,61.666503999999804,74.10253900000043,58.589844000000085,80.76904300000024,49.102539000000434,126.53857400000015,96.15380900000036
250,1919.3588869999994,290.6411130000006,31.794922000000042,207.05126999999993,-194.8718259999996,61.410155999999915,51.666503999999804,60.51269500000035,72.30761700000039,63.846190999999635,127.94873000000007,27.56396500000028,266.6665039999998,100.51269500000035
251,2460.1284180000002,436.79492200000004,23.974121000000196,319.7436520000001,-229.10253899999998,95.51269500000035,81.0258789999998,86.79492200000004,95.51269500000035,104.23095699999976,203.46142599999985,41.153809000000365,419.48730499999965,106.53857400000015
252,2946.9228519999997,425.6411130000006,38.974121000000196,414.10253900000043,-226.15380900000036,132.17968800000017,117.94873000000007,121.53857400000015,128.3334960000002,153.0771479999994,279.3588869999994,66.53857400000015,547.5639650000003,107.05126999999993
253,3298.205078,276.4101559999999,58.46142599999985,438.46142599999985,-217.3076170000004,145.38476599999922,140.12841800000024,143.3334960000002,151.41015599999992,183.20507799999996,329.48730499999965,78.58984400000008,633.3334960000002,104.10253900000043
254,3488.9741209999993,92.05126999999993,67.94873000000007,384.3588869999994,-240.5129390000002,129.7436520000001,141.41015599999992,145.12841800000024,155.12841800000024,184.7436520000001,347.05126999999993,68.46142599999985,687.5639650000003,104.10253900000043
255,3556.2822269999997,-8.461425999999847,63.974121000000196,294.7436520000001,-312.5642090000006,100.25634799999989,130.38476599999922,134.7436520000001,142.6923829999996,166.0258789999998,344.10253900000043,45.51269500000035,733.5898440000001,106.53857400000015
256,3565.384765999999,28.589844000000085,51.53857400000015,233.7177729999994,-412.0512700000004,77.69238299999961,119.61523400000078,125.25634799999989,124.61523400000078,142.6923829999996,338.0771479999994,26.922852000000603,787.6923829999996,105.64111300000059
257,3565.6411129999997,162.3076170000004,38.846190999999635,243.3334960000002,-488.33325200000036,73.0771479999994,115.12841800000024,123.3334960000002,110.25634799999989,126.6665039999998,339.10253900000043,23.589844000000085,851.0258789999998,101.9228520000006
258,3573.8461909999996,301.2822270000006,30.25634799999989,320.12841800000024,-495.7692869999996,83.7177729999994,115.25634799999989,127.17968800000017,103.84619099999964,122.17968800000017,350.89746099999957,32.30761700000039,919.8715819999998,101.6665039999998
259,3582.05127,379.87158199999976,25.128418000000238,421.4101559999999,-427.4357909999994,99.61523400000078,116.53857400000015,132.3076170000004,104.61523400000078,126.0258789999998,377.82031300000017,40.25634799999989,996.794922,105.38476599999922
260,3578.9741209999993,399.48730499999965,19.358886999999413,496.15380900000036,-320.2563479999999,112.82031300000017,119.23095699999976,138.3334960000002,110.0,133.3334960000002,424.23095699999976,38.0771479999994,1091.2822270000006,106.9228520000006
261,3562.6923829999996,405.12841800000024,11.666503999999804,516.2822270000006,-227.0512700000004,119.87158199999976,127.05126999999993,147.6923829999996,117.82031300000017,140.76904300000024,485.89746099999957,27.56396500000028,1205.3847659999992,105.12841800000024
262,3540.384765999999,430.89746099999957,4.358886999999413,490.76904300000024,-179.61547900000005,120.0,140.6411130000006,161.15380900000036,125.89746099999957,147.3076170000004,545.1284180000002,16.922852000000603,1323.8461909999996,106.0258789999998
263,3521.5385739999992,472.3076170000004,0.12841800000023795,454.23095699999976,-170.1281740000004,115.12841800000024,154.3588869999994,174.3588869999994,131.9228520000006,152.43603499999972,580.3847659999992,11.794922000000042,1419.3588869999994,111.79492200000004
264,3510.5126950000003,503.7177729999994,-1.2822270000006029,440.3847659999992,-165.0,109.35888699999941,160.38476599999922,181.53857400000015,134.48730499999965,155.76904300000024,582.0512699999999,10.897460999999566,1472.05127,115.76904300000024
265,3505.6411129999997,509.48730499999965,-1.5385740000001533,458.0771479999994,-134.35888699999987,107.69238299999961,157.05126999999993,180.89746099999957,134.87158199999976,159.7436520000001,558.4614259999998,9.487304999999651,1485.5126950000003,114.35888699999941
266,3502.94873,497.05126999999993,0.0,488.84619099999964,-74.35888699999987,111.79492200000004,150.38476599999922,176.53857400000015,136.53857400000015,169.7436520000001,530.3847659999992,6.282227000000603,1484.6152340000008,113.0771479999994
267,3500.5126950000003,485.76904300000024,5.769043000000238,506.9228520000006,-4.743652000000111,118.9741210000002,149.10253900000043,175.2563479999999,142.3076170000004,188.9741210000002,517.6923829999996,5.512695000000349,1496.6665039999998,117.43603499999972
268,3499.230956999999,490.76904300000024,16.025878999999804,503.9741210000002,49.87158199999976,124.61523400000078,157.05126999999993,180.2563479999999,151.53857400000015,212.94873000000007,528.3334960000002,12.948730000000069,1533.3334960000002,122.43603499999972
269,3499.871581999999,512.8203130000002,25.384765999999217,497.3076170000004,78.7177729999994,126.2822270000006,168.58984400000008,188.58984400000008,160.0,230.89746099999957,553.9741210000002,29.230956999999762,1585.1284180000002,121.2822270000006
270,3501.1538090000004,542.1796880000002,26.153809000000365,511.0258789999998,89.35888699999941,124.48730499999965,173.3334960000002,192.43603499999972,162.17968800000017,233.58984400000008,575.8974609999996,46.53857400000015,1631.410156,116.41015599999992
271,3501.5385739999992,571.5385740000002,15.0,550.1284180000002,97.69238299999961,120.76904300000024,165.76904300000024,186.0258789999998,156.53857400000015,221.79492200000004,580.6411130000006,54.102539000000434,1656.1538090000004,115.12841800000024
272,3501.0258790000007,603.3334960000002,-2.4360349999997197,594.8715819999998,115.0,117.30761700000039,150.51269500000035,172.94873000000007,147.6923829999996,206.41015599999992,570.2563479999999,47.30761700000039,1657.8203130000002,116.6665039999998
273,3500.6411129999997,643.205078,-15.769286999999622,620.8974609999996,140.6411130000006,115.76904300000024,139.23095699999976,162.56396500000028,143.0771479999994,199.7436520000001,559.4873049999997,29.871581999999762,1648.205078,115.51269500000035
274,3500.8974609999996,686.1538090000004,-18.58984399999963,623.205078,162.43603499999972,115.76904300000024,139.48730499999965,161.6665039999998,146.53857400000015,205.6411130000006,559.8715819999998,9.615234000000783,1641.0258789999998,112.82031300000017
275,3501.2822269999997,716.2822270000006,-13.333252000000357,617.9487300000001,164.61523400000078,115.89746099999957,149.23095699999976,168.0771479999994,154.7436520000001,217.05126999999993,571.0258789999998,-6.923095999999987,1643.205078,114.61523400000078
276,3501.410156,720.6411130000006,-6.666747999999643,623.205078,137.6923829999996,116.0258789999998,160.2563479999999,174.7436520000001,161.9228520000006,223.58984400000008,584.3588869999994,-16.41015600000037,1653.8461909999996,120.51269500000035
277,3501.1538090000004,704.4873049999997,-2.3076170000003913,642.4360349999997,83.20507799999996,117.05126999999993,166.53857400000015,176.79492200000004,164.7436520000001,220.51269500000035,593.205078,-18.974365000000034,1668.3334960000002,123.20507799999996
278,3501.0258790000007,686.9228520000006,-0.8974609999995664,663.5898440000001,12.948730000000069,119.23095699999976,166.2822270000006,174.3588869999994,163.3334960000002,210.38476599999922,596.794922,-17.30761700000039,1679.8715819999998,120.64111300000059
279,3501.1538090000004,683.9741210000002,-1.153809000000365,672.9487300000001,-54.61547900000005,121.79492200000004,162.17968800000017,170.2563479999999,159.48730499999965,199.3588869999994,596.0258789999998,-13.974365000000034,1681.2822270000006,119.10253900000043
280,3501.1538090000004,693.3334960000002,-0.256347999999889,667.5639650000003,-100.0,124.61523400000078,158.58984400000008,167.56396500000028,155.6411130000006,192.94873000000007,591.6665039999998,-7.564209000000574,1670.5126950000003,121.41015599999992
281,3501.1538090000004,697.4360349999997,6.025878999999804,657.9487300000001,-112.82055700000001,129.10253900000043,158.9741210000002,168.3334960000002,154.10253900000043,193.9741210000002,584.3588869999994,4.102539000000434,1651.1538090000004,122.17968800000017
282,3501.1538090000004,682.6923829999996,17.82031300000017,660.0,-100.64111300000013,134.10253900000043,162.6923829999996,172.43603499999972,155.6411130000006,201.53857400000015,574.6152340000008,19.48730499999965,1628.0771479999994,118.7177729999994
283,3501.1538090000004,654.7436520000001,29.230956999999762,681.0258789999998,-85.64111300000013,135.2563479999999,165.0,175.51269500000035,157.43603499999972,210.2563479999999,562.8203130000002,30.384765999999217,1601.2822270000006,116.79492200000004
284,3501.1538090000004,635.1284180000002,31.153809000000365,714.7436520000001,-87.43579099999943,127.69238299999961,160.6411130000006,173.0771479999994,155.6411130000006,213.0771479999994,550.0,28.205077999999958,1569.6152340000008,120.89746099999957
285,3501.1538090000004,641.4101559999999,21.153809000000365,747.4360349999997,-107.30761700000039,113.0771479999994,149.7436520000001,164.23095699999976,148.84619099999964,206.2822270000006,539.4873049999997,10.256347999999889,1536.5385740000002,125.0
286,3501.410156,670.1284180000002,6.410155999999915,768.5898440000001,-126.92309599999999,100.38476599999922,139.10253900000043,154.3588869999994,140.76904300000024,193.84619099999964,535.6411130000006,-14.358886999999868,1510.6411130000006,122.56396500000028
287,3501.5385739999992,703.3334960000002,-0.12841800000023795,774.3588869999994,-126.15380900000036,100.64111300000059,137.6923829999996,152.3076170000004,138.9741210000002,186.41015599999992,542.5639650000003,-29.10253899999998,1497.6923829999996,116.9228520000006
288,3501.6665040000007,727.5639650000003,8.077147999999397,764.3588869999994,-102.56420900000057,117.56396500000028,148.9741210000002,162.17968800000017,148.0771479999994,191.79492200000004,558.7177729999994,-22.051270000000386,1493.8461909999996,115.64111300000059
289,3501.794922,742.1796880000002,26.025878999999804,740.8974609999996,-77.43579099999943,143.20507799999996,166.6665039999998,179.10253900000043,164.10253900000043,206.79492200000004,575.3847659999992,3.9741210000001956,1487.1796880000002,118.3334960000002
290,3502.8203129999993,748.5898440000001,41.025878999999804,711.2822270000006,-79.74365200000011,161.15380900000036,177.94873000000007,190.89746099999957,176.0258789999998,218.9741210000002,580.6411130000006,30.769043000000238,1466.0258789999998,119.23095699999976
291,3504.4873049999997,740.6411130000006,41.2822270000006,687.3076170000004,-123.71801800000003,157.82031300000017,172.43603499999972,186.6665039999998,173.58984400000008,216.0258789999998,567.6923829999996,38.46142599999985,1427.94873,118.20507799999996
292,3505.6411129999997,713.5898440000001,26.025878999999804,679.4873049999997,-194.7436520000001,132.82031300000017,150.89746099999957,165.89746099999957,156.0258789999998,197.17968800000017,540.7690430000002,19.615234000000783,1381.5385740000002,120.25634799999989
293,3504.230956999999,680.6411130000006,6.922852000000603,690.7690430000002,-257.3076170000004,101.6665039999998,126.53857400000015,140.76904300000024,133.9741210000002,174.23095699999976,513.5898440000001,-13.205077999999958,1341.794922,124.10253900000043
294,3501.5385739999992,667.5639650000003,0.12841800000023795,715.7690430000002,-278.33325200000036,85.25634799999989,116.15380900000036,128.20507799999996,122.30761700000039,162.43603499999972,499.23095699999976,-35.51293900000019,1320.8974609999996,123.9741210000002
295,3501.1538090000004,687.1796880000002,13.717772999999397,744.3588869999994,-250.0,94.48730499999965,127.17968800000017,136.9228520000006,129.48730499999965,168.7177729999994,502.17968800000017,-30.1281740000004,1318.7177729999994,119.74365200000011
296,3504.615234000001,721.2822270000006,40.25634799999989,766.4101559999999,-192.43579099999943,121.79492200000004,152.3076170000004,160.6411130000006,150.2563479999999,186.53857400000015,515.7690430000002,-1.4101559999999154,1321.9228520000006,118.58984400000008
297,3508.4614260000008,733.7177729999994,63.0771479999994,776.5385740000002,-137.3076170000004,147.82031300000017,173.58984400000008,182.43603499999972,169.61523400000078,199.87158199999976,527.9487300000001,28.589844000000085,1314.2309569999998,122.17968800000017
298,3506.1538090000004,707.0512699999999,68.58984400000008,776.794922,-106.41015600000037,157.43603499999972,177.05126999999993,187.6923829999996,173.3334960000002,197.05126999999993,527.9487300000001,39.102539000000434,1289.4873049999997,124.23095699999976
299,3492.8203129999993,661.9228520000006,58.20507799999996,773.205078,-100.64111300000013,150.2563479999999,162.43603499999972,174.7436520000001,160.0,180.89746099999957,513.3334960000002,27.30761700000039,1256.0258789999998,121.15380900000036
300,3469.230956999999,639.3588869999994,43.974121000000196,770.7690430000002,-105.38452099999995,136.79492200000004,142.56396500000028,155.0,140.89746099999957,165.89746099999957,490.51269500000035,8.461425999999847,1227.4360349999997,118.58984400000008
301,3443.0771480000003,662.0512699999999,36.79492200000004,771.794922,-104.35888699999987,127.05126999999993,131.0258789999998,142.3076170000004,129.61523400000078,164.48730499999965,469.48730499999965,-2.0512699999999313,1210.256348,120.38476599999922
302,3425.5126950000003,712.9487300000001,37.94873000000007,776.0258789999998,-90.51293900000019,122.56396500000028,131.9228520000006,142.3076170000004,131.41015599999992,174.7436520000001,457.05126999999993,-1.2822270000006029,1200.3847659999992,122.05126999999993
303,3422.1796879999993,748.4614259999998,42.69238299999961,781.0258789999998,-65.38452099999995,120.89746099999957,141.15380900000036,150.89746099999957,141.41015599999992,185.6411130000006,455.76904300000024,3.717772999999397,1190.6411130000006,119.23095699999976
304,3423.9741209999993,734.3588869999994,47.82031300000017,782.0512699999999,-35.1281740000004,120.51269500000035,152.17968800000017,160.2563479999999,151.79492200000004,189.10253900000043,463.84619099999964,7.692382999999609,1176.9228520000006,116.41015599999992
305,3410.769043000001,672.5639650000003,54.35888699999941,774.1025390000004,-8.205077999999958,122.17968800000017,160.12841800000024,164.61523400000078,157.17968800000017,185.51269500000035,475.6411130000006,12.051269999999931,1159.1025390000004,119.10253900000043
306,3369.615234000001,599.3588869999994,62.69238299999961,758.9741210000002,5.256347999999889,126.6665039999998,162.43603499999972,162.17968800000017,155.89746099999957,179.3588869999994,481.2822270000006,20.769043000000238,1138.3334960000002,123.3334960000002
307,3309.3588870000003,558.7177729999994,71.2822270000006,746.0258789999998,-0.6411130000005869,133.3334960000002,158.3334960000002,155.0,150.2563479999999,174.7436520000001,472.82031300000017,34.102539000000434,1116.410156,122.30761700000039
308,3254.3588870000003,571.1538090000004,76.53857400000015,745.8974609999996,-23.076904000000013,140.2563479999999,150.6411130000006,147.43603499999972,144.10253900000043,173.46142599999985,451.9228520000006,44.87158199999976,1096.2822270000006,117.69238299999961
309,3224.230956999999,623.205078,75.0,759.7436520000001,-49.8718259999996,145.6411130000006,143.9741210000002,143.46142599999985,141.53857400000015,174.7436520000001,428.9741210000002,44.48730499999965,1080.8974609999996,116.79492200000004
310,3220.0,681.5385740000002,66.41015599999992,776.9228520000006,-66.28198199999997,146.2822270000006,141.9228520000006,144.3588869999994,143.20507799999996,175.0,414.7436520000001,30.25634799999989,1070.8974609999996,119.35888699999941
311,3225.6411129999997,717.8203130000002,54.35888699999941,782.5639650000003,-64.10253899999998,140.38476599999922,144.10253900000043,148.3334960000002,146.6665039999998,170.38476599999922,413.20507799999996,9.230956999999762,1062.94873,119.48730499999965
312,3221.6665040000007,725.2563479999999,45.12841800000024,770.1284180000002,-48.33325200000036,129.48730499999965,147.43603499999972,151.41015599999992,148.46142599999985,160.89746099999957,420.0,-5.769286999999622,1052.4360349999997,116.53857400000015
313,3196.410156,713.9741210000002,42.82031300000017,745.6411130000006,-32.82055700000001,118.84619099999964,148.20507799999996,150.76904300000024,146.79492200000004,150.89746099999957,427.3076170000004,-5.769286999999622,1035.7690430000002,116.6665039999998
314,3151.6665040000007,696.6665039999998,46.9228520000006,721.794922,-31.153809000000365,114.48730499999965,144.87158199999976,145.89746099999957,142.17968800000017,144.3588869999994,428.7177729999994,7.179688000000169,1013.0771479999994,120.25634799999989
315,3102.5639650000003,679.4873049999997,52.69238299999961,708.9741210000002,-46.79492200000004,118.3334960000002,138.7177729999994,138.7177729999994,136.2822270000006,141.15380900000036,422.5639650000003,21.794922000000042,987.8203130000002,121.15380900000036
316,3067.05127,664.4873049999997,55.51269500000035,708.7177729999994,-71.28198199999997,126.9228520000006,132.6923829999996,132.17968800000017,131.15380900000036,138.84619099999964,411.79492200000004,27.05126999999993,965.1284180000002,117.30761700000039
317,3050.8974609999996,657.0512699999999,52.69238299999961,715.8974609999996,-90.64111300000013,134.3588869999994,129.3588869999994,128.7177729999994,127.94873000000007,135.76904300000024,402.3076170000004,20.51269500000035,950.1284180000002,115.51269500000035
318,3043.589844,665.8974609999996,45.12841800000024,725.7690430000002,-95.38452099999995,136.6665039999998,129.3588869999994,128.7177729999994,126.9228520000006,133.20507799999996,397.94873000000007,9.358886999999413,945.3847659999992,119.10253900000043
319,3028.3334959999993,692.8203130000002,37.43603499999972,736.794922,-84.35888699999987,134.7436520000001,131.6665039999998,131.41015599999992,128.46142599999985,132.94873000000007,399.23095699999976,1.5385740000001533,949.1025390000004,121.79492200000004
320,2997.94873,725.8974609999996,36.153809000000365,748.0771479999994,-63.71801800000003,132.17968800000017,136.41015599999992,136.79492200000004,132.94873000000007,137.82031300000017,403.46142599999985,0.0,955.2563479999999,118.58984400000008
321,2956.5385739999992,743.205078,45.38476599999922,756.5385740000002,-41.79492200000004,132.56396500000028,144.48730499999965,144.61523400000078,141.0258789999998,149.87158199999976,407.94873000000007,2.6923829999996087,957.1796880000002,114.87158199999976
322,2911.5385739999992,729.2309569999998,63.974121000000196,757.4360349999997,-23.71801800000003,137.43603499999972,156.15380900000036,154.61523400000078,151.79492200000004,167.3076170000004,411.15380900000036,7.179688000000169,951.794922,116.79492200000004
323,2865.256348000001,687.5639650000003,84.23095699999976,747.3076170000004,-11.28198199999997,145.89746099999957,168.20507799999996,164.23095699999976,161.2822270000006,182.82031300000017,412.17968800000017,13.461425999999847,939.6152340000008,121.2822270000006
324,2815.5126950000003,641.2822270000006,95.12841800000024,726.1538090000004,-6.41015600000037,153.7177729999994,174.23095699999976,169.10253900000043,163.9741210000002,186.53857400000015,408.46142599999985,20.51269500000035,922.3076170000004,121.6665039999998
325,2760.6411129999997,617.6923829999996,88.58984400000008,698.9741210000002,-13.076904000000013,154.3588869999994,168.0771479999994,164.10253900000043,155.6411130000006,172.94873000000007,398.5898440000001,24.230956999999762,898.9741210000002,118.84619099999964
326,2702.3076170000004,628.9741210000002,66.6665039999998,675.8974609999996,-32.17944299999999,144.23095699999976,150.12841800000024,148.58984400000008,137.94873000000007,146.15380900000036,383.7177729999994,20.769043000000238,870.5126950000003,118.58984400000008
327,2644.3588870000003,661.2822270000006,42.82031300000017,666.9228520000006,-56.41015600000037,127.69238299999961,129.10253900000043,129.23095699999976,118.58984400000008,117.69238299999961,368.0771479999994,11.025878999999804,840.8974609999996,120.38476599999922
328,2589.4873049999997,684.8715819999998,31.282227000000603,672.9487300000001,-72.69238299999961,113.7177729999994,116.0258789999998,115.51269500000035,106.6665039999998,98.46142599999985,354.3588869999994,0.256347999999889,816.0258789999998,119.35888699999941
329,2538.974121,677.0512699999999,36.9228520000006,683.3334960000002,-71.41015600000037,108.3334960000002,115.76904300000024,112.94873000000007,106.53857400000015,92.82031300000017,341.4101559999999,-6.153809000000365,799.6152340000008,116.15380900000036
330,2493.461426,641.794922,52.69238299999961,684.2309569999998,-52.051270000000386,112.30761700000039,125.12841800000024,120.38476599999922,115.89746099999957,98.46142599999985,328.5898440000001,-5.38452099999995,791.0258789999998,116.41015599999992
331,2452.6923829999996,607.8203130000002,68.3334960000002,670.6411130000006,-22.948729999999614,123.3334960000002,137.43603499999972,132.3076170000004,128.20507799999996,110.76904300000024,320.0,2.6923829999996087,787.5639650000003,119.74365200000011
332,2415.5126950000003,605.1284180000002,77.43603499999972,649.6152340000008,2.6923829999996087,137.3076170000004,147.3076170000004,142.6923829999996,137.43603499999972,124.87158199999976,322.05126999999993,14.743652000000111,785.3847659999992,120.0
333,2379.4873049999997,638.9741210000002,79.48730499999965,632.3076170000004,13.717772999999397,149.23095699999976,152.05126999999993,147.17968800000017,140.76904300000024,137.05126999999993,335.0,24.615234000000783,780.8974609999996,116.2822270000006
334,2341.410156,685.7690430000002,77.05126999999993,623.4614259999998,7.56396500000028,153.84619099999964,151.53857400000015,144.7436520000001,138.58984400000008,145.0,351.2822270000006,27.05126999999993,772.5639650000003,115.12841800000024
335,2298.8461909999996,713.3334960000002,72.94873000000007,620.5126950000003,-6.538574000000153,149.3588869999994,147.43603499999972,138.46142599999985,134.23095699999976,147.82031300000017,361.2822270000006,21.153809000000365,761.794922,118.9741210000002
336,2250.1284180000002,707.0512699999999,68.58984400000008,616.794922,-13.974365000000034,139.7436520000001,141.9228520000006,132.94873000000007,130.76904300000024,146.2822270000006,361.15380900000036,11.538574000000153,751.1538090000004,121.2822270000006
337,2194.3588869999994,677.9487300000001,65.0,607.5639650000003,-6.281981999999971,131.15380900000036,137.17968800000017,131.41015599999992,130.12841800000024,141.9228520000006,353.0771479999994,4.358886999999413,740.6411130000006,117.94873000000007
338,2131.794922,649.7436520000001,63.46142599999985,592.8203130000002,11.794922000000042,127.94873000000007,134.7436520000001,133.46142599999985,131.6665039999998,136.41015599999992,341.2822270000006,2.5639650000002803,727.9487300000001,114.48730499999965
339,2066.025879,638.0771479999994,65.25634799999989,577.5639650000003,28.589844000000085,129.48730499999965,136.15380900000036,137.05126999999993,133.84619099999964,131.41015599999992,329.3588869999994,5.897460999999566,710.8974609999996,115.76904300000024
340,2001.794922,640.8974609999996,70.38476599999922,566.6665039999998,36.025878999999804,132.56396500000028,141.0258789999998,140.12841800000024,134.7436520000001,129.10253900000043,320.0,12.307617000000391,691.2822270000006,118.20507799999996
341,1940.5126950000003,646.2822270000006,76.2822270000006,559.7436520000001,34.61523400000078,134.61523400000078,146.6665039999998,141.2822270000006,133.7177729999994,131.0258789999998,313.7177729999994,19.230956999999762,672.1796880000002,116.41015599999992
342,1877.4360349999997,644.7436520000001,79.74365200000011,550.1284180000002,30.51269500000035,135.0,148.58984400000008,139.3588869999994,131.6665039999998,136.0258789999998,308.0771479999994,24.102539000000434,654.8715819999998,113.20507799999996
343,1805.5126950000003,635.3847659999992,78.58984400000008,532.8203130000002,27.43603499999972,134.7436520000001,144.61523400000078,133.84619099999964,129.87158199999976,140.2563479999999,301.0258789999998,24.871581999999762,638.205078,114.10253900000043
344,1722.1796880000002,624.7436520000001,74.87158199999976,509.87158199999976,23.589844000000085,134.23095699999976,136.9228520000006,126.9228520000006,129.3588869999994,138.20507799999996,293.20507799999996,22.17968800000017,621.2822270000006,116.15380900000036
345,1628.589844,618.4614259999998,72.69238299999961,489.23095699999976,14.358886999999413,132.05126999999993,129.7436520000001,122.17968800000017,129.3588869999994,127.82031300000017,287.5639650000003,18.846190999999635,603.8461909999996,113.7177729999994
346,1526.794922,617.1796880000002,74.74365200000011,474.87158199999976,-3.077147999999397,127.17968800000017,126.6665039999998,121.53857400000015,128.84619099999964,112.69238299999961,285.89746099999957,17.94873000000007,585.7690430000002,109.10253900000043
347,1417.3076170000004,617.1796880000002,79.48730499999965,462.4360349999997,-24.8718259999996,121.0258789999998,127.56396500000028,124.35888699999941,127.56396500000028,100.89746099999957,285.6411130000006,20.128418000000238,567.3076170000004,109.74365200000011
348,1300.7690430000002,615.7690430000002,83.3334960000002,442.82031300000017,-41.53857400000015,117.43603499999972,130.38476599999922,127.43603499999972,125.64111300000059,99.35888699999941,282.17968800000017,22.43603499999972,548.9741210000002,115.25634799999989
349,1180.3847659999992,613.5898440000001,83.9741210000002,411.4101559999999,-41.79492200000004,119.35888699999941,132.05126999999993,128.46142599999985,124.10253900000043,108.46142599999985,272.6923829999996,21.282227000000603,530.5126950000003,118.0771479999994
350,1061.2822270000006,611.5385740000002,82.94873000000007,371.9228520000006,-20.1281740000004,125.76904300000024,131.53857400000015,127.30761700000039,123.9741210000002,122.82031300000017,258.0771479999994,15.897460999999566,510.2563479999999,115.64111300000059
351,947.5639650000003,608.5898440000001,83.9741210000002,332.94873000000007,19.48730499999965,133.0771479999994,130.0,125.64111300000059,125.76904300000024,134.3588869999994,242.3076170000004,8.717772999999397,486.15380900000036,114.10253900000043
352,840.3847659999992,602.5639650000003,89.74365200000011,300.2563479999999,65.89746099999957,137.6923829999996,129.3588869999994,125.89746099999957,129.48730499999965,138.3334960000002,229.7436520000001,5.3847659999992175,458.20507799999996,115.89746099999957
353,738.0771479999994,593.7177729999994,99.35888699999941,273.5898440000001,108.84619099999964,139.23095699999976,131.79492200000004,130.0,135.51269500000035,137.05126999999993,222.05126999999993,10.128418000000238,428.5898440000001,115.76904300000024
354,638.8461909999996,583.9741210000002,109.35888699999941,248.3334960000002,144.3588869999994,139.48730499999965,137.43603499999972,137.43603499999972,142.94873000000007,137.17968800000017,218.58984400000008,22.56396500000028,398.46142599999985,111.41015599999992
355,540.0,573.8461909999996,115.76904300000024,220.51269500000035,176.15380900000036,140.2563479999999,145.0,145.6411130000006,150.38476599999922,142.94873000000007,216.15380900000036,37.30761700000039,365.3847659999992,109.10253900000043
356,439.7436520000001,561.2822270000006,117.17968800000017,190.6411130000006,211.15380900000036,141.79492200000004,150.6411130000006,151.0258789999998,155.76904300000024,151.53857400000015,211.0258789999998,46.9228520000006,326.6665039999998,113.3334960000002
357,338.20507799999996,543.9741210000002,115.25634799999989,161.6665039999998,254.7436520000001,143.0771479999994,151.15380900000036,151.9228520000006,157.3076170000004,154.87158199999976,201.2822270000006,48.20507799999996,283.3334960000002,118.3334960000002
358,238.58984400000008,523.205078,113.7177729999994,137.3076170000004,307.82031300000017,142.82031300000017,146.41015599999992,148.58984400000008,155.2563479999999,148.7177729999994,187.56396500000028,43.46142599999985,241.53857400000015,117.69238299999961
359,146.0258789999998,503.7177729999994,115.0,118.0771479999994,363.46142599999985,141.6665039999998,140.0,143.46142599999985,151.79492200000004,137.56396500000028,172.43603499999972,38.846190999999635,207.05126999999993,114.87158199999976
360,62.69238299999961,491.0258789999998,119.48730499999965,102.17968800000017,407.3076170000004,141.0258789999998,136.15380900000036,139.23095699999976,149.87158199999976,130.2563479999999,159.3588869999994,39.102539000000434,180.51269500000035,115.89746099999957
361,-14.743652000000111,485.6411130000006,124.74365200000011,85.64111300000059,422.94873000000007,142.05126999999993,135.51269500000035,136.2822270000006,150.51269500000035,130.6411130000006,150.12841800000024,44.48730499999965,154.87158199999976,118.3334960000002
362,-92.82055700000001,481.4101559999999,127.94873000000007,65.76904300000024,402.5639650000003,142.17968800000017,135.2563479999999,133.20507799999996,151.9228520000006,133.58984400000008,143.58984400000008,51.025878999999804,119.35888699999941,116.15380900000036
363,-175.0,469.87158199999976,127.94873000000007,43.7177729999994,356.15380900000036,137.43603499999972,132.3076170000004,128.3334960000002,151.0258789999998,131.41015599999992,136.79492200000004,55.12841800000024,67.43603499999972,111.2822270000006
364,-257.6923829999996,448.84619099999964,126.15380900000036,25.0,312.17968800000017,126.9228520000006,126.2822270000006,122.56396500000028,146.9228520000006,122.82031300000017,127.17968800000017,57.05126999999993,4.230956999999762,110.64111300000059
365,-332.0512700000004,425.0,126.53857400000015,15.641113000000587,302.05126999999993,116.0258789999998,120.76904300000024,119.35888699999941,142.6923829999996,115.25634799999989,114.87158199999976,59.23095699999976,-55.51293900000019,114.48730499999965
366,-392.0512700000004,408.0771479999994,131.6665039999998,16.410155999999915,339.6152340000008,111.9228520000006,119.61523400000078,121.41015599999992,142.6923829999996,118.58984400000008,102.82031300000017,64.35888699999941,-97.43579099999943,116.0258789999998
367,-441.02563499999997,401.9228520000006,140.0,23.077147999999397,410.51269500000035,116.53857400000015,123.58984400000008,127.56396500000028,148.7177729999994,135.89746099999957,93.0771479999994,71.9228520000006,-118.07690400000001,113.84619099999964
368,-489.7436520000001,401.79492200000004,148.0771479999994,29.358886999999413,483.9741210000002,124.87158199999976,129.7436520000001,133.9741210000002,158.20507799999996,159.7436520000001,86.41015599999992,79.23095699999976,-127.69238299999961,112.56396500000028
369,-547.6923829999996,398.84619099999964,152.6923829999996,30.769043000000238,537.1796880000002,129.7436520000001,133.58984400000008,136.9228520000006,165.6411130000006,175.89746099999957,81.53857400000015,84.10253900000043,-141.02563499999997,113.58984400000008
370,-616.794922,387.3076170000004,153.46142599999985,25.384765999999217,569.8715819999998,127.56396500000028,132.17968800000017,135.2563479999999,166.2822270000006,173.9741210000002,75.89746099999957,85.64111300000059,-166.66674799999964,112.17968800000017
371,-691.6667479999996,367.5639650000003,151.41015599999992,14.230956999999762,598.7177729999994,118.9741210000002,125.76904300000024,129.87158199999976,159.61523400000078,154.87158199999976,66.9228520000006,84.35888699999941,-201.53857400000015,107.56396500000028
372,-762.820557,345.2563479999999,148.0771479999994,2.1796880000001693,639.2309569999998,107.69238299999961,116.9228520000006,122.94873000000007,149.10253900000043,130.89746099999957,53.0771479999994,81.2822270000006,-236.02563499999997,106.2822270000006
373,-823.3332519999999,327.3076170000004,145.38476599999922,-4.61547900000005,691.9228520000006,98.46142599999985,108.9741210000002,116.6665039999998,139.7436520000001,116.79492200000004,36.79492200000004,78.58984400000008,-262.6923829999996,111.15380900000036
374,-871.923096,315.51269500000035,145.0,-2.1796869999998307,742.8203130000002,95.25634799999989,104.23095699999976,112.94873000000007,135.38476599999922,118.58984400000008,23.974121000000196,78.20507799999996,-282.0512700000004,114.61523400000078
375,-913.718018,305.89746099999957,147.05126999999993,7.43603499999972,774.3588869999994,98.84619099999964,102.69238299999961,111.79492200000004,136.0258789999998,130.6411130000006,18.461425999999847,80.38476599999922,-301.66674799999964,111.15380900000036
376,-954.7436520000001,292.6923829999996,149.87158199999976,17.43603499999972,778.9741210000002,105.64111300000059,102.30761700000039,112.05126999999993,139.23095699999976,141.6665039999998,19.48730499999965,83.3334960000002,-329.61547900000005,105.64111300000059
377,-996.4101559999999,275.12841800000024,151.15380900000036,21.666503999999804,765.2563479999999,109.87158199999976,101.79492200000004,112.05126999999993,141.41015599999992,144.87158199999976,21.538574000000153,85.76904300000024,-366.41015600000037,105.76904300000024
378,-1034.4870609999998,257.4360349999997,150.0,19.871581999999762,753.0771479999994,107.82031300000017,100.64111300000059,111.0258789999998,140.6411130000006,141.2822270000006,19.358886999999413,88.0771479999994,-403.97436500000003,109.35888699999941
379,-1064.4870609999998,244.3588869999994,147.56396500000028,16.282227000000603,756.9228520000006,100.64111300000059,99.23095699999976,110.25634799999989,137.43603499999972,135.51269500000035,11.922852000000603,91.53857400000015,-431.28198199999997,109.87158199999976
380,-1085.769287,235.76904300000024,146.0258789999998,16.153809000000365,774.4873049999997,92.05126999999993,96.9228520000006,110.38476599999922,134.23095699999976,131.6665039999998,2.6923829999996087,96.79492200000004,-441.923096,107.43603499999972
381,-1101.794922,227.94873000000007,146.15380900000036,21.282227000000603,790.3847659999992,85.76904300000024,93.0771479999994,110.38476599999922,132.3076170000004,130.0,-4.102538999999979,102.69238299999961,-438.97436500000003,106.53857400000015
382,-1117.4357909999999,219.48730499999965,147.43603499999972,30.128418000000238,790.5126950000003,83.20507799999996,88.20507799999996,108.84619099999964,130.89746099999957,128.20507799999996,-6.025634999999966,106.2822270000006,-432.3076170000004,107.05126999999993
383,-1134.615479,212.94873000000007,149.10253900000043,39.35888699999941,773.4614259999998,84.10253900000043,84.61523400000078,105.64111300000059,128.58984400000008,123.3334960000002,-3.846190999999635,105.76904300000024,-431.79492200000004,104.74365200000011
