,EEG.AF3,EEG.F7,EEG.F3,EEG.FC5,EEG.T7,EEG.P7,EEG.O1,EEG.O2,EEG.P8,EEG.T8,EEG.FC6,EEG.F4,EEG.F8,EEG.AF4
0,263.20507799999996,121.41015599999992,100.89746099999957,113.3334960000002,95.25634799999989,104.74365200000011,104.87158199999976,100.25634799999989,91.6665039999998,81.79492200000004,102.69238299999961,100.89746099999957,88.9741210000002,104.23095699999976
1,263.0771479999994,126.0258789999998,101.15380900000036,109.48730499999965,92.56396500000028,104.61523400000078,109.48730499999965,102.69238299999961,93.58984400000008,81.9228520000006,112.30761700000039,102.17968800000017,93.20507799999996,100.89746099999957
2,267.5639650000003,130.89746099999957,106.53857400000015,113.20507799999996,95.38476599999922,109.74365200000011,116.2822270000006,107.30761700000039,98.46142599999985,85.64111300000059,127.05126999999993,110.38476599999922,103.3334960000002,102.56396500000028
3,273.3334960000002,132.56396500000028,112.94873000000007,121.2822270000006,103.3334960000002,117.69238299999961,121.15380900000036,110.89746099999957,103.46142599999985,91.79492200000004,138.0771479999994,119.10253900000043,113.20507799999996,107.05126999999993
4,275.6411130000006,130.51269500000035,114.87158199999976,126.41015599999992,111.9228520000006,122.82031300000017,119.87158199999976,110.76904300000024,105.25634799999989,97.43603499999972,138.9741210000002,121.2822270000006,117.43603499999972,106.9228520000006
5,270.89746099999957,126.53857400000015,110.12841800000024,122.43603499999972,115.76904300000024,120.25634799999989,112.69238299999961,106.6665039999998,102.30761700000039,98.7177729999994,129.7436520000001,114.35888699999941,115.0,102.56396500000028
6,260.2563479999999,123.3334960000002,101.41015599999992,110.25634799999989,113.3334960000002,110.76904300000024,104.35888699999941,101.79492200000004,97.17968800000017,94.87158199999976,116.0258789999998,103.46142599999985,109.10253900000043,101.41015599999992
7,250.2563479999999,123.20507799999996,95.12841800000024,98.46142599999985,108.58984400000008,100.64111300000059,101.15380900000036,100.38476599999922,94.48730499999965,89.61523400000078,106.15380900000036,97.05126999999993,105.76904300000024,105.25634799999989
8,247.82031300000017,127.05126999999993,96.53857400000015,96.15380900000036,108.20507799999996,97.43603499999972,106.0258789999998,104.61523400000078,97.17968800000017,88.3334960000002,105.64111300000059,100.0,108.3334960000002,107.05126999999993
9,254.48730499999965,132.56396500000028,104.87158199999976,106.15380900000036,114.10253900000043,102.82031300000017,115.0,111.79492200000004,103.9741210000002,92.94873000000007,113.84619099999964,109.61523400000078,114.10253900000043,103.9741210000002
10,265.2563479999999,135.6411130000006,113.84619099999964,122.05126999999993,120.76904300000024,111.0258789999998,120.64111300000059,115.12841800000024,109.48730499999965,99.87158199999976,123.9741210000002,117.56396500000028,116.53857400000015,102.17968800000017
11,273.46142599999985,134.61523400000078,116.15380900000036,133.3334960000002,121.0258789999998,114.23095699999976,117.69238299999961,110.38476599999922,108.0771479999994,102.30761700000039,128.46142599999985,117.94873000000007,111.41015599999992,105.12841800000024
12,275.2563479999999,131.6665039999998,110.25634799999989,133.46142599999985,112.69238299999961,110.12841800000024,108.20507799999996,100.25634799999989,99.35888699999941,95.64111300000059,124.87158199999976,110.89746099999957,100.76904300000024,106.9228520000006
13,269.3588869999994,128.7177729999994,100.76904300000024,123.0771479999994,100.12841800000024,102.05126999999993,98.84619099999964,91.6665039999998,87.94873000000007,81.79492200000004,116.9228520000006,101.2822270000006,90.89746099999957,103.3334960000002
14,255.76904300000024,123.7177729999994,93.7177729999994,108.9741210000002,88.7177729999994,94.23095699999976,94.35888699999941,88.58984400000008,79.61523400000078,67.30761700000039,109.87158199999976,93.84619099999964,85.51269500000035,99.35888699999941
15,239.87158199999976,114.10253900000043,92.43603499999972,100.0,82.56396500000028,89.10253900000043,95.0,90.12841800000024,77.69238299999961,60.38476599999922,107.30761700000039,91.0258789999998,85.76904300000024,100.89746099999957
16,233.46142599999985,104.35888699999941,97.17968800000017,102.05126999999993,84.35888699999941,88.58984400000008,99.61523400000078,93.7177729999994,82.56396500000028,65.25634799999989,110.64111300000059,95.0,92.05126999999993,104.48730499999965
17,245.12841800000024,103.7177729999994,106.6665039999998,114.10253900000043,95.0,94.23095699999976,108.0771479999994,99.61523400000078,92.56396500000028,80.25634799999989,117.94873000000007,106.9228520000006,103.7177729999994,104.35888699999941
18,268.3334960000002,116.9228520000006,117.56396500000028,126.79492200000004,110.89746099999957,104.23095699999976,119.61523400000078,108.46142599999985,104.35888699999941,97.30761700000039,123.7177729999994,123.20507799999996,115.0,102.94873000000007
19,283.20507799999996,135.38476599999922,124.10253900000043,129.7436520000001,123.20507799999996,112.17968800000017,129.7436520000001,117.17968800000017,112.56396500000028,106.15380900000036,121.2822270000006,134.23095699999976,116.53857400000015,105.76904300000024
20,274.6152340000008,143.46142599999985,121.6665039999998,121.6665039999998,122.56396500000028,112.69238299999961,132.56396500000028,120.64111300000059,112.94873000000007,100.64111300000059,109.48730499999965,131.53857400000015,104.61523400000078,109.74365200000011
21,247.3076170000004,133.7177729999994,111.79492200000004,111.79492200000004,107.94873000000007,106.6665039999998,126.2822270000006,117.05126999999993,106.15380900000036,85.76904300000024,95.38476599999922,116.0258789999998,87.82031300000017,108.0771479999994
22,219.10253900000043,113.9741210000002,102.05126999999993,109.48730499999965,89.61523400000078,100.25634799999989,115.76904300000024,110.0,98.7177729999994,74.87158199999976,88.20507799999996,98.3334960000002,80.51269500000035,102.17968800000017
23,201.6665039999998,99.87158199999976,100.64111300000059,113.9741210000002,81.9228520000006,98.7177729999994,108.20507799999996,104.61523400000078,97.05126999999993,78.20507799999996,90.89746099999957,89.61523400000078,88.9741210000002,99.87158199999976
24,191.79492200000004,97.56396500000028,111.15380900000036,116.41015599999992,93.20507799999996,102.30761700000039,108.3334960000002,103.58984400000008,101.9228520000006,94.23095699999976,98.3334960000002,95.12841800000024,103.84619099999964,102.94873000000007
25,178.7177729999994,99.35888699999941,128.9741210000002,110.38476599999922,117.30761700000039,107.43603499999972,114.35888699999941,105.89746099999957,108.46142599999985,110.89746099999957,103.7177729999994,111.0258789999998,107.94873000000007,105.0
26,155.0,91.53857400000015,142.3076170000004,96.9228520000006,135.89746099999957,108.58984400000008,118.84619099999964,106.9228520000006,109.48730499999965,114.74365200000011,101.41015599999992,125.64111300000059,89.35888699999941,103.7177729999994
27,121.15380900000036,70.12841800000024,140.2563479999999,81.9228520000006,131.6665039999998,100.76904300000024,113.46142599999985,101.2822270000006,100.38476599999922,101.15380900000036,88.0771479999994,124.48730499999965,50.897460999999566,103.9741210000002
28,85.25634799999989,44.35888699999941,123.58984400000008,70.89746099999957,105.51269500000035,85.12841800000024,98.7177729999994,89.48730499999965,85.25634799999989,77.82031300000017,66.9228520000006,102.94873000000007,10.769043000000238,107.30761700000039
29,56.2822270000006,26.282227000000603,108.9741210000002,66.79492200000004,78.84619099999964,72.05126999999993,85.64111300000059,80.38476599999922,75.0,61.410155999999915,49.61523400000078,77.05126999999993,-8.076904000000013,107.43603499999972
30,36.79492200000004,16.922852000000603,116.41015599999992,69.87158199999976,75.76904300000024,74.61523400000078,86.79492200000004,83.9741210000002,79.61523400000078,64.48730499999965,47.82031300000017,74.10253900000043,0.6411130000005869,101.79492200000004
31,24.102539000000434,8.846190999999635,150.51269500000035,78.7177729999994,99.48730499999965,94.74365200000011,102.56396500000028,100.12841800000024,97.30761700000039,84.61523400000078,60.12841800000024,109.23095699999976,18.589844000000085,97.43603499999972
32,26.538574000000153,3.717772999999397,191.6665039999998,86.79492200000004,127.56396500000028,119.48730499999965,118.7177729999994,115.76904300000024,114.74365200000011,105.12841800000024,72.82031300000017,166.53857400000015,19.230956999999762,99.61523400000078
33,77.69238299999961,16.410155999999915,211.2822270000006,83.84619099999964,133.20507799999996,131.0258789999998,120.38476599999922,117.56396500000028,119.10253900000043,110.12841800000024,73.58984400000008,207.94873000000007,-2.1796869999998307,102.69238299999961
34,224.10253900000043,57.30761700000039,194.87158199999976,65.76904300000024,110.76904300000024,123.46142599999985,107.30761700000039,105.0,110.0,100.12841800000024,62.69238299999961,202.56396500000028,-20.38452099999995,100.64111300000059
35,489.3588869999994,111.2822270000006,155.51269500000035,45.897460999999566,82.94873000000007,108.20507799999996,94.48730499999965,92.43603499999972,101.41015599999992,92.43603499999972,49.48730499999965,153.46142599999985,-1.7949220000000423,97.17968800000017
36,846.5385740000002,143.46142599999985,122.05126999999993,48.846190999999635,79.48730499999965,101.9228520000006,98.20507799999996,95.89746099999957,108.7177729999994,103.20507799999996,43.20507799999996,94.87158199999976,63.333496000000196,98.58984400000008
37,1230.3847659999992,130.6411130000006,115.0,86.9228520000006,108.0771479999994,110.25634799999989,119.48730499999965,117.05126999999993,132.6923829999996,129.61523400000078,46.9228520000006,63.46142599999985,150.89746099999957,102.30761700000039
38,1585.3847659999992,85.38476599999922,130.89746099999957,144.48730499999965,145.0,123.46142599999985,142.3076170000004,140.51269500000035,157.6923829999996,151.41015599999992,60.0,70.0,228.20507799999996,101.41015599999992
39,1910.1284180000002,49.87158199999976,148.58984400000008,188.46142599999985,155.6411130000006,126.53857400000015,148.3334960000002,147.94873000000007,166.2822270000006,151.0258789999998,84.61523400000078,95.0,289.7436520000001,97.94873000000007
40,2250.0,67.30761700000039,147.6923829999996,196.0258789999998,126.0258789999998,115.25634799999989,134.3588869999994,135.89746099999957,156.15380900000036,131.53857400000015,129.7436520000001,108.0771479999994,372.17968800000017,98.7177729999994
41,2640.769043000001,152.6923829999996,122.30761700000039,172.6923829999996,75.64111300000059,99.48730499999965,114.23095699999976,117.82031300000017,140.2563479999999,113.0771479999994,204.61523400000078,91.79492200000004,530.1284180000002,103.46142599999985
42,3055.128418000001,277.82031300000017,83.0771479999994,147.6923829999996,40.0,93.46142599999985,106.2822270000006,111.9228520000006,135.12841800000024,114.48730499999965,306.9228520000006,51.410155999999915,791.4101559999999,105.51269500000035
43,3409.4873049999997,382.05126999999993,49.102539000000434,154.61523400000078,40.25634799999989,102.94873000000007,118.58984400000008,125.12841800000024,147.05126999999993,138.46142599999985,418.3334960000002,9.487304999999651,1126.6665039999998,104.61523400000078
44,3624.230956999999,409.6152340000008,37.17968800000017,208.58984400000008,67.17968800000017,122.82031300000017,146.2822270000006,150.89746099999957,170.38476599999922,174.23095699999976,511.9228520000006,-10.1281740000004,1463.589844,106.53857400000015
45,3682.8203129999993,350.2563479999999,51.53857400000015,291.4101559999999,90.89746099999957,142.17968800000017,177.56396500000028,176.9228520000006,193.20507799999996,207.17968800000017,567.3076170000004,1.7949220000000423,1731.6665039999998,111.41015599999992
46,3636.410156,248.20507799999996,79.87158199999976,357.5639650000003,84.10253900000043,150.38476599999922,200.38476599999922,193.3334960000002,205.6411130000006,226.79492200000004,581.9228520000006,30.128418000000238,1903.3334960000002,112.30761700000039
47,3563.589844,167.94873000000007,100.12841800000024,367.82031300000017,40.897460999999566,142.3076170000004,206.9228520000006,195.76904300000024,203.0771479999994,229.48730499999965,572.1796880000002,46.666503999999804,2004.3588869999994,107.56396500000028
48,3524.1025390000004,151.41015599999992,97.30761700000039,325.2563479999999,-18.974365000000034,122.69238299999961,197.43603499999972,186.53857400000015,188.9741210000002,220.6411130000006,566.1538090000004,33.333496000000196,2091.794922,105.51269500000035
49,3532.1796879999993,200.51269500000035,73.7177729999994,278.9741210000002,-62.69238299999961,105.76904300000024,181.2822270000006,174.7436520000001,172.6923829999996,213.3334960000002,585.8974609999996,-2.3076170000003913,2216.410156,110.64111300000059
50,3560.8974609999996,289.7436520000001,46.53857400000015,284.48730499999965,-66.02563499999997,103.9741210000002,170.89746099999957,170.89746099999957,164.87158199999976,221.53857400000015,633.9741210000002,-35.25634799999989,2390.8974609999996,116.9228520000006
51,3572.05127,386.2822270000006,35.0,355.12841800000024,-27.820557000000008,117.69238299999961,175.6411130000006,181.9228520000006,171.41015599999992,251.2822270000006,694.8715819999998,-44.23071300000038,2585.384765999999,118.20507799999996
52,3551.0258790000007,461.6665039999998,46.025878999999804,451.6665039999998,31.153809000000365,135.12841800000024,195.51269500000035,205.12841800000024,190.51269500000035,297.3076170000004,750.8974609999996,-27.179442999999992,2754.743651999999,118.46142599999985
53,3516.6665040000007,497.5639650000003,68.3334960000002,517.8203130000002,81.41015599999992,142.82031300000017,220.0,229.3588869999994,212.6923829999996,344.87158199999976,795.0,-1.2822270000006029,2869.871581999999,123.0771479999994
54,3495.6411129999997,492.4360349999997,81.41015599999992,530.0,101.0258789999998,134.48730499999965,233.9741210000002,240.6411130000006,225.2563479999999,376.2822270000006,827.1796880000002,11.153809000000365,2930.769043000001,127.82031300000017
55,3495.256348000001,467.94873000000007,71.15380900000036,510.51269500000035,86.41015599999992,113.9741210000002,228.20507799999996,231.9228520000006,221.0258789999998,382.82031300000017,847.4360349999997,-1.6665039999998044,2957.8203129999993,126.53857400000015
56,3502.1796879999993,460.0,41.410155999999915,499.48730499999965,55.76904300000024,92.05126999999993,207.3076170000004,209.61523400000078,204.48730499999965,372.6923829999996,855.8974609999996,-32.435790999999426,2974.871581999999,122.43603499999972
57,3503.9741209999993,492.4360349999997,11.025878999999804,517.8203130000002,40.38476599999922,81.41015599999992,188.46142599999985,189.7436520000001,189.3588869999994,366.4101559999999,855.3847659999992,-60.38452099999995,2995.769043000001,123.20507799999996
58,3501.1538090000004,555.0,-0.8974609999995664,557.9487300000001,66.6665039999998,90.76904300000024,187.94873000000007,187.3076170000004,188.7177729999994,380.51269500000035,851.0258789999998,-67.30761700000039,3021.1538090000004,127.94873000000007
59,3499.871581999999,609.8715819999998,10.384765999999217,599.1025390000004,138.3334960000002,116.9228520000006,207.56396500000028,203.7177729999994,204.48730499999965,414.3588869999994,848.3334960000002,-51.153809000000365,3044.3588870000003,129.7436520000001
60,3501.410156,625.5126950000003,31.410155999999915,621.1538090000004,231.6665039999998,143.3334960000002,232.3076170000004,225.51269500000035,225.51269500000035,450.0,851.2822270000006,-28.461425999999847,3057.5639650000003,127.94873000000007
61,3502.4360349999997,604.2309569999998,41.79492200000004,613.3334960000002,309.10253900000043,151.2822270000006,242.3076170000004,234.61523400000078,235.6411130000006,466.15380900000036,860.5126950000003,-22.179442999999992,3056.0258790000007,128.9741210000002
62,3501.5385739999992,577.0512699999999,32.82031300000017,583.8461909999996,345.89746099999957,136.0258789999998,230.0,223.58984400000008,227.43603499999972,456.4101559999999,871.794922,-39.8718259999996,3038.8461909999996,133.7177729999994
63,3500.5126950000003,575.5126950000003,15.128418000000238,558.9741210000002,346.2822270000006,112.05126999999993,206.9228520000006,203.20507799999996,209.61523400000078,434.7436520000001,879.3588869999994,-64.8718259999996,3008.4614260000008,135.0
64,3501.1538090000004,608.0771479999994,7.948730000000069,564.4873049999997,336.9228520000006,100.38476599999922,193.20507799999996,192.56396500000028,199.10253900000043,424.3588869999994,880.0,-69.74365200000011,2969.615234000001,130.76904300000024
65,3502.1796879999993,657.9487300000001,20.769043000000238,601.5385740000002,343.46142599999985,110.12841800000024,200.76904300000024,202.6923829999996,206.6665039999998,438.20507799999996,876.0258789999998,-42.948729999999614,2929.871581999999,128.46142599999985
66,3502.1796879999993,696.6665039999998,47.30761700000039,647.0512699999999,372.4360349999997,132.94873000000007,223.9741210000002,227.17968800000017,228.0771479999994,468.3334960000002,873.7177729999994,0.12841800000023795,2897.05127,132.56396500000028
67,3501.2822269999997,703.3334960000002,71.41015599999992,676.0258789999998,409.7436520000001,152.82031300000017,245.76904300000024,247.94873000000007,247.43603499999972,493.7177729999994,878.5898440000001,29.871581999999762,2875.769043000001,137.3076170000004
68,3500.769043000001,679.8715819999998,79.61523400000078,682.5639650000003,433.46142599999985,158.0771479999994,251.15380900000036,249.87158199999976,250.51269500000035,497.82031300000017,890.6411130000006,25.641113000000587,2863.3334959999993,136.9228520000006
69,3501.1538090000004,650.6411130000006,67.94873000000007,678.3334960000002,431.53857400000015,148.84619099999964,237.3076170000004,231.79492200000004,235.12841800000024,481.0258789999998,903.7177729999994,-9.61547900000005,2850.5126950000003,134.7436520000001
70,3501.6665040000007,645.0,43.0771479999994,676.2822270000006,410.3847659999992,133.20507799999996,213.9741210000002,205.89746099999957,212.17968800000017,457.17968800000017,911.0258789999998,-53.07690400000001,2826.2822269999997,136.0258789999998
71,3501.794922,671.5385740000002,18.333496000000196,681.1538090000004,391.0258789999998,121.53857400000015,194.7436520000001,188.20507799999996,196.2822270000006,441.4101559999999,909.3588869999994,-80.1281740000004,2785.6411129999997,137.82031300000017
72,3501.1538090000004,711.6665039999998,5.897460999999566,690.7690430000002,393.3334960000002,120.25634799999989,188.20507799999996,186.9228520000006,194.87158199999976,439.7436520000001,901.0258789999998,-80.1281740000004,2733.4614260000008,135.38476599999922
73,3500.6411129999997,737.0512699999999,9.871581999999762,700.1284180000002,424.10253900000043,128.7177729999994,194.3588869999994,198.58984400000008,204.87158199999976,448.0771479999994,889.2309569999998,-61.66674799999964,2680.256348000001,131.41015599999992
74,3500.6411129999997,733.205078,24.230956999999762,702.0512699999999,474.7436520000001,139.87158199999976,206.6665039999998,212.17968800000017,216.79492200000004,457.94873000000007,875.5126950000003,-42.69238299999961,2633.205078,132.43603499999972
75,3500.769043000001,708.205078,38.846190999999635,691.2822270000006,530.5126950000003,145.2563479999999,216.53857400000015,218.0771479999994,221.9228520000006,462.17968800000017,860.3847659999992,-36.28198199999997,2590.256348,136.41015599999992
76,3501.0258790000007,681.2822270000006,46.79492200000004,669.3588869999994,579.3588869999994,141.53857400000015,218.58984400000008,213.20507799999996,217.3076170000004,457.82031300000017,844.3588869999994,-43.46142599999985,2544.3588869999994,136.6665039999998
77,3501.0258790000007,666.6665039999998,47.30761700000039,645.5126950000003,615.6411130000006,132.6923829999996,212.17968800000017,201.0258789999998,206.9228520000006,446.6665039999998,827.6923829999996,-56.66674799999964,2490.256348,132.82031300000017
78,3500.8974609999996,667.1796880000002,43.46142599999985,630.7690430000002,638.0771479999994,126.0258789999998,201.15380900000036,188.20507799999996,196.9228520000006,433.9741210000002,811.0258789999998,-67.94872999999961,2429.3588869999994,131.53857400000015
79,3500.8974609999996,677.9487300000001,37.69238299999961,628.4614259999998,648.5898440000001,125.51269500000035,191.41015599999992,180.89746099999957,191.9228520000006,425.0,797.3076170000004,-73.84619099999964,2367.3076170000004,133.9741210000002
80,3500.8974609999996,692.0512699999999,33.0771479999994,633.9741210000002,653.4614259999998,129.87158199999976,187.94873000000007,181.79492200000004,192.43603499999972,422.82031300000017,789.7436520000001,-73.97436500000003,2309.2309569999998,134.61523400000078
81,3500.8974609999996,703.3334960000002,34.23095699999976,641.4101559999999,661.6665039999998,135.0,193.3334960000002,189.7436520000001,197.05126999999993,426.79492200000004,788.5898440000001,-69.61547900000005,2256.666504,132.05126999999993
82,3500.8974609999996,707.0512699999999,45.25634799999989,648.9741210000002,679.6152340000008,138.84619099999964,205.38476599999922,201.0258789999998,204.61523400000078,432.94873000000007,790.2563479999999,-61.41015600000037,2209.615234000001,132.05126999999993
83,3500.8974609999996,701.2822270000006,65.12841800000024,654.6152340000008,704.6152340000008,142.3076170000004,218.58984400000008,211.41015599999992,213.3334960000002,435.2563479999999,788.7177729999994,-51.28198199999997,2167.5639650000003,136.2822270000006
84,3500.8974609999996,688.7177729999994,85.38476599999922,651.794922,725.0,147.3076170000004,225.89746099999957,216.6665039999998,218.9741210000002,428.20507799999996,777.9487300000001,-43.20507799999996,2126.9228520000006,138.20507799999996
85,3500.8974609999996,674.7436520000001,93.84619099999964,634.2309569999998,727.5639650000003,152.56396500000028,222.17968800000017,213.84619099999964,217.17968800000017,410.6411130000006,754.7436520000001,-41.66674799999964,2081.666504,134.61523400000078
86,3500.8974609999996,663.9741210000002,83.84619099999964,604.8715819999998,708.205078,154.61523400000078,208.84619099999964,202.6923829999996,206.41015599999992,388.46142599999985,721.9228520000006,-48.46142599999985,2028.0771479999994,131.41015599999992
87,3500.8974609999996,657.8203130000002,59.74365200000011,577.1796880000002,678.0771479999994,150.38476599999922,193.20507799999996,187.82031300000017,191.53857400000015,371.15380900000036,689.3588869999994,-59.10253899999998,1970.0,133.9741210000002
88,3500.8974609999996,655.0,35.64111300000059,563.4614259999998,656.4101559999999,141.15380900000036,183.84619099999964,176.9228520000006,180.76904300000024,364.48730499999965,669.1025390000004,-66.79492200000004,1916.0258789999998,137.6923829999996
89,3500.8974609999996,653.205078,26.282227000000603,563.7177729999994,655.5126950000003,132.17968800000017,185.12841800000024,176.15380900000036,179.61523400000078,366.2822270000006,665.2563479999999,-67.69238299999961,1873.0771479999994,136.41015599999992
90,3500.8974609999996,650.0,36.153809000000365,566.4101559999999,669.2309569999998,129.87158199999976,193.9741210000002,184.10253900000043,186.6665039999998,369.10253900000043,669.7436520000001,-64.35888699999987,1842.3076170000004,133.0771479999994
91,3501.0258790000007,644.1025390000004,55.12841800000024,558.9741210000002,678.205078,135.76904300000024,201.9228520000006,192.3076170000004,193.7177729999994,365.89746099999957,668.9741210000002,-63.71801800000003,1818.7177729999994,134.3588869999994
92,3501.1538090000004,636.2822270000006,67.17968800000017,538.7177729999994,668.3334960000002,145.76904300000024,202.6923829999996,192.82031300000017,193.3334960000002,354.7436520000001,655.1284180000002,-70.51293900000019,1796.5385740000002,137.82031300000017
93,3502.05127,630.6411130000006,65.25634799999989,513.3334960000002,644.3588869999994,154.23095699999976,197.82031300000017,184.7436520000001,185.89746099999957,340.76904300000024,632.8203130000002,-81.15380900000036,1771.794922,136.6665039999998
94,3503.8461909999996,630.5126950000003,56.2822270000006,494.87158199999976,625.2563479999999,157.94873000000007,193.58984400000008,175.12841800000024,179.23095699999976,331.6665039999998,612.6923829999996,-85.64111300000013,1741.9228520000006,132.56396500000028
95,3505.8974609999996,635.2563479999999,51.9228520000006,489.7436520000001,624.6152340000008,156.15380900000036,194.3588869999994,171.0258789999998,179.61523400000078,330.12841800000024,600.5126950000003,-78.07690400000001,1705.6411130000006,132.82031300000017
96,3507.3076170000004,639.4873049999997,57.17968800000017,494.3588869999994,637.4360349999997,150.89746099999957,197.6923829999996,173.9741210000002,185.89746099999957,331.15380900000036,592.6923829999996,-62.435790999999426,1663.4614259999998,137.43603499999972
97,3507.6923829999996,638.3334960000002,66.6665039999998,497.6923829999996,645.2563479999999,145.0,199.10253900000043,179.48730499999965,191.6665039999998,328.84619099999964,581.6665039999998,-49.48706099999981,1619.3588869999994,138.9741210000002
98,3508.7177730000003,630.2563479999999,72.69238299999961,490.2563479999999,634.7436520000001,141.2822270000006,197.43603499999972,183.20507799999996,192.17968800000017,323.84619099999964,565.2563479999999,-45.89746100000002,1578.9741210000002,135.51269500000035
99,3511.794922,618.205078,72.43603499999972,471.79492200000004,610.6411130000006,141.79492200000004,196.41015599999992,183.9741210000002,188.84619099999964,322.82031300000017,548.205078,-49.61547900000005,1546.2822270000006,133.0771479999994
100,3516.410156,606.9228520000006,70.38476599999922,450.6411130000006,590.2563479999999,147.05126999999993,200.0,184.10253900000043,186.15380900000036,330.12841800000024,536.6665039999998,-53.20507799999996,1520.256348,133.84619099999964
101,3521.1538090000004,599.1025390000004,71.53857400000015,433.9741210000002,586.0258789999998,156.0258789999998,206.9228520000006,185.2563479999999,186.79492200000004,340.51269500000035,530.7690430000002,-52.435790999999426,1494.6152340000008,132.56396500000028
102,3522.8203129999993,595.0,75.25634799999989,421.15380900000036,592.4360349999997,164.10253900000043,210.51269500000035,186.15380900000036,188.84619099999964,344.23095699999976,524.1025390000004,-50.1281740000004,1460.5126950000003,127.17968800000017
103,3515.384765999999,591.4101559999999,75.76904300000024,404.6152340000008,592.5639650000003,165.38476599999922,205.0,183.7177729999994,187.6923829999996,336.6665039999998,508.9741210000002,-51.41015600000037,1412.4360349999997,124.48730499999965
104,3492.5639650000003,583.9741210000002,69.61523400000078,379.87158199999976,575.1284180000002,156.79492200000004,191.15380900000036,176.6665039999998,181.53857400000015,322.17968800000017,484.87158199999976,-57.82055700000001,1353.3334960000002,129.10253900000043
105,3454.230956999999,571.0258789999998,59.35888699999941,350.76904300000024,545.6411130000006,142.43603499999972,176.6665039999998,168.20507799999996,173.20507799999996,308.46142599999985,459.10253900000043,-65.64111300000013,1293.7177729999994,134.23095699999976
106,3408.4614260000008,555.7690430000002,52.82031300000017,325.89746099999957,521.2822270000006,130.89746099999957,169.61523400000078,163.58984400000008,167.82031300000017,301.15380900000036,440.76904300000024,-69.23071300000038,1244.743652,132.82031300000017
107,3362.4360349999997,544.8715819999998,55.897460999999566,310.2563479999999,516.4101559999999,129.48730499999965,172.82031300000017,165.51269500000035,168.9741210000002,300.76904300000024,431.9228520000006,-65.89746100000002,1210.5126950000003,128.20507799999996
108,3312.8203129999993,542.6923829999996,67.56396500000028,302.05126999999993,530.0,138.7177729999994,182.17968800000017,172.3076170000004,175.51269500000035,302.5639650000003,426.4101559999999,-57.564209000000574,1185.6411130000006,127.17968800000017
109,3247.5639650000003,546.2822270000006,81.15380900000036,294.87158199999976,547.3076170000004,152.05126999999993,190.6411130000006,179.3588869999994,182.3076170000004,300.12841800000024,415.12841800000024,-47.948729999999614,1159.3588869999994,128.3334960000002
110,3157.8203129999993,547.3076170000004,89.87158199999976,282.94873000000007,551.4101559999999,160.89746099999957,193.46142599999985,182.56396500000028,185.0,289.7436520000001,395.0,-40.0,1121.5385740000002,126.53857400000015
111,3045.384765999999,539.7436520000001,91.53857400000015,264.87158199999976,536.6665039999998,161.9228520000006,191.6665039999998,181.2822270000006,183.20507799999996,274.10253900000043,371.53857400000015,-33.846190999999635,1068.8461909999996,124.10253900000043
112,2919.4873049999997,526.0258789999998,90.0,243.46142599999985,513.0771479999994,158.9741210000002,189.87158199999976,178.46142599999985,180.12841800000024,261.2822270000006,352.82031300000017,-28.205077999999958,1006.6665039999998,127.30761700000039
113,2790.8974609999996,513.8461909999996,90.89746099999957,223.7177729999994,496.4101559999999,158.58984400000008,191.2822270000006,177.6923829999996,180.0,257.6923829999996,342.05126999999993,-22.564209000000574,944.8715819999998,133.58984400000008
114,2667.5639650000003,507.3076170000004,96.41015599999992,206.9228520000006,494.3588869999994,162.56396500000028,194.23095699999976,180.0,183.7177729999994,263.20507799999996,333.5898440000001,-18.333252000000357,890.6411130000006,134.7436520000001
115,2551.666504,503.9741210000002,104.23095699999976,188.84619099999964,500.3847659999992,166.53857400000015,194.3588869999994,182.56396500000028,189.23095699999976,270.6411130000006,318.3334960000002,-17.820557000000008,843.4614259999998,130.12841800000024
116,2437.820313,499.3588869999994,109.23095699999976,165.12841800000024,501.15380900000036,165.12841800000024,189.10253900000043,182.05126999999993,193.3334960000002,273.46142599999985,292.6923829999996,-20.38452099999995,797.6923829999996,127.56396500000028
117,2318.7177729999994,492.5639650000003,109.87158199999976,137.3076170000004,489.23095699999976,158.20507799999996,180.89746099999957,178.58984400000008,195.0,270.0,262.4360349999997,-21.666747999999643,748.5898440000001,129.3588869999994
118,2193.589844,486.9228520000006,108.58984400000008,112.69238299999961,467.82031300000017,151.53857400000015,175.12841800000024,174.7436520000001,194.87158199999976,263.46142599999985,236.79492200000004,-17.948729999999614,695.8974609999996,129.23095699999976
119,2070.5126950000003,484.23095699999976,109.35888699999941,97.30761700000039,446.53857400000015,150.38476599999922,174.48730499999965,172.94873000000007,194.3588869999994,257.4360349999997,219.48730499999965,-8.974365000000034,641.1538090000004,124.61523400000078
120,1956.6665039999998,482.17968800000017,113.9741210000002,90.0,433.46142599999985,155.38476599999922,177.56396500000028,173.20507799999996,194.3588869999994,251.9228520000006,205.89746099999957,1.6665039999998044,585.3847659999992,122.05126999999993
121,1851.0258789999998,475.89746099999957,120.12841800000024,83.0771479999994,432.82031300000017,162.05126999999993,180.76904300000024,173.84619099999964,194.7436520000001,243.58984400000008,189.10253900000043,9.871581999999762,528.3334960000002,125.12841800000024
122,1747.1796880000002,463.46142599999985,125.0,70.38476599999922,446.2822270000006,165.6411130000006,181.79492200000004,173.84619099999964,194.7436520000001,230.51269500000035,167.43603499999972,14.487304999999651,470.2563479999999,127.94873000000007
123,1641.410156,447.3076170000004,126.9228520000006,52.69238299999961,474.3588869999994,164.23095699999976,181.0258789999998,173.3334960000002,193.9741210000002,214.61523400000078,145.76904300000024,17.30761700000039,411.2822270000006,125.64111300000059
124,1534.8715819999998,432.17968800000017,126.53857400000015,36.53857400000015,513.7177729999994,158.58984400000008,180.0,172.6923829999996,192.43603499999972,202.56396500000028,129.7436520000001,20.51269500000035,350.6411130000006,123.3334960000002
125,1430.7690430000002,421.15380900000036,126.15380900000036,27.30761700000039,555.3847659999992,151.79492200000004,179.61523400000078,172.05126999999993,191.15380900000036,200.12841800000024,120.0,24.74365200000011,287.6923829999996,126.53857400000015
126,1330.0,414.23095699999976,127.94873000000007,25.0,585.8974609999996,147.17968800000017,179.87158199999976,171.53857400000015,190.51269500000035,206.6665039999998,112.05126999999993,29.615234000000783,223.46142599999985,130.76904300000024
127,1230.6411130000006,408.5898440000001,132.56396500000028,25.25634799999989,594.2309569999998,145.89746099999957,179.61523400000078,171.0258789999998,190.0,214.61523400000078,100.89746099999957,34.102539000000434,159.87158199999976,128.7177729999994
128,1131.410156,401.0258789999998,138.3334960000002,23.717772999999397,579.7436520000001,146.2822270000006,178.0771479999994,169.87158199999976,188.20507799999996,214.3588869999994,85.0,37.56396500000028,97.56396500000028,122.69238299999961
129,1033.205078,390.2563479999999,142.17968800000017,20.128418000000238,556.2822270000006,146.53857400000015,175.38476599999922,168.58984400000008,185.38476599999922,202.56396500000028,68.9741210000002,39.61523400000078,36.53857400000015,121.15380900000036
130,940.6411130000006,378.7177729999994,143.46142599999985,17.82031300000017,545.2563479999999,146.9228520000006,172.82031300000017,168.58984400000008,183.58984400000008,185.0,58.974121000000196,40.897460999999566,-21.28198199999997,124.35888699999941
131,857.5639650000003,370.76904300000024,144.23095699999976,20.51269500000035,559.2309569999998,148.9741210000002,172.3076170000004,170.89746099999957,184.48730499999965,172.17968800000017,56.2822270000006,43.0771479999994,-72.69238299999961,125.64111300000059
132,782.1796880000002,368.20507799999996,146.9228520000006,27.69238299999961,588.4614259999998,152.05126999999993,173.58984400000008,173.9741210000002,187.82031300000017,171.0258789999998,54.74365200000011,47.43603499999972,-114.8718259999996,123.7177729999994
133,706.9228520000006,368.5898440000001,151.2822270000006,35.25634799999989,603.9741210000002,153.0771479999994,174.7436520000001,175.0,190.76904300000024,179.48730499999965,46.2822270000006,53.46142599999985,-149.10253899999998,123.46142599999985
134,622.4360349999997,367.6923829999996,155.2563479999999,39.48730499999965,580.3847659999992,149.48730499999965,173.20507799999996,171.9228520000006,191.0258789999998,187.6923829999996,29.74365200000011,61.025878999999804,-179.4870609999998,125.64111300000059
135,524.4873049999997,362.05126999999993,157.3076170000004,40.38476599999922,516.2822270000006,142.17968800000017,168.7177729999994,166.41015599999992,188.0771479999994,185.6411130000006,12.948730000000069,69.74365200000011,-210.76928699999962,124.87158199999976
136,417.3076170000004,350.2563479999999,158.0771479999994,41.153809000000365,436.4101559999999,134.48730499999965,162.94873000000007,161.2822270000006,183.46142599999985,170.38476599999922,4.358886999999413,78.46142599999985,-246.66674799999964,120.64111300000059
137,310.76904300000024,333.20507799999996,159.10253900000043,44.74365200000011,372.82031300000017,128.20507799999996,157.17968800000017,158.0771479999994,178.9741210000002,147.56396500000028,4.230956999999762,85.38476599999922,-287.9487299999996,119.35888699999941
138,215.0,315.2563479999999,160.76904300000024,51.025878999999804,343.9741210000002,123.0771479999994,151.15380900000036,155.76904300000024,175.51269500000035,126.2822270000006,4.743652000000111,89.10253900000043,-331.53857400000015,123.0771479999994
139,134.3588869999994,301.4101559999999,162.05126999999993,56.9228520000006,347.3076170000004,117.82031300000017,144.3588869999994,152.43603499999972,171.9228520000006,110.89746099999957,-1.9228520000006029,91.0258789999998,-371.15380900000036,125.0
140,66.79492200000004,295.6411130000006,162.82031300000017,59.48730499999965,366.4101559999999,112.30761700000039,138.20507799999996,148.20507799999996,167.82031300000017,100.76904300000024,-16.41015600000037,94.87158199999976,-401.923096,121.15380900000036
141,6.410155999999915,298.0771479999994,164.48730499999965,59.102539000000434,385.76904300000024,109.23095699999976,135.38476599999922,144.48730499999965,163.46142599999985,93.9741210000002,-31.153809000000365,103.46142599999985,-423.33325200000036,117.82031300000017
142,-51.79492200000004,306.4101559999999,168.9741210000002,60.0,399.23095699999976,112.56396500000028,138.20507799999996,143.58984400000008,160.12841800000024,90.51269500000035,-37.435790999999426,116.9228520000006,-438.33325200000036,121.41015599999992
143,-109.74365200000011,316.53857400000015,176.53857400000015,66.15380900000036,407.05126999999993,123.58984400000008,145.89746099999957,146.53857400000015,159.10253900000043,90.76904300000024,-32.69238299999961,132.43603499999972,-450.38452099999995,127.30761700000039
144,-168.46142599999985,322.94873000000007,183.9741210000002,76.15380900000036,408.0771479999994,137.56396500000028,153.20507799999996,150.76904300000024,160.0,93.0771479999994,-23.205077999999958,145.51269500000035,-461.15380900000036,128.20507799999996
145,-230.1281740000004,319.87158199999976,187.43603499999972,84.10253900000043,397.3076170000004,144.7436520000001,153.84619099999964,152.05126999999993,160.51269500000035,93.0771479999994,-18.71801800000003,152.6923829999996,-472.179443,124.87158199999976
146,-295.38452099999995,307.05126999999993,186.0258789999998,87.30761700000039,373.46142599999985,139.48730499999965,146.0258789999998,147.43603499999972,157.6923829999996,86.2822270000006,-22.435790999999426,154.87158199999976,-483.46142599999985,123.20507799999996
147,-360.2563479999999,290.2563479999999,183.3334960000002,89.10253900000043,344.48730499999965,126.0258789999998,134.7436520000001,138.84619099999964,151.6665039999998,72.30761700000039,-27.948729999999614,157.17968800000017,-493.58984399999963,122.82031300000017
148,-418.58984399999963,276.4101559999999,184.61523400000078,93.46142599999985,322.94873000000007,114.87158199999976,127.17968800000017,131.79492200000004,145.51269500000035,55.38476599999922,-25.512939000000188,164.23095699999976,-501.02563499999997,119.74365200000011
149,-468.076904,266.79492200000004,191.2822270000006,100.12841800000024,313.3334960000002,113.7177729999994,126.6665039999998,129.48730499999965,142.3076170000004,42.17968800000017,-13.076904000000013,175.38476599999922,-506.02563499999997,115.89746099999957
150,-511.15380900000036,256.79492200000004,199.48730499999965,103.84619099999964,305.89746099999957,120.38476599999922,129.87158199999976,131.0258789999998,142.3076170000004,38.46142599999985,1.6665039999998044,185.51269500000035,-510.5129390000002,117.30761700000039
151,-552.179443,242.94873000000007,204.23095699999976,101.79492200000004,286.0258789999998,127.05126999999993,131.9228520000006,133.58984400000008,143.58984400000008,45.25634799999989,8.461425999999847,190.76904300000024,-515.384521,122.43603499999972
152,-592.4357909999994,228.58984400000008,203.58984400000008,96.9228520000006,250.12841800000024,127.82031300000017,130.76904300000024,135.38476599999922,144.87158199999976,59.35888699999941,4.487304999999651,191.79492200000004,-519.102539,123.58984400000008
153,-630.1281740000004,220.6411130000006,200.76904300000024,94.23095699999976,210.12841800000024,123.84619099999964,128.58984400000008,136.79492200000004,146.2822270000006,74.35888699999941,-4.102538999999979,193.3334960000002,-520.0,119.61523400000078
154,-662.9487299999996,222.43603499999972,200.12841800000024,95.25634799999989,184.7436520000001,119.87158199999976,128.20507799999996,138.46142599999985,147.43603499999972,82.69238299999961,-9.358886999999868,198.58984400000008,-519.4870609999998,117.43603499999972
155,-691.6667479999996,229.48730499999965,202.94873000000007,95.0,183.3334960000002,119.10253900000043,129.23095699999976,139.3588869999994,146.15380900000036,79.48730499999965,-8.333252000000357,206.0258789999998,-521.6667479999996,119.61523400000078
156,-721.1538090000004,232.56396500000028,205.89746099999957,87.17968800000017,199.10253900000043,120.0,128.20507799999996,136.9228520000006,140.51269500000035,64.74365200000011,-5.769286999999622,210.6411130000006,-530.384521,120.25634799999989
157,-757.179443,223.7177729999994,204.7436520000001,71.79492200000004,216.0258789999998,118.0771479999994,121.53857400000015,129.3588869999994,130.6411130000006,45.38476599999922,-8.076904000000013,208.58984400000008,-547.0512700000004,116.0258789999998
158,-801.6667480000001,202.56396500000028,198.3334960000002,57.17968800000017,222.94873000000007,110.89746099999957,109.48730499999965,117.56396500000028,119.61523400000078,30.897460999999566,-17.948729999999614,201.15380900000036,-570.1281740000004,112.94873000000007
159,-849.102539,178.58984400000008,191.15380900000036,55.76904300000024,222.17968800000017,101.79492200000004,97.17968800000017,106.15380900000036,111.41015599999992,28.205077999999958,-32.435790999999426,194.7436520000001,-595.7692869999996,115.38476599999922
160,-889.3588870000003,165.89746099999957,189.10253900000043,72.43603499999972,222.94873000000007,97.69238299999961,90.76904300000024,100.89746099999957,108.7177729999994,37.43603499999972,-45.38452099999995,195.0,-618.3332520000004,117.56396500000028
161,-915.2563479999999,172.94873000000007,193.9741210000002,97.94873000000007,230.51269500000035,102.30761700000039,92.30761700000039,103.58984400000008,111.53857400000015,52.30761700000039,-53.07690400000001,201.53857400000015,-633.718018,114.48730499999965
162,-930.128174,194.87158199999976,200.76904300000024,114.10253900000043,239.3588869999994,111.9228520000006,98.0771479999994,110.12841800000024,117.05126999999993,64.48730499999965,-57.051270000000386,208.58984400000008,-641.6667479999996,110.25634799999989
163,-945.128174,215.89746099999957,201.79492200000004,107.94873000000007,240.38476599999922,118.0771479999994,101.79492200000004,114.10253900000043,121.15380900000036,66.53857400000015,-60.51293900000019,209.23095699999976,-646.281982,110.89746099999957
164,-969.4870609999998,220.6411130000006,193.7177729999994,82.94873000000007,231.6665039999998,115.76904300000024,100.0,111.9228520000006,120.76904300000024,56.79492200000004,-65.51293900000019,201.53857400000015,-652.0512700000004,113.7177729999994
165,-1003.718018,206.53857400000015,180.89746099999957,56.410155999999915,220.38476599999922,107.82031300000017,94.48730499999965,105.38476599999922,116.0258789999998,40.76904300000024,-70.89746100000002,189.87158199999976,-660.6411130000001,112.94873000000007
166,-1039.743652,183.84619099999964,171.79492200000004,45.25634799999989,216.15380900000036,102.17968800000017,90.76904300000024,99.87158199999976,110.51269500000035,28.589844000000085,-75.0,181.15380900000036,-669.615479,110.51269500000035
167,-1068.974365,165.6411130000006,172.05126999999993,51.666503999999804,220.0,104.74365200000011,92.69238299999961,99.74365200000011,108.20507799999996,28.846190999999635,-77.82055700000001,178.9741210000002,-676.1538090000004,112.05126999999993
168,-1089.102539,157.82031300000017,180.12841800000024,64.10253900000043,222.94873000000007,114.23095699999976,99.10253900000043,105.12841800000024,110.64111300000059,41.153809000000365,-81.66674799999964,181.79492200000004,-679.8718259999996,115.76904300000024
169,-1104.743652,156.79492200000004,189.10253900000043,68.84619099999964,214.48730499999965,123.58984400000008,105.38476599999922,112.30761700000039,115.25634799999989,55.897460999999566,-88.58984399999963,184.61523400000078,-683.076904,114.74365200000011
170,-1122.5642090000001,155.2563479999999,192.56396500000028,61.2822270000006,192.94873000000007,125.89746099999957,107.05126999999993,116.2822270000006,117.82031300000017,62.56396500000028,-97.43579099999943,184.7436520000001,-688.5898439999996,110.25634799999989
171,-1145.256348,148.20507799999996,188.7177729999994,48.333496000000196,168.58984400000008,119.87158199999976,104.23095699999976,114.87158199999976,116.79492200000004,58.333496000000196,-104.48706099999981,182.6923829999996,-696.4101560000004,110.0
172,-1169.4870609999998,136.79492200000004,181.2822270000006,39.87158199999976,154.10253900000043,111.0258789999998,100.38476599999922,110.38476599999922,113.7177729999994,48.0771479999994,-106.15380900000036,181.41015599999992,-703.8461909999996,115.12841800000024
173,-1189.4870609999998,126.15380900000036,176.15380900000036,40.38476599999922,153.3334960000002,106.79492200000004,99.48730499999965,107.56396500000028,111.79492200000004,39.102539000000434,-102.43579099999943,183.20507799999996,-707.3076170000004,117.69238299999961
174,-1202.5642090000001,120.76904300000024,177.17968800000017,45.64111300000059,157.43603499999972,110.76904300000024,103.20507799999996,109.61523400000078,112.94873000000007,36.666503999999804,-97.17944299999999,188.0771479999994,-705.2563479999999,113.84619099999964
175,-1211.666748,121.2822270000006,182.56396500000028,48.20507799999996,153.3334960000002,119.87158199999976,109.61523400000078,115.51269500000035,116.2822270000006,41.410155999999915,-95.25634799999989,194.3588869999994,-699.615479,110.51269500000035
176,-1221.5385739999997,123.9741210000002,187.05126999999993,44.61523400000078,135.38476599999922,127.17968800000017,114.74365200000011,120.25634799999989,118.7177729999994,49.74365200000011,-98.97436500000003,198.58984400000008,-695.384521,111.9228520000006
177,-1234.615479,123.84619099999964,185.89746099999957,37.56396500000028,110.12841800000024,127.43603499999972,114.35888699999941,119.10253900000043,116.6665039999998,55.12841800000024,-106.66674799999964,197.82031300000017,-697.3076170000004,113.0771479999994
178,-1249.4870609999998,118.46142599999985,178.46142599999985,31.666503999999804,89.35888699999941,119.61523400000078,107.17968800000017,110.89746099999957,109.10253900000043,53.0771479999994,-114.8718259999996,190.89746099999957,-707.0512700000004,109.61523400000078
179,-1263.718018,108.84619099999964,167.94873000000007,29.615234000000783,80.76904300000024,107.82031300000017,96.6665039999998,99.35888699999941,98.84619099999964,44.74365200000011,-121.02563499999997,179.87158199999976,-720.2563479999999,106.41015599999992
180,-1275.5129390000002,99.23095699999976,158.9741210000002,30.384765999999217,82.43603499999972,98.7177729999994,89.35888699999941,90.64111300000059,91.6665039999998,36.2822270000006,-124.10253899999998,168.9741210000002,-729.615479,108.9741210000002
181,-1284.230713,93.46142599999985,155.12841800000024,31.922852000000603,87.17968800000017,97.43603499999972,90.38476599999922,89.61523400000078,91.9228520000006,32.82031300000017,-124.23071300000038,162.6923829999996,-729.7436520000001,113.0771479999994
182,-1290.0,93.20507799999996,157.05126999999993,32.69238299999961,88.46142599999985,104.61523400000078,99.74365200000011,96.79492200000004,99.23095699999976,35.64111300000059,-122.82055700000001,163.58984400000008,-720.384521,112.05126999999993
183,-1292.5642090000001,96.41015599999992,162.82031300000017,33.20507799999996,84.61523400000078,115.12841800000024,111.9228520000006,107.56396500000028,108.9741210000002,42.82031300000017,-121.79492200000004,170.51269500000035,-706.923096,108.3334960000002
184,-1292.6923829999996,100.76904300000024,169.23095699999976,33.46142599999985,79.10253900000043,121.79492200000004,119.87158199999976,115.76904300000024,116.53857400000015,51.2822270000006,-122.30761700000039,179.3588869999994,-695.6411130000001,108.84619099999964
185,-1291.281982,105.89746099999957,173.20507799999996,33.333496000000196,76.41015599999992,121.79492200000004,120.25634799999989,117.43603499999972,119.87158199999976,58.0771479999994,-123.07690400000001,185.6411130000006,-690.1281740000004,112.30761700000039
186,-1290.384521,111.9228520000006,173.84619099999964,32.56396500000028,78.20507799999996,117.94873000000007,115.0,113.7177729999994,119.35888699999941,60.51269500000035,-122.05127000000039,187.3076170000004,-689.615479,112.17968800000017
187,-1293.205078,116.79492200000004,171.79492200000004,31.025878999999804,81.0258789999998,115.51269500000035,108.84619099999964,108.7177729999994,116.79492200000004,57.56396500000028,-118.46142599999985,185.6411130000006,-691.6667479999996,108.58984400000008
188,-1302.4357909999999,116.41015599999992,168.0771479999994,29.48730499999965,78.84619099999964,116.79492200000004,105.51269500000035,105.76904300000024,113.3334960000002,49.87158199999976,-114.48706099999981,183.3334960000002,-694.615479,108.0771479999994
189,-1317.4357909999999,109.48730499999965,164.23095699999976,28.333496000000196,68.58984400000008,119.61523400000078,105.12841800000024,105.51269500000035,109.61523400000078,39.87158199999976,-113.71801800000003,181.53857400000015,-697.4357909999994,111.0258789999998
190,-1333.846191,98.46142599999985,161.9228520000006,27.43603499999972,53.333496000000196,119.23095699999976,105.25634799999989,106.2822270000006,106.41015599999992,30.897460999999566,-117.94872999999961,180.51269500000035,-699.615479,111.15380900000036
191,-1345.769287,88.0771479999994,162.56396500000028,26.410155999999915,40.25634799999989,113.3334960000002,103.84619099999964,106.41015599999992,104.74365200000011,27.05126999999993,-125.38452099999995,179.87158199999976,-700.0,107.30761700000039
192,-1349.4870609999998,82.17968800000017,166.15380900000036,25.0,35.0,103.84619099999964,100.76904300000024,105.51269500000035,105.89746099999957,31.922852000000603,-131.79492200000004,180.12841800000024,-698.3332520000004,106.41015599999992
193,-1345.769287,81.6665039999998,170.6411130000006,23.589844000000085,37.69238299999961,97.05126999999993,97.69238299999961,104.35888699999941,109.87158199999976,44.48730499999965,-132.820557,181.53857400000015,-693.974365,110.51269500000035
194,-1338.4614260000003,85.12841800000024,172.56396500000028,22.69238299999961,43.20507799999996,97.56396500000028,96.6665039999998,104.35888699999941,114.87158199999976,58.333496000000196,-127.56420900000057,184.23095699999976,-686.1538090000004,112.94873000000007
195,-1333.333252,89.61523400000078,170.76904300000024,23.077147999999397,45.0,105.25634799999989,98.3334960000002,106.0258789999998,118.3334960000002,65.89746099999957,-119.61547900000005,187.56396500000028,-676.281982,109.61523400000078
196,-1334.230713,91.2822270000006,167.17968800000017,25.897460999999566,39.61523400000078,115.25634799999989,101.6665039999998,108.46142599999985,119.61523400000078,63.20507799999996,-113.20507799999996,190.2563479999999,-667.4357909999994,106.2822270000006
197,-1342.179443,88.20507799999996,164.87158199999976,31.025878999999804,30.384765999999217,122.05126999999993,104.74365200000011,110.25634799999989,119.23095699999976,52.43603499999972,-110.51293900000019,190.89746099999957,-662.4357909999994,108.46142599999985
198,-1354.230713,81.41015599999992,165.38476599999922,35.897460999999566,23.717772999999397,123.58984400000008,105.38476599999922,110.12841800000024,117.56396500000028,40.64111300000059,-110.64111300000013,188.0771479999994,-661.281982,111.6665039999998
199,-1364.871826,73.9741210000002,167.56396500000028,36.410155999999915,24.230956999999762,121.15380900000036,103.58984400000008,108.3334960000002,115.51269500000035,36.025878999999804,-111.66674799999964,182.43603499999972,-662.0512700000004,110.38476599999922
200,-1368.718018,69.35888699999941,169.3588869999994,31.282227000000603,30.384765999999217,117.69238299999961,101.2822270000006,106.41015599999992,114.48730499999965,43.589844000000085,-112.56420900000057,177.56396500000028,-662.6923829999996,107.43603499999972
201,-1364.230713,69.48730499999965,170.0,23.717772999999397,37.05126999999993,116.0258789999998,101.6665039999998,107.05126999999993,116.53857400000015,60.64111300000059,-113.84619099999964,177.56396500000028,-661.5385740000002,108.46142599999985
202,-1355.0,74.35888699999941,170.38476599999922,20.128418000000238,40.76904300000024,117.82031300000017,106.6665039999998,111.9228520000006,122.17968800000017,76.79492200000004,-115.64111300000013,185.12841800000024,-657.3076170000004,110.51269500000035
203,-1347.6923829999996,81.2822270000006,171.6665039999998,23.846190999999635,42.05126999999993,122.56396500000028,114.87158199999976,119.61523400000078,128.46142599999985,80.89746099999957,-116.28198199999997,197.94873000000007,-649.615479,107.43603499999972
204,-1348.4614260000003,85.0,173.0771479999994,30.897460999999566,42.17968800000017,127.17968800000017,122.05126999999993,125.12841800000024,131.0258789999998,69.74365200000011,-114.35888699999987,209.23095699999976,-640.384521,101.6665039999998
205,-1358.4614260000003,80.25634799999989,172.05126999999993,33.0771479999994,39.61523400000078,127.30761700000039,122.56396500000028,123.0771479999994,127.05126999999993,50.0,-111.15380900000036,211.41015599999992,-633.5898439999996,101.15380900000036
206,-1372.820557,66.15380900000036,166.41015599999992,25.769043000000238,32.43603499999972,121.9228520000006,114.10253900000043,112.30761700000039,117.17968800000017,33.20507799999996,-108.71801800000003,201.9228520000006,-631.5385740000002,106.0258789999998
207,-1383.589844,48.974121000000196,157.43603499999972,12.56396500000028,22.05126999999993,113.46142599999985,100.12841800000024,96.6665039999998,106.15380900000036,27.56396500000028,-108.33325200000036,185.12841800000024,-633.5898439999996,108.7177729999994
208,-1385.6411129999997,38.7177729999994,149.48730499999965,3.3334960000001956,13.077147999999397,106.79492200000004,88.0771479999994,83.58984400000008,99.35888699999941,33.846190999999635,-109.35888699999987,170.6411130000006,-636.281982,107.56396500000028
209,-1379.3588870000003,41.9228520000006,146.41015599999992,4.230956999999762,10.897460999999566,105.0,83.84619099999964,78.58984400000008,99.87158199999976,46.53857400000015,-110.1281740000004,166.15380900000036,-636.281982,107.94873000000007
210,-1369.743652,56.410155999999915,148.7177729999994,13.461425999999847,17.05126999999993,108.46142599999985,88.20507799999996,82.82031300000017,105.89746099999957,57.69238299999961,-109.61547900000005,172.56396500000028,-632.5642090000006,111.15380900000036
211,-1362.5642090000001,72.82031300000017,153.46142599999985,23.077147999999397,27.94873000000007,114.23095699999976,95.89746099999957,91.6665039999998,112.17968800000017,61.2822270000006,-108.20507799999996,183.3334960000002,-626.025635,110.38476599999922
212,-1361.281982,80.76904300000024,157.05126999999993,26.153809000000365,37.56396500000028,118.58984400000008,100.38476599999922,98.9741210000002,114.10253900000043,57.17968800000017,-107.30761700000039,190.12841800000024,-618.3332520000004,103.84619099999964
213,-1365.769287,76.53857400000015,157.43603499999972,21.922852000000603,41.410155999999915,119.48730499999965,98.7177729999994,100.25634799999989,111.53857400000015,49.35888699999941,-107.82055700000001,189.3588869999994,-610.897461,99.87158199999976
214,-1372.94873,65.51269500000035,155.2563479999999,15.384765999999217,40.0,118.20507799999996,93.7177729999994,96.79492200000004,108.46142599999985,42.94873000000007,-108.71801800000003,184.23095699999976,-603.3332520000004,103.9741210000002
215,-1378.974365,56.79492200000004,153.20507799999996,13.205077999999958,37.94873000000007,118.46142599999985,91.2822270000006,93.20507799999996,108.58984400000008,40.897460999999566,-107.94872999999961,181.41015599999992,-595.897461,110.0
216,-1381.153809,54.87158199999976,153.3334960000002,16.410155999999915,37.69238299999961,122.30761700000039,93.9741210000002,92.82031300000017,112.17968800000017,43.333496000000196,-104.35888699999987,184.3588869999994,-590.2563479999999,110.64111300000059
217,-1380.0,56.53857400000015,155.38476599999922,20.25634799999989,36.9228520000006,127.43603499999972,99.10253900000043,95.25634799999989,115.89746099999957,47.82031300000017,-100.38452099999995,189.87158199999976,-588.205078,107.94873000000007
218,-1377.820557,54.87158199999976,156.9228520000006,19.230956999999762,31.794922000000042,128.7177729999994,101.79492200000004,97.82031300000017,116.53857400000015,50.51269500000035,-100.0,191.41015599999992,-589.7436520000001,107.94873000000007
219,-1376.153809,47.94873000000007,156.0258789999998,13.717772999999397,23.846190999999635,124.23095699999976,100.76904300000024,98.9741210000002,113.9741210000002,48.20507799999996,-104.23071300000038,186.2822270000006,-591.281982,109.23095699999976
220,-1374.615479,40.76904300000024,154.10253900000043,9.615234000000783,20.25634799999989,118.0771479999994,99.61523400000078,99.87158199999976,111.2822270000006,41.410155999999915,-108.58984399999963,177.6923829999996,-588.8461909999996,107.17968800000017
221,-1372.3076170000004,40.76904300000024,153.58984400000008,11.282227000000603,26.282227000000603,116.41015599999992,102.43603499999972,102.43603499999972,111.9228520000006,34.87158199999976,-106.66674799999964,172.3076170000004,-581.6667479999996,104.48730499999965
222,-1369.743652,49.61523400000078,155.12841800000024,15.512695000000349,38.974121000000196,121.53857400000015,109.10253900000043,105.89746099999957,115.25634799999989,34.23095699999976,-97.05127000000039,173.7177729999994,-573.205078,106.6665039999998
223,-1368.333252,60.64111300000059,157.6923829999996,15.256347999999889,48.0771479999994,129.23095699999976,114.35888699999941,107.05126999999993,116.9228520000006,39.61523400000078,-85.64111300000013,180.38476599999922,-567.5642090000006,111.15380900000036
224,-1368.4614260000003,64.48730499999965,159.61523400000078,8.589844000000085,45.76904300000024,132.56396500000028,113.7177729999994,103.0771479999994,113.20507799999996,46.2822270000006,-80.89746100000002,187.17968800000017,-566.1538090000004,110.38476599999922
225,-1368.846191,57.05126999999993,160.38476599999922,1.2822270000006029,33.846190999999635,128.7177729999994,107.30761700000039,94.87158199999976,104.61523400000078,48.20507799999996,-85.64111300000013,190.0,-567.0512700000004,105.25634799999989
226,-1367.05127,43.0771479999994,160.38476599999922,1.5385740000001533,21.666503999999804,120.12841800000024,99.74365200000011,87.30761700000039,96.15380900000036,44.35888699999941,-94.74365200000011,188.20507799999996,-566.923096,103.9741210000002
227,-1361.794922,32.17968800000017,159.87158199999976,11.282227000000603,18.974121000000196,113.58984400000008,96.41015599999992,85.38476599999922,93.0771479999994,38.974121000000196,-100.0,184.61523400000078,-562.6923829999996,107.94873000000007
228,-1353.974365,31.282227000000603,159.23095699999976,23.589844000000085,27.30761700000039,114.35888699999941,99.10253900000043,90.12841800000024,97.43603499999972,37.17968800000017,-98.33325200000036,182.05126999999993,-554.3588869999999,110.0
229,-1346.923096,38.589844000000085,158.7177729999994,28.589844000000085,40.64111300000059,121.9228520000006,104.74365200000011,98.46142599999985,107.05126999999993,41.410155999999915,-93.84619099999964,181.41015599999992,-545.0,106.9228520000006
230,-1344.230713,45.897460999999566,158.0771479999994,22.05126999999993,49.87158199999976,130.89746099999957,109.10253900000043,105.38476599999922,116.53857400000015,50.12841800000024,-92.30761700000039,180.38476599999922,-539.102539,105.12841800000024
231,-1346.923096,46.410155999999915,157.3076170000004,9.743652000000111,49.74365200000011,135.51269500000035,109.61523400000078,107.69238299999961,121.15380900000036,58.0771479999994,-95.25634799999989,178.0771479999994,-538.718018,108.46142599999985
232,-1352.5642090000001,40.38476599999922,155.6411130000006,1.7949220000000423,40.897460999999566,133.20507799999996,107.43603499999972,106.15380900000036,119.48730499999965,59.87158199999976,-98.84619099999964,175.12841800000024,-541.923096,110.64111300000059
233,-1357.05127,33.589844000000085,153.20507799999996,2.8203130000001693,28.205077999999958,126.15380900000036,105.64111300000059,103.3334960000002,114.23095699999976,53.46142599999985,-98.58984399999963,173.58984400000008,-544.2307130000004,107.43603499999972
234,-1357.3076170000004,30.769043000000238,151.53857400000015,9.230956999999762,17.30761700000039,118.3334960000002,105.25634799999989,101.15380900000036,109.23095699999976,42.30761700000039,-93.07690400000001,174.23095699999976,-542.5642090000006,103.9741210000002
235,-1352.5642090000001,32.17968800000017,152.05126999999993,14.487304999999651,12.17968800000017,113.58984400000008,105.12841800000024,99.23095699999976,108.0771479999994,33.333496000000196,-85.1281740000004,176.41015599999992,-536.4101560000004,106.41015599999992
236,-1343.205078,34.87158199999976,155.76904300000024,15.769043000000238,14.615234000000783,114.10253900000043,103.3334960000002,96.9228520000006,110.89746099999957,32.05126999999993,-78.71801800000003,179.10253900000043,-526.4101560000004,111.0258789999998
237,-1332.4357909999999,36.2822270000006,161.15380900000036,14.743652000000111,22.69238299999961,119.48730499999965,100.64111300000059,94.87158199999976,115.25634799999989,38.974121000000196,-75.76928699999962,181.15380900000036,-514.4870609999998,110.51269500000035
238,-1324.3588870000003,36.2822270000006,164.7436520000001,13.717772999999397,31.794922000000042,126.2822270000006,100.38476599999922,94.35888699999941,118.0771479999994,49.87158199999976,-76.79492200000004,181.79492200000004,-504.4870609999998,106.6665039999998
239,-1321.794922,35.76904300000024,163.84619099999964,12.948730000000069,37.43603499999972,130.6411130000006,104.74365200000011,95.64111300000059,117.17968800000017,59.23095699999976,-79.8718259999996,180.6411130000006,-500.2563479999999,106.53857400000015
240,-1322.820557,36.79492200000004,158.84619099999964,12.051269999999931,38.20507799999996,131.2822270000006,112.05126999999993,98.20507799999996,113.46142599999985,63.20507799999996,-82.17944299999999,178.3334960000002,-502.9487299999996,109.10253900000043
241,-1323.205078,40.0,153.58984400000008,11.153809000000365,36.79492200000004,130.12841800000024,117.56396500000028,100.76904300000024,109.61523400000078,61.9228520000006,-81.41015600000037,176.41015599999992,-508.97436500000003,108.58984400000008
242,-1320.256348,43.7177729999994,151.41015599999992,11.282227000000603,36.410155999999915,129.3588869999994,117.69238299999961,102.30761700000039,108.84619099999964,58.20507799999996,-78.20507799999996,176.0258789999998,-512.9487299999996,105.38476599999922
243,-1314.871826,44.48730499999965,153.20507799999996,13.077147999999397,37.69238299999961,129.7436520000001,112.30761700000039,102.69238299999961,111.6665039999998,55.897460999999566,-75.89746100000002,177.43603499999972,-511.66674799999964,105.38476599999922
244,-1309.615479,40.76904300000024,156.53857400000015,16.410155999999915,38.7177729999994,130.6411130000006,105.0,102.17968800000017,116.0258789999998,56.410155999999915,-76.53857400000015,179.87158199999976,-504.4870609999998,108.58984400000008
245,-1306.153809,33.46142599999985,158.3334960000002,20.0,37.56396500000028,130.6411130000006,100.12841800000024,102.17968800000017,119.35888699999941,58.589844000000085,-78.84619099999964,182.6923829999996,-493.33325200000036,108.20507799999996
246,-1304.4870609999998,25.0,157.17968800000017,21.410155999999915,33.333496000000196,128.3334960000002,99.35888699999941,103.3334960000002,119.87158199999976,59.74365200000011,-79.8718259999996,184.7436520000001,-481.66674799999964,103.46142599999985
247,-1304.230713,17.56396500000028,153.58984400000008,17.94873000000007,26.282227000000603,123.3334960000002,101.53857400000015,104.48730499999965,118.3334960000002,58.846190999999635,-78.07690400000001,185.12841800000024,-473.33325200000036,101.41015599999992
248,-1303.4614260000003,13.974121000000196,149.7436520000001,10.897460999999566,18.846190999999635,117.69238299999961,105.0,105.25634799999989,116.53857400000015,56.53857400000015,-74.35888699999987,183.20507799999996,-469.7436520000001,105.12841800000024
249,-1300.769287,16.666503999999804,148.46142599999985,4.743652000000111,13.974121000000196,115.76904300000024,108.58984400000008,106.41015599999992,116.41015599999992,54.61523400000078,-71.53857400000015,179.48730499999965,-468.84619099999964,108.20507799999996
250,-1296.025635,24.615234000000783,150.2563479999999,3.846190999999635,13.717772999999397,120.38476599999922,112.05126999999993,108.46142599999985,117.05126999999993,53.974121000000196,-73.33325200000036,175.6411130000006,-467.5642090000006,105.76904300000024
251,-1290.256348,33.333496000000196,153.20507799999996,7.692382999999609,18.077147999999397,129.23095699999976,114.74365200000011,110.89746099999957,116.9228520000006,54.102539000000434,-81.79492200000004,172.82031300000017,-464.61547900000005,103.20507799999996
252,-1285.0,36.79492200000004,154.23095699999976,13.205077999999958,26.666503999999804,136.9228520000006,116.9228520000006,112.05126999999993,115.64111300000059,54.48730499999965,-93.58984399999963,172.3076170000004,-460.64111300000013,106.0258789999998
253,-1280.6411129999997,33.0771479999994,152.43603499999972,18.846190999999635,39.23095699999976,139.23095699999976,118.0771479999994,111.2822270000006,115.12841800000024,55.38476599999922,-100.64111300000013,174.48730499999965,-455.64111300000013,109.74365200000011
254,-1275.897461,25.384765999999217,150.12841800000024,24.871581999999762,53.333496000000196,135.89746099999957,118.0771479999994,110.12841800000024,117.05126999999993,58.846190999999635,-95.89746100000002,178.9741210000002,-449.2307130000004,108.58984400000008
255,-1270.5129390000002,19.102539000000434,149.87158199999976,30.641113000000587,62.82031300000017,129.23095699999976,117.17968800000017,110.0,121.41015599999992,65.89746099999957,-80.38452099999995,184.10253900000043,-441.66674799999964,105.51269500000035
256,-1265.384521,17.43603499999972,151.53857400000015,32.82031300000017,62.43603499999972,123.3334960000002,116.15380900000036,111.0258789999998,125.38476599999922,73.9741210000002,-62.82055700000001,186.6665039999998,-434.8718259999996,106.9228520000006
257,-1261.281982,18.974121000000196,153.7177729999994,28.333496000000196,52.94873000000007,121.41015599999992,116.2822270000006,112.56396500000028,125.89746099999957,76.79492200000004,-52.564209000000574,184.87158199999976,-430.7692869999996,110.51269500000035
258,-1257.4357909999999,20.769043000000238,155.12841800000024,18.333496000000196,42.43603499999972,125.12841800000024,118.7177729999994,114.23095699999976,122.94873000000007,71.53857400000015,-52.17944299999999,179.7436520000001,-430.1281740000004,109.74365200000011
259,-1252.05127,21.153809000000365,156.2822270000006,9.230956999999762,39.35888699999941,132.82031300000017,123.46142599999985,116.41015599999992,120.0,62.43603499999972,-57.435790999999426,175.76904300000024,-431.15380900000036,106.0258789999998
260,-1244.230713,21.794922000000042,157.17968800000017,7.56396500000028,45.897460999999566,140.2563479999999,129.10253900000043,119.10253900000043,120.76904300000024,57.17968800000017,-62.435790999999426,176.0258789999998,-430.1281740000004,105.64111300000059
261,-1235.769287,25.25634799999989,157.43603499999972,14.487304999999651,56.410155999999915,143.7177729999994,132.82031300000017,121.15380900000036,125.76904300000024,59.48730499999965,-64.23071300000038,180.38476599999922,-423.46142599999985,108.3334960000002
262,-1229.230713,31.538574000000153,156.53857400000015,24.74365200000011,61.79492200000004,142.56396500000028,132.94873000000007,121.53857400000015,131.53857400000015,65.51269500000035,-63.33325200000036,184.7436520000001,-411.28198199999997,107.43603499999972
263,-1226.923096,35.76904300000024,154.48730499999965,30.641113000000587,57.30761700000039,137.94873000000007,128.9741210000002,119.35888699999941,133.7177729999994,68.46142599999985,-62.17944299999999,185.12841800000024,-400.0,102.69238299999961
264,-1230.384521,32.05126999999993,150.76904300000024,27.82031300000017,44.35888699999941,131.6665039999998,121.79492200000004,114.61523400000078,130.51269500000035,65.0,-63.58984399999963,180.12841800000024,-397.9487299999996,101.41015599999992
265,-1238.333252,19.48730499999965,145.38476599999922,18.846190999999635,30.51269500000035,124.74365200000011,113.3334960000002,108.46142599999985,123.0771479999994,57.43603499999972,-68.33325200000036,172.43603499999972,-407.9487299999996,105.38476599999922
266,-1247.3076170000004,4.102539000000434,139.61523400000078,9.871581999999762,23.333496000000196,118.20507799999996,105.76904300000024,103.0771479999994,115.12841800000024,51.025878999999804,-75.0,166.2822270000006,-424.4870609999998,107.30761700000039
267,-1252.3076170000004,-4.871825999999601,135.38476599999922,6.025878999999804,25.641113000000587,113.84619099999964,101.6665039999998,100.0,110.25634799999989,49.48730499999965,-81.02563499999997,164.7436520000001,-436.53857400000015,103.46142599999985
268,-1250.5129390000002,-2.4360349999997197,134.87158199999976,7.948730000000069,33.846190999999635,113.20507799999996,101.6665039999998,99.61523400000078,109.74365200000011,53.0771479999994,-83.84619099999964,166.9228520000006,-436.53857400000015,100.25634799999989
269,-1242.179443,8.589844000000085,137.82031300000017,13.205077999999958,41.79492200000004,117.05126999999993,104.87158199999976,100.51269500000035,112.56396500000028,58.846190999999635,-82.30761700000039,169.48730499999965,-424.7436520000001,103.20507799999996
270,-1230.128174,20.641113000000587,141.6665039999998,17.94873000000007,46.410155999999915,124.10253900000043,108.58984400000008,101.6665039999998,115.76904300000024,62.69238299999961,-77.05127000000039,169.61523400000078,-408.84619099999964,107.17968800000017
271,-1217.94873,26.538574000000153,143.7177729999994,19.615234000000783,48.0771479999994,131.15380900000036,111.0258789999998,102.69238299999961,117.05126999999993,63.333496000000196,-69.8718259999996,167.05126999999993,-396.923096,106.15380900000036
272,-1207.6923829999996,23.974121000000196,143.46142599999985,18.461425999999847,48.7177729999994,134.61523400000078,112.05126999999993,103.9741210000002,117.05126999999993,63.0771479999994,-62.948729999999614,164.48730499999965,-391.923096,103.46142599999985
273,-1200.5129390000002,16.410155999999915,141.79492200000004,16.538574000000153,50.12841800000024,134.3588869999994,112.82031300000017,105.89746099999957,117.56396500000028,65.25634799999989,-58.33325200000036,165.12841800000024,-391.41015600000037,105.25634799999989
274,-1195.6411129999997,10.128418000000238,140.76904300000024,15.769043000000238,52.94873000000007,132.94873000000007,114.35888699999941,108.46142599999985,119.74365200000011,70.25634799999989,-55.76928699999962,169.87158199999976,-390.897461,109.10253900000043
275,-1192.3076170000004,8.974121000000196,141.2822270000006,15.512695000000349,56.410155999999915,132.6923829999996,116.2822270000006,110.89746099999957,122.56396500000028,74.74365200000011,-54.74365200000011,176.15380900000036,-388.46142599999985,108.20507799999996
276,-1190.0,11.666503999999804,142.82031300000017,13.717772999999397,57.30761700000039,132.94873000000007,116.41015599999992,111.15380900000036,123.84619099999964,75.25634799999989,-55.1281740000004,179.87158199999976,-385.897461,104.48730499999965
277,-1188.974365,13.846190999999635,143.46142599999985,9.102539000000434,52.82031300000017,130.89746099999957,112.56396500000028,107.56396500000028,121.79492200000004,71.15380900000036,-57.564209000000574,178.46142599999985,-385.64111300000013,104.48730499999965
278,-1188.076904,12.692382999999609,142.05126999999993,3.9741210000001956,43.974121000000196,125.89746099999957,105.51269500000035,101.41015599999992,116.79492200000004,64.61523400000078,-62.051270000000386,173.3334960000002,-387.0512700000004,107.82031300000017
279,-1185.384521,9.615234000000783,139.3588869999994,2.6923829999996087,35.25634799999989,120.89746099999957,99.48730499999965,96.15380900000036,111.15380900000036,58.0771479999994,-65.64111300000013,168.58984400000008,-386.41015600000037,107.94873000000007
280,-1180.6411129999997,7.820313000000169,137.43603499999972,8.589844000000085,31.538574000000153,120.0,98.84619099999964,94.87158199999976,108.0771479999994,53.333496000000196,-65.1281740000004,167.17968800000017,-381.15380900000036,104.23095699999976
281,-1175.6411129999997,8.333496000000196,137.94873000000007,20.0,34.74365200000011,124.23095699999976,104.35888699999941,97.82031300000017,109.48730499999965,51.153809000000365,-59.48706099999981,168.46142599999985,-372.6923829999996,103.0771479999994
282,-1172.179443,10.384765999999217,140.12841800000024,30.384765999999217,42.82031300000017,130.6411130000006,111.79492200000004,102.69238299999961,114.35888699999941,52.17968800000017,-52.69238299999961,169.23095699999976,-365.7692869999996,106.15380900000036
283,-1170.769287,11.410155999999915,141.53857400000015,32.82031300000017,52.05126999999993,134.7436520000001,115.51269500000035,106.41015599999992,118.84619099999964,56.025878999999804,-50.64111300000013,167.3076170000004,-363.58984399999963,107.17968800000017
284,-1169.615479,10.128418000000238,139.87158199999976,26.153809000000365,58.7177729999994,133.46142599999985,112.82031300000017,107.17968800000017,119.61523400000078,61.2822270000006,-56.28198199999997,163.58984400000008,-365.0,104.23095699999976
285,-1165.769287,6.922852000000603,136.15380900000036,15.641113000000587,60.38476599999922,127.82031300000017,107.05126999999993,105.25634799999989,116.53857400000015,67.05126999999993,-64.48706099999981,161.79492200000004,-365.897461,103.46142599999985
286,-1157.179443,5.0,133.9741210000002,8.846190999999635,57.30761700000039,121.9228520000006,103.84619099999964,104.10253900000043,113.46142599999985,72.43603499999972,-66.92309599999999,165.38476599999922,-362.820557,107.82031300000017
287,-1145.5129390000002,7.051269999999931,135.89746099999957,9.230956999999762,52.05126999999993,119.23095699999976,106.53857400000015,106.15380900000036,114.35888699999941,75.76904300000024,-59.61547900000005,173.7177729999994,-356.53857400000015,111.0258789999998
288,-1136.5385739999997,12.051269999999931,140.51269500000035,13.205077999999958,47.30761700000039,119.23095699999976,111.9228520000006,110.89746099999957,119.74365200000011,75.38476599999922,-49.23071300000038,180.6411130000006,-351.02563499999997,107.82031300000017
289,-1135.5129390000002,15.769043000000238,142.56396500000028,13.333496000000196,44.23095699999976,118.84619099999964,113.9741210000002,114.10253900000043,126.0258789999998,72.30761700000039,-46.153809000000365,179.7436520000001,-349.7436520000001,103.3334960000002
290,-1141.281982,15.384765999999217,138.58984400000008,6.282227000000603,42.82031300000017,116.9228520000006,109.87158199999976,112.82031300000017,128.84619099999964,70.12841800000024,-53.71801800000003,170.76904300000024,-350.38452099999995,103.84619099999964
291,-1145.5129390000002,12.307617000000391,130.38476599999922,-2.8203119999998307,42.82031300000017,116.0258789999998,103.46142599999985,108.84619099999964,127.05126999999993,71.79492200000004,-63.20507799999996,160.38476599999922,-347.4357909999994,106.53857400000015
292,-1140.769287,10.769043000000238,124.10253900000043,-4.102538999999979,43.7177729999994,118.7177729999994,101.41015599999992,106.15380900000036,122.69238299999961,76.9228520000006,-62.564209000000574,157.17968800000017,-337.4357909999994,105.38476599999922
293,-1126.666748,13.717772999999397,124.87158199999976,7.56396500000028,44.87158199999976,123.7177729999994,105.76904300000024,107.05126999999993,119.10253900000043,81.9228520000006,-48.20507799999996,163.58984400000008,-323.84619099999964,102.56396500000028
294,-1110.384521,20.128418000000238,131.41015599999992,26.410155999999915,45.64111300000059,126.79492200000004,112.94873000000007,109.87158199999976,117.56396500000028,83.0771479999994,-28.71801800000003,173.7177729999994,-314.4870609999998,103.7177729999994
295,-1098.974365,26.538574000000153,137.94873000000007,40.38476599999922,45.897460999999566,125.38476599999922,116.41015599999992,111.2822270000006,117.17968800000017,78.58984400000008,-17.435790999999426,178.9741210000002,-313.84619099999964,106.6665039999998
296,-1095.384521,29.358886999999413,138.7177729999994,40.64111300000059,45.76904300000024,121.2822270000006,113.0771479999994,109.74365200000011,116.9228520000006,70.12841800000024,-21.025634999999966,174.87158199999976,-320.0,105.0
297,-1097.3076170000004,26.538574000000153,133.0771479999994,28.717772999999397,45.64111300000059,118.9741210000002,105.25634799999989,106.53857400000015,116.79492200000004,62.56396500000028,-35.89746100000002,163.9741210000002,-325.897461,99.74365200000011
298,-1100.5129390000002,19.615234000000783,124.87158199999976,14.102539000000434,45.64111300000059,121.79492200000004,98.9741210000002,103.9741210000002,116.9228520000006,60.38476599999922,-50.51293900000019,153.3334960000002,-326.28198199999997,98.3334960000002
299,-1101.153809,13.205077999999958,119.61523400000078,6.538574000000153,47.56396500000028,128.9741210000002,98.58984400000008,103.7177729999994,116.9228520000006,63.20507799999996,-54.74365200000011,149.61523400000078,-320.5129390000002,101.41015599999992
300,-1097.94873,11.282227000000603,120.0,8.333496000000196,51.666503999999804,135.76904300000024,103.58984400000008,105.0,116.15380900000036,67.17968800000017,-46.53857400000015,153.58984400000008,-312.9487299999996,102.69238299999961
301,-1092.820557,13.461425999999847,123.9741210000002,14.487304999999651,55.64111300000059,136.9228520000006,108.46142599999985,104.74365200000011,114.23095699999976,68.3334960000002,-33.46142599999985,159.3588869999994,-308.97436500000003,100.51269500000035
302,-1088.589844,15.256347999999889,126.41015599999992,18.077147999999397,55.0,130.76904300000024,108.20507799999996,100.25634799999989,111.41015599999992,66.9228520000006,-26.538574000000153,159.10253900000043,-310.1281740000004,101.0258789999998
303,-1085.769287,12.948730000000069,124.23095699999976,16.410155999999915,48.333496000000196,121.41015599999992,102.94873000000007,92.94873000000007,108.84619099999964,65.64111300000059,-30.1281740000004,150.76904300000024,-312.3076170000004,106.15380900000036
304,-1081.025635,8.461425999999847,119.35888699999941,13.589844000000085,40.0,115.89746099999957,98.20507799999996,88.46142599999985,108.20507799999996,67.05126999999993,-38.846190999999635,140.2563479999999,-309.102539,108.84619099999964
305,-1071.025635,7.307617000000391,116.9228520000006,15.128418000000238,36.666503999999804,117.94873000000007,98.3334960000002,91.41015599999992,110.51269500000035,70.76904300000024,-42.69238299999961,137.05126999999993,-298.58984399999963,105.0
306,-1057.6923829999996,12.948730000000069,120.0,22.05126999999993,42.56396500000028,125.25634799999989,103.7177729999994,100.89746099999957,115.25634799999989,73.7177729999994,-36.92309599999999,145.89746099999957,-285.38452099999995,101.15380900000036
307,-1047.5642090000001,23.077147999999397,126.41015599999992,29.102539000000434,55.51269500000035,131.15380900000036,110.25634799999989,110.64111300000059,120.25634799999989,73.7177729999994,-26.025634999999966,161.6665039999998,-277.4357909999994,103.3334960000002
308,-1045.384521,31.794922000000042,130.6411130000006,30.0,68.46142599999985,130.38476599999922,113.3334960000002,113.58984400000008,122.56396500000028,70.64111300000059,-18.71801800000003,174.10253900000043,-278.71801800000003,107.17968800000017
309,-1049.743652,33.846190999999635,129.7436520000001,22.82031300000017,73.7177729999994,123.7177729999994,110.89746099999957,107.94873000000007,121.0258789999998,66.79492200000004,-20.38452099999995,175.51269500000035,-285.7692869999996,106.41015599999992
310,-1053.846191,28.205077999999958,125.64111300000059,12.692382999999609,68.84619099999964,115.51269500000035,105.25634799999989,97.69238299999961,116.53857400000015,65.12841800000024,-28.974365000000034,166.6665039999998,-291.66674799999964,103.46142599999985
311,-1051.281982,18.461425999999847,122.17968800000017,7.692382999999609,58.333496000000196,111.0258789999998,100.12841800000024,89.61523400000078,112.30761700000039,66.15380900000036,-37.948729999999614,155.0,-291.53857400000015,104.48730499999965
312,-1040.897461,10.512695000000349,122.05126999999993,13.205077999999958,51.2822270000006,112.56396500000028,98.58984400000008,87.82031300000017,110.38476599999922,67.94873000000007,-41.025634999999966,149.61523400000078,-285.7692869999996,107.69238299999961
313,-1026.153809,8.205077999999958,124.23095699999976,25.897460999999566,53.589844000000085,119.10253900000043,100.76904300000024,91.53857400000015,110.51269500000035,68.0771479999994,-36.53857400000015,153.58984400000008,-278.20507799999996,107.05126999999993
314,-1013.5898440000001,10.0,125.51269500000035,35.897460999999566,62.43603499999972,125.76904300000024,103.9741210000002,96.0258789999998,110.76904300000024,66.53857400000015,-28.974365000000034,162.82031300000017,-273.20507799999996,104.10253900000043
315,-1008.718018,10.769043000000238,122.94873000000007,35.12841800000024,68.58984400000008,127.94873000000007,104.74365200000011,96.53857400000015,109.35888699999941,65.51269500000035,-24.10253899999998,169.23095699999976,-272.3076170000004,105.25634799999989
316,-1012.5642090000001,7.307617000000391,117.56396500000028,24.74365200000011,65.38476599999922,124.74365200000011,102.56396500000028,92.69238299999961,106.0258789999998,66.9228520000006,-24.61547900000005,168.20507799999996,-273.84619099999964,109.23095699999976
317,-1019.615479,1.6665039999998044,113.0771479999994,14.230956999999762,54.102539000000434,119.74365200000011,100.0,89.23095699999976,102.82031300000017,70.51269500000035,-27.30761700000039,162.3076170000004,-275.0,108.58984400000008
318,-1022.4357909999999,-0.256347999999889,113.3334960000002,12.17968800000017,42.43603499999972,117.43603499999972,100.12841800000024,90.76904300000024,102.43603499999972,75.25634799999989,-26.666747999999643,158.46142599999985,-273.33325200000036,102.43603499999972
319,-1016.025635,5.641113000000587,119.10253900000043,19.74365200000011,38.0771479999994,120.12841800000024,103.58984400000008,98.20507799999996,106.53857400000015,80.25634799999989,-20.0,161.53857400000015,-268.71801800000003,98.9741210000002
320,-1001.923096,17.43603499999972,126.9228520000006,30.51269500000035,43.589844000000085,126.0258789999998,108.84619099999964,107.30761700000039,114.35888699999941,84.74365200000011,-10.1281740000004,169.87158199999976,-261.53857400000015,101.6665039999998
321,-986.794922,27.69238299999961,132.3076170000004,36.410155999999915,54.102539000000434,130.76904300000024,112.94873000000007,112.56396500000028,121.9228520000006,87.94873000000007,-3.3334960000001956,176.6665039999998,-253.33325200000036,103.7177729999994
322,-977.820557,28.846190999999635,132.05126999999993,33.20507799999996,61.79492200000004,129.7436520000001,113.0771479999994,111.0258789999998,124.61523400000078,88.46142599999985,-4.358886999999868,175.76904300000024,-247.179443,101.0258789999998
323,-977.5642090000001,18.974121000000196,126.15380900000036,23.205077999999958,60.51269500000035,121.9228520000006,108.58984400000008,103.46142599999985,120.25634799999989,85.89746099999957,-12.564209000000574,167.05126999999993,-247.0512700000004,98.46142599999985
324,-982.4357909999999,4.230956999999762,117.43603499999972,13.846190999999635,50.64111300000059,111.2822270000006,101.2822270000006,94.48730499999965,111.0258789999998,80.76904300000024,-22.30761700000039,155.6411130000006,-253.46142599999985,100.64111300000059
325,-984.7436520000001,-5.0,110.76904300000024,13.205077999999958,40.0,104.74365200000011,94.74365200000011,88.9741210000002,102.56396500000028,74.61523400000078,-27.179442999999992,148.46142599999985,-261.41015600000037,103.20507799999996
326,-979.4870609999998,-2.3076170000003913,109.35888699999941,22.56396500000028,36.53857400000015,106.15380900000036,91.53857400000015,89.23095699999976,98.9741210000002,69.35888699999941,-24.358886999999868,148.58984400000008,-264.35888699999987,101.6665039999998
327,-968.3332519999999,10.256347999999889,113.58984400000008,35.12841800000024,42.17968800000017,112.94873000000007,92.30761700000039,93.58984400000008,100.64111300000059,66.41015599999992,-17.051270000000386,154.48730499999965,-259.8718259999996,100.25634799999989
328,-957.5642090000001,23.205077999999958,120.25634799999989,41.666503999999804,50.38476599999922,117.69238299999961,95.25634799999989,97.56396500000028,103.46142599999985,65.25634799999989,-11.153809000000365,161.41015599999992,-251.66674799999964,104.10253900000043
329,-953.076904,27.82031300000017,125.64111300000059,38.846190999999635,52.30761700000039,115.76904300000024,97.43603499999972,97.17968800000017,102.82031300000017,63.333496000000196,-11.28198199999997,165.0,-246.15380900000036,108.58984400000008
330,-955.7692870000001,21.538574000000153,127.30761700000039,30.769043000000238,44.48730499999965,108.58984400000008,96.53857400000015,91.0258789999998,96.79492200000004,58.0771479999994,-17.435790999999426,163.84619099999964,-247.179443,106.6665039999998
331,-961.1538089999999,8.846190999999635,124.61523400000078,24.230956999999762,30.769043000000238,101.6665039999998,91.9228520000006,80.76904300000024,87.69238299999961,50.51269500000035,-25.38452099999995,158.84619099999964,-253.46142599999985,100.64111300000059
332,-962.5642090000001,-2.1796869999998307,118.7177729999994,22.30761700000039,19.48730499999965,99.61523400000078,85.25634799999989,70.25634799999989,79.48730499999965,45.12841800000024,-29.61547900000005,152.56396500000028,-258.58984399999963,98.7177729999994
333,-955.128174,-6.025634999999966,112.43603499999972,24.74365200000011,17.30761700000039,103.3334960000002,80.12841800000024,63.974121000000196,75.89746099999957,45.38476599999922,-28.076904000000013,147.3076170000004,-255.89746100000002,101.79492200000004
334,-941.025635,-2.5639650000002803,109.23095699999976,29.358886999999413,24.74365200000011,109.74365200000011,79.48730499999965,64.87158199999976,78.3334960000002,51.9228520000006,-22.69238299999961,144.87158199999976,-243.84619099999964,103.20507799999996
335,-927.3076170000004,2.8203130000001693,110.38476599999922,33.589844000000085,37.05126999999993,114.48730499999965,84.35888699999941,72.56396500000028,86.0258789999998,62.69238299999961,-16.923095999999987,146.0258789999998,-229.10253899999998,101.2822270000006
336,-920.6411129999997,4.487304999999651,114.48730499999965,34.61523400000078,48.0771479999994,115.89746099999957,92.56396500000028,83.7177729999994,95.38476599999922,74.48730499999965,-12.820557000000008,149.87158199999976,-221.28198199999997,101.0258789999998
337,-921.794922,0.769043000000238,118.3334960000002,30.51269500000035,54.23095699999976,116.0258789999998,100.38476599999922,93.9741210000002,102.30761700000039,83.46142599999985,-10.0,154.7436520000001,-224.7436520000001,103.7177729999994
338,-925.2563479999999,-3.846190999999635,119.48730499999965,22.30761700000039,55.51269500000035,118.58984400000008,104.35888699999941,100.0,104.48730499999965,86.41015599999992,-6.794922000000042,157.56396500000028,-235.0,103.7177729999994
339,-925.2563479999999,-3.717772999999397,118.0771479999994,14.230956999999762,53.846190999999635,123.84619099999964,103.58984400000008,100.64111300000059,102.30761700000039,82.94873000000007,-2.6923829999996087,156.79492200000004,-242.0512700000004,100.51269500000035
340,-920.2563479999999,3.3334960000001956,115.64111300000059,11.153809000000365,50.897460999999566,128.3334960000002,100.51269500000035,97.30761700000039,98.9741210000002,75.89746099999957,0.38476599999921746,152.82031300000017,-239.8718259999996,100.64111300000059
341,-912.6923829999996,13.589844000000085,113.20507799999996,14.358886999999413,46.666503999999804,127.56396500000028,97.69238299999961,92.56396500000028,97.17968800000017,70.0,0.8974609999995664,148.20507799999996,-229.7436520000001,106.53857400000015
342,-906.1538089999999,20.769043000000238,111.53857400000015,21.538574000000153,40.64111300000059,121.6665039999998,96.41015599999992,88.7177729999994,97.69238299999961,67.82031300000017,-1.2822270000006029,145.6411130000006,-218.33325200000036,110.12841800000024
343,-901.794922,20.384765999999217,111.0258789999998,28.589844000000085,33.846190999999635,115.38476599999922,96.41015599999992,87.56396500000028,99.35888699999941,70.0,-4.358886999999868,146.0258789999998,-212.179443,105.76904300000024
344,-899.2307129999999,12.43603499999972,111.9228520000006,32.30761700000039,28.846190999999635,112.43603499999972,96.79492200000004,88.84619099999964,100.51269500000035,76.2822270000006,-6.794922000000042,147.56396500000028,-212.43579099999943,98.9741210000002
345,-896.923096,1.4101559999999154,113.20507799999996,31.666503999999804,26.922852000000603,111.79492200000004,96.41015599999992,90.51269500000035,100.0,85.38476599999922,-8.333252000000357,147.3076170000004,-216.15380900000036,98.0771479999994
346,-894.3588870000003,-6.923095999999987,112.82031300000017,27.69238299999961,27.05126999999993,109.35888699999941,93.84619099999964,89.87158199999976,96.9228520000006,93.3334960000002,-10.38452099999995,142.6923829999996,-219.4870609999998,101.0258789999998
347,-891.794922,-9.743652000000111,109.23095699999976,22.69238299999961,26.922852000000603,103.3334960000002,88.7177729999994,85.51269500000035,91.2822270000006,94.61523400000078,-14.230713000000378,134.23095699999976,-220.76928699999962,101.41015599999992
348,-889.3588870000003,-7.948729999999614,104.10253900000043,19.615234000000783,27.17968800000017,97.43603499999972,83.46142599999985,79.23095699999976,84.87158199999976,85.51269500000035,-18.71801800000003,126.2822270000006,-220.0,99.74365200000011
349,-886.1538089999999,-3.9741210000001956,101.0258789999998,20.769043000000238,30.641113000000587,97.69238299999961,81.41015599999992,74.74365200000011,81.0258789999998,69.10253900000043,-19.8718259999996,124.23095699999976,-216.53857400000015,100.89746099999957
350,-880.128174,0.256347999999889,102.17968800000017,25.769043000000238,38.846190999999635,106.6665039999998,84.74365200000011,75.38476599999922,81.6665039999998,53.974121000000196,-14.61547900000005,130.12841800000024,-209.8718259999996,103.3334960000002
351,-870.6411129999997,4.102539000000434,106.53857400000015,31.025878999999804,48.20507799999996,120.25634799999989,91.53857400000015,81.0258789999998,86.0258789999998,49.23095699999976,-3.9741210000001956,140.38476599999922,-201.02563499999997,101.41015599999992
352,-858.974365,7.43603499999972,111.0258789999998,33.333496000000196,52.17968800000017,130.12841800000024,98.46142599999985,88.0771479999994,91.53857400000015,58.46142599999985,6.538574000000153,148.0771479999994,-193.33325200000036,96.79492200000004
353,-847.4357909999999,9.743652000000111,112.82031300000017,31.922852000000603,47.82031300000017,129.7436520000001,102.05126999999993,91.9228520000006,96.0258789999998,77.94873000000007,11.794922000000042,148.46142599999985,-190.1281740000004,96.6665039999998
354,-838.718018,9.871581999999762,111.0258789999998,29.48730499999965,38.589844000000085,120.25634799999989,101.79492200000004,91.9228520000006,98.9741210000002,98.58984400000008,11.153809000000365,142.56396500000028,-191.923096,101.53857400000015
355,-834.4870609999998,7.179688000000169,107.56396500000028,28.589844000000085,31.538574000000153,110.38476599999922,99.74365200000011,91.9228520000006,101.15380900000036,112.05126999999993,8.846190999999635,136.41015599999992,-195.38452099999995,104.10253900000043
356,-835.128174,2.0512699999999313,105.76904300000024,28.846190999999635,30.25634799999989,108.20507799999996,98.9741210000002,95.25634799999989,103.9741210000002,115.12841800000024,9.102539000000434,135.6411130000006,-195.76928699999962,102.56396500000028
357,-838.718018,-3.5898440000000846,106.79492200000004,28.205077999999958,32.43603499999972,114.74365200000011,100.64111300000059,100.89746099999957,107.43603499999972,110.76904300000024,12.82031300000017,140.89746099999957,-191.66674799999964,103.0771479999994
358,-841.6667480000001,-6.281981999999971,109.10253900000043,26.153809000000365,33.974121000000196,123.0771479999994,103.20507799999996,104.10253900000043,109.74365200000011,103.58984400000008,17.30761700000039,147.6923829999996,-184.8718259999996,107.94873000000007
359,-839.4870609999998,-2.9487300000000687,110.25634799999989,25.25634799999989,33.46142599999985,125.25634799999989,103.84619099999964,100.64111300000059,108.58984400000008,97.05126999999993,19.230956999999762,150.6411130000006,-178.97436500000003,110.12841800000024
360,-831.025635,6.153809000000365,109.74365200000011,28.589844000000085,33.333496000000196,119.10253900000043,100.64111300000059,91.2822270000006,102.69238299999961,91.79492200000004,16.666503999999804,147.56396500000028,-176.923096,105.12841800000024
361,-819.102539,16.794922000000042,108.7177729999994,37.69238299999961,36.666503999999804,109.23095699999976,94.48730499999965,80.51269500000035,93.9741210000002,86.9228520000006,9.743652000000111,140.89746099999957,-178.97436500000003,98.9741210000002
362,-808.5898440000001,25.384765999999217,108.9741210000002,50.38476599999922,44.48730499999965,103.0771479999994,87.94873000000007,73.46142599999985,86.0258789999998,81.15380900000036,1.2822270000006029,135.12841800000024,-183.84619099999964,98.3334960000002
363,-802.0512699999999,31.282227000000603,110.89746099999957,62.43603499999972,54.74365200000011,105.64111300000059,84.35888699999941,72.82031300000017,82.43603499999972,73.84619099999964,-4.871825999999601,133.46142599999985,-188.97436500000003,100.38476599999922
364,-798.718018,36.153809000000365,113.3334960000002,68.9741210000002,62.17968800000017,114.74365200000011,84.74365200000011,76.15380900000036,82.82031300000017,65.76904300000024,-5.897461000000021,135.2563479999999,-193.20507799999996,99.61523400000078
365,-796.794922,39.48730499999965,114.35888699999941,66.2822270000006,61.2822270000006,122.69238299999961,87.05126999999993,78.0771479999994,84.35888699999941,58.974121000000196,-2.8203119999998307,137.17968800000017,-198.20507799999996,98.7177729999994
366,-795.384521,39.74365200000011,112.30761700000039,55.12841800000024,51.153809000000365,122.05126999999993,87.69238299999961,75.12841800000024,83.7177729999994,55.0,-0.38476599999921746,135.89746099999957,-205.64111300000013,102.17968800000017
367,-793.076904,36.666503999999804,108.0771479999994,41.153809000000365,39.48730499999965,112.94873000000007,84.87158199999976,68.84619099999964,80.76904300000024,55.0,-1.6665039999998044,132.3076170000004,-212.6923829999996,106.53857400000015
368,-788.4614260000003,33.7177729999994,104.87158199999976,32.56396500000028,36.666503999999804,102.82031300000017,81.0258789999998,64.74365200000011,78.58984400000008,60.64111300000059,-5.512939000000188,129.87158199999976,-213.33325200000036,104.87158199999976
369,-780.7692870000001,34.48730499999965,104.87158199999976,33.589844000000085,47.17968800000017,99.87158199999976,80.38476599999922,66.79492200000004,80.38476599999922,72.05126999999993,-7.179442999999992,131.79492200000004,-204.61547900000005,99.35888699999941
370,-771.281982,38.46142599999985,107.82031300000017,41.9228520000006,63.7177729999994,106.6665039999998,84.23095699999976,74.10253900000043,85.89746099999957,85.89746099999957,-3.717772999999397,136.15380900000036,-191.66674799999964,98.46142599999985
371,-762.820557,42.05126999999993,111.0258789999998,51.2822270000006,73.58984400000008,118.84619099999964,90.38476599999922,81.41015599999992,91.6665039999998,95.12841800000024,2.5639650000002803,139.23095699999976,-183.84619099999964,102.43603499999972
372,-757.3076170000004,42.43603499999972,112.43603499999972,56.53857400000015,69.87158199999976,128.46142599999985,94.48730499999965,83.7177729999994,94.10253900000043,93.7177729999994,6.794922000000042,138.7177729999994,-186.79492200000004,104.23095699999976
373,-755.0,39.23095699999976,112.05126999999993,56.153809000000365,56.2822270000006,129.3588869999994,94.48730499999965,80.64111300000059,92.30761700000039,83.46142599999985,5.3847659999992175,136.6665039999998,-196.923096,101.6665039999998
374,-755.6411129999997,34.35888699999941,110.76904300000024,52.17968800000017,44.74365200000011,122.05126999999993,92.17968800000017,76.53857400000015,89.10253900000043,73.46142599999985,-0.6411130000005869,136.2822270000006,-204.61547900000005,100.64111300000059
375,-758.5898440000001,30.384765999999217,109.48730499999965,47.94873000000007,45.12841800000024,113.20507799999996,90.64111300000059,76.0258789999998,87.82031300000017,72.30761700000039,-6.666747999999643,138.20507799999996,-202.3076170000004,103.3334960000002
376,-762.4357909999999,28.717772999999397,108.20507799999996,45.76904300000024,57.05126999999993,109.23095699999976,91.15380900000036,79.87158199999976,89.48730499999965,80.12841800000024,-8.58984399999963,139.3588869999994,-190.2563479999999,103.9741210000002
377,-764.7436520000001,28.333496000000196,106.79492200000004,46.025878999999804,69.35888699999941,111.0258789999998,91.53857400000015,83.9741210000002,90.89746099999957,87.30761700000039,-6.41015600000037,136.41015599999992,-176.41015600000037,100.0
378,-762.3076170000004,26.922852000000603,105.12841800000024,47.17968800000017,69.61523400000078,113.58984400000008,89.10253900000043,83.58984400000008,88.9741210000002,83.58984400000008,-3.2050779999999577,129.23095699999976,-169.7436520000001,98.3334960000002
379,-753.076904,23.461425999999847,103.46142599999985,46.9228520000006,56.79492200000004,112.17968800000017,84.35888699999941,78.7177729999994,84.10253900000043,67.56396500000028,-2.0512699999999313,121.79492200000004,-173.20507799999996,102.56396500000028
380,-739.8718259999996,20.25634799999989,103.0771479999994,43.20507799999996,43.333496000000196,107.17968800000017,81.53857400000015,74.10253900000043,80.25634799999989,48.846190999999635,-4.230713000000378,118.9741210000002,-182.3076170000004,106.2822270000006
381,-732.4357909999994,19.230956999999762,105.12841800000024,36.9228520000006,44.48730499999965,103.58984400000008,84.48730499999965,75.25634799999989,81.2822270000006,41.153809000000365,-9.61547900000005,122.30761700000039,-191.15380900000036,103.20507799999996
382,-742.6923829999996,17.05126999999993,109.35888699999941,31.025878999999804,62.69238299999961,104.23095699999976,92.17968800000017,81.9228520000006,87.17968800000017,50.64111300000059,-17.435790999999426,129.23095699999976,-197.43579099999943,98.0771479999994
383,-773.205078,7.051269999999931,112.82031300000017,28.589844000000085,83.58984400000008,107.56396500000028,97.94873000000007,87.30761700000039,92.05126999999993,70.38476599999922,-25.1281740000004,133.9741210000002,-201.66674799999964,98.20507799999996
