,EEG.AF3,EEG.F7,EEG.F3,EEG.FC5,EEG.T7,EEG.P7,EEG.O1,EEG.O2,EEG.P8,EEG.T8,EEG.FC6,EEG.F4,EEG.F8,EEG.AF4
0,73.0771479999994,-27.30761700000039,96.41015599999992,104.10253900000043,112.82031300000017,116.53857400000015,114.10253900000043,118.3334960000002,114.87158199999976,110.25634799999989,93.84619099999964,112.30761700000039,-199.4870609999998,108.0771479999994
1,77.30761700000039,-22.435790999999426,100.12841800000024,109.74365200000011,117.56396500000028,117.30761700000039,117.30761700000039,120.12841800000024,115.89746099999957,106.9228520000006,88.46142599999985,113.9741210000002,-194.61547900000005,105.51269500000035
2,77.94873000000007,-19.61547900000005,102.05126999999993,113.7177729999994,121.0258789999998,117.94873000000007,118.46142599999985,119.87158199999976,116.9228520000006,105.51269500000035,83.58984400000008,114.35888699999941,-191.41015600000037,108.58984400000008
3,75.38476599999922,-19.230713000000378,100.89746099999957,113.9741210000002,122.43603499999972,119.35888699999941,117.05126999999993,117.82031300000017,117.05126999999993,106.6665039999998,84.35888699999941,112.94873000000007,-190.1281740000004,113.46142599999985
4,72.30761700000039,-20.512939000000188,97.69238299999961,110.64111300000059,122.56396500000028,121.41015599999992,115.0,115.38476599999922,116.2822270000006,110.76904300000024,90.64111300000059,110.64111300000059,-188.84619099999964,113.0771479999994
5,70.76904300000024,-22.820557000000008,94.35888699999941,105.25634799999989,121.79492200000004,122.56396500000028,113.58984400000008,113.9741210000002,115.38476599999922,115.64111300000059,96.41015599999992,108.20507799999996,-185.76928699999962,108.9741210000002
6,70.25634799999989,-26.025634999999966,92.17968800000017,100.25634799999989,119.48730499999965,120.76904300000024,112.82031300000017,113.58984400000008,114.61523400000078,117.43603499999972,94.74365200000011,105.89746099999957,-181.28198199999997,107.82031300000017
7,69.10253900000043,-29.358886999999868,90.89746099999957,98.0771479999994,115.51269500000035,116.53857400000015,112.05126999999993,113.20507799999996,113.58984400000008,113.3334960000002,84.87158199999976,103.7177729999994,-177.3076170000004,110.64111300000059
8,67.69238299999961,-30.38452099999995,90.38476599999922,100.0,111.53857400000015,113.9741210000002,111.9228520000006,112.69238299999961,112.56396500000028,106.0258789999998,72.94873000000007,102.56396500000028,-174.7436520000001,111.41015599999992
9,67.30761700000039,-27.435790999999426,91.2822270000006,105.51269500000035,109.61523400000078,115.64111300000059,113.7177729999994,113.20507799999996,112.56396500000028,101.53857400000015,68.20507799999996,104.35888699999941,-172.3076170000004,108.9741210000002
10,68.9741210000002,-21.28198199999997,93.9741210000002,111.53857400000015,110.64111300000059,120.38476599999922,116.79492200000004,115.51269500000035,113.7177729999994,104.35888699999941,74.74365200000011,109.23095699999976,-169.10253899999998,108.20507799999996
11,71.9228520000006,-14.8718259999996,96.9228520000006,114.48730499999965,113.20507799999996,124.10253900000043,119.35888699999941,118.3334960000002,115.76904300000024,113.84619099999964,88.84619099999964,115.12841800000024,-164.10253899999998,110.76904300000024
12,75.25634799999989,-10.897461000000021,98.0771479999994,112.69238299999961,115.76904300000024,124.61523400000078,119.35888699999941,119.48730499999965,117.69238299999961,124.61523400000078,101.2822270000006,118.84619099999964,-157.0512700000004,111.6665039999998
13,77.69238299999961,-11.025634999999966,96.9228520000006,108.3334960000002,117.17968800000017,122.56396500000028,116.53857400000015,118.3334960000002,118.84619099999964,130.89746099999957,104.74365200000011,119.10253900000043,-149.10253899999998,108.84619099999964
14,78.84619099999964,-15.0,95.12841800000024,104.74365200000011,116.2822270000006,120.25634799999989,112.82031300000017,115.89746099999957,118.58984400000008,128.58984400000008,98.3334960000002,116.79492200000004,-143.97436500000003,107.43603499999972
15,79.48730499999965,-19.74365200000011,94.23095699999976,103.9741210000002,113.0771479999994,118.9741210000002,110.76904300000024,113.58984400000008,116.79492200000004,118.58984400000008,88.3334960000002,114.10253900000043,-145.0,110.64111300000059
16,81.2822270000006,-19.8718259999996,94.61523400000078,105.38476599999922,109.35888699999941,119.10253900000043,111.79492200000004,112.69238299999961,114.87158199999976,106.79492200000004,83.0771479999994,112.56396500000028,-150.76928699999962,113.46142599999985
17,83.9741210000002,-13.333252000000357,95.76904300000024,106.79492200000004,107.56396500000028,120.25634799999989,115.25634799999989,112.94873000000007,113.9741210000002,100.38476599999922,86.9228520000006,111.9228520000006,-155.2563479999999,111.9228520000006
18,83.84619099999964,-3.9741210000001956,96.41015599999992,106.15380900000036,107.56396500000028,120.64111300000059,118.0771479999994,113.7177729999994,114.10253900000043,101.41015599999992,96.2822270000006,110.0,-153.076904,110.12841800000024
19,78.58984400000008,0.38476599999921746,94.87158199999976,103.20507799999996,107.43603499999972,119.23095699999976,116.9228520000006,113.9741210000002,113.9741210000002,105.89746099999957,102.94873000000007,105.64111300000059,-145.38452099999995,112.17968800000017
20,72.43603499999972,-3.4614259999998467,91.79492200000004,99.48730499999965,105.89746099999957,116.79492200000004,111.6665039999998,113.7177729999994,113.46142599999985,108.46142599999985,102.17968800000017,101.41015599999992,-138.46142599999985,114.74365200000011
21,73.84619099999964,-10.512939000000188,90.0,97.94873000000007,104.23095699999976,115.51269500000035,105.64111300000059,113.46142599999985,112.94873000000007,107.43603499999972,96.0258789999998,101.9228520000006,-136.79492200000004,112.43603499999972
22,85.0,-11.923095999999987,91.79492200000004,100.12841800000024,103.20507799999996,114.87158199999976,102.05126999999993,113.20507799999996,112.94873000000007,104.74365200000011,89.61523400000078,108.0771479999994,-139.35888699999987,108.58984400000008
23,97.17968800000017,-4.230713000000378,95.64111300000059,103.9741210000002,101.9228520000006,112.82031300000017,101.41015599999992,111.2822270000006,112.30761700000039,102.43603499999972,86.6665039999998,114.48730499999965,-140.5129390000002,109.23095699999976
24,99.74365200000011,7.307617000000391,97.43603499999972,105.25634799999989,99.10253900000043,108.3334960000002,101.9228520000006,107.05126999999993,110.64111300000059,101.41015599999992,88.7177729999994,115.0,-134.4870609999998,113.0771479999994
25,94.35888699999941,13.974121000000196,95.51269500000035,103.0771479999994,96.53857400000015,104.61523400000078,102.56396500000028,102.82031300000017,108.7177729999994,102.69238299999961,95.76904300000024,110.12841800000024,-119.8718259999996,113.20507799999996
26,95.76904300000024,10.769043000000238,93.58984400000008,100.25634799999989,97.17968800000017,104.74365200000011,103.84619099999964,102.43603499999972,108.20507799999996,106.41015599999992,106.15380900000036,108.3334960000002,-102.82055700000001,109.35888699999941
27,119.48730499999965,3.2050779999999577,96.41015599999992,101.6665039999998,101.6665039999998,108.84619099999964,106.41015599999992,107.17968800000017,109.48730499999965,111.41015599999992,116.2822270000006,117.05126999999993,-91.53857400000015,107.94873000000007
28,167.6923829999996,4.6152340000007825,104.74365200000011,109.74365200000011,108.3334960000002,112.94873000000007,110.12841800000024,114.48730499999965,111.53857400000015,115.0,123.46142599999985,135.76904300000024,-87.69238299999961,111.15380900000036
29,227.17968800000017,26.666503999999804,114.87158199999976,122.56396500000028,114.35888699999941,113.7177729999994,113.58984400000008,119.87158199999976,113.0771479999994,116.53857400000015,129.23095699999976,156.53857400000015,-81.15380900000036,113.58984400000008
30,277.94873000000007,68.0771479999994,121.9228520000006,135.6411130000006,117.17968800000017,110.89746099999957,115.25634799999989,120.12841800000024,113.3334960000002,116.53857400000015,137.6923829999996,171.0258789999998,-57.051270000000386,112.43603499999972
31,305.12841800000024,111.9228520000006,123.46142599999985,143.7177729999994,114.61523400000078,106.53857400000015,113.46142599999985,115.0,111.9228520000006,115.89746099999957,149.61523400000078,175.12841800000024,-10.256347999999889,111.15380900000036
32,309.23095699999976,137.82031300000017,120.12841800000024,145.12841800000024,107.56396500000028,103.0771479999994,108.7177729999994,107.56396500000028,109.23095699999976,114.74365200000011,160.6411130000006,171.79492200000004,49.74365200000011,111.53857400000015
33,307.05126999999993,140.12841800000024,115.51269500000035,142.56396500000028,100.12841800000024,102.56396500000028,103.58984400000008,102.30761700000039,106.41015599999992,114.35888699999941,165.51269500000035,168.46142599999985,105.76904300000024,110.12841800000024
34,320.12841800000024,133.46142599999985,114.87158199999976,142.05126999999993,97.69238299999961,105.0,101.2822270000006,102.30761700000039,104.61523400000078,115.76904300000024,163.9741210000002,172.17968800000017,150.0,106.0258789999998
35,358.0771479999994,138.20507799999996,120.25634799999989,147.6923829999996,100.76904300000024,107.43603499999972,102.17968800000017,106.15380900000036,104.23095699999976,117.82031300000017,160.76904300000024,184.7436520000001,192.94873000000007,105.38476599999922
36,409.7436520000001,161.9228520000006,128.58984400000008,158.20507799999996,104.61523400000078,106.0258789999998,103.58984400000008,109.61523400000078,103.7177729999994,117.69238299999961,160.6411130000006,200.6411130000006,260.51269500000035,111.0258789999998
37,452.4360349999997,194.48730499999965,133.84619099999964,168.3334960000002,103.9741210000002,100.0,103.3334960000002,109.35888699999941,102.43603499999972,114.23095699999976,164.7436520000001,211.79492200000004,376.53857400000015,116.0258789999998
38,471.4101559999999,220.0,133.3334960000002,174.10253900000043,97.94873000000007,92.94873000000007,102.05126999999993,106.2822270000006,100.38476599999922,109.87158199999976,169.87158199999976,214.61523400000078,545.8974609999996,113.46142599999985
39,472.17968800000017,230.12841800000024,129.87158199999976,176.0258789999998,90.12841800000024,88.84619099999964,101.53857400000015,103.0771479999994,98.0771479999994,107.69238299999961,172.05126999999993,212.43603499999972,752.4360349999997,107.17968800000017
40,473.9741210000002,229.87158199999976,128.0771479999994,177.6923829999996,84.10253900000043,88.58984400000008,102.30761700000039,101.53857400000015,94.48730499999965,108.58984400000008,169.10253900000043,211.53857400000015,973.8461909999996,105.64111300000059
41,493.3334960000002,231.41015599999992,129.3588869999994,182.82031300000017,81.0258789999998,89.48730499999965,102.94873000000007,101.0258789999998,88.7177729999994,110.76904300000024,162.82031300000017,215.12841800000024,1197.3076170000004,109.48730499999965
42,532.3076170000004,244.87158199999976,132.43603499999972,191.6665039999998,79.87158199999976,89.10253900000043,102.30761700000039,100.25634799999989,81.15380900000036,112.43603499999972,157.94873000000007,222.17968800000017,1423.0771479999994,112.56396500000028
43,577.6923829999996,273.9741210000002,135.12841800000024,202.05126999999993,78.58984400000008,86.79492200000004,100.12841800000024,99.10253900000043,74.48730499999965,112.56396500000028,158.0771479999994,229.48730499999965,1657.3076170000004,113.20507799999996
44,611.2822270000006,318.20507799999996,136.2822270000006,210.2563479999999,75.38476599999922,82.94873000000007,96.53857400000015,97.43603499999972,70.38476599999922,111.41015599999992,162.43603499999972,233.9741210000002,1903.8461909999996,114.87158199999976
45,621.5385740000002,378.46142599999985,134.3588869999994,214.10253900000043,70.0,78.46142599999985,92.30761700000039,95.0,68.58984400000008,109.74365200000011,167.05126999999993,233.20507799999996,2160.5126950000003,116.41015599999992
46,611.1538090000004,457.6923829999996,129.48730499999965,214.23095699999976,64.48730499999965,74.61523400000078,88.3334960000002,91.79492200000004,68.0771479999994,108.46142599999985,168.9741210000002,227.3076170000004,2416.025879,113.3334960000002
47,596.4101559999999,556.6665039999998,123.3334960000002,213.20507799999996,60.64111300000059,71.9228520000006,85.51269500000035,88.3334960000002,68.0771479999994,107.56396500000028,169.3588869999994,219.3588869999994,2653.3334959999993,106.79492200000004
48,596.4101559999999,668.9741210000002,119.35888699999941,213.7177729999994,58.589844000000085,68.9741210000002,83.84619099999964,85.51269500000035,67.94873000000007,106.6665039999998,172.82031300000017,214.87158199999976,2860.5126950000003,104.74365200000011
49,620.2563479999999,784.7436520000001,119.61523400000078,216.2822270000006,56.153809000000365,64.48730499999965,82.82031300000017,84.48730499999965,67.43603499999972,106.0258789999998,182.3076170000004,217.17968800000017,3037.1796879999993,109.48730499999965
50,659.1025390000004,897.9487300000001,123.84619099999964,219.87158199999976,52.05126999999993,59.61523400000078,82.17968800000017,85.89746099999957,66.0258789999998,106.79492200000004,196.2822270000006,224.61523400000078,3186.6665040000007,114.10253900000043
51,692.6923829999996,1010.2563479999999,129.48730499999965,223.0771479999994,47.17968800000017,56.666503999999804,81.9228520000006,89.23095699999976,63.846190999999635,108.9741210000002,208.46142599999985,231.15380900000036,3305.128418000001,113.7177729999994
52,705.5126950000003,1124.6152340000008,132.82031300000017,224.61523400000078,42.30761700000039,56.410155999999915,81.0258789999998,91.53857400000015,60.38476599999922,111.0258789999998,212.56396500000028,231.53857400000015,3385.0,112.05126999999993
53,698.7177729999994,1240.0,131.41015599999992,224.3588869999994,38.0771479999994,56.79492200000004,78.84619099999964,89.87158199999976,55.25634799999989,110.64111300000059,208.3334960000002,225.51269500000035,3428.589844,112.82031300000017
54,686.2822270000006,1349.8715819999998,125.64111300000059,222.56396500000028,35.51269500000035,55.64111300000059,75.25634799999989,84.35888699999941,49.48730499999965,107.30761700000039,202.05126999999993,217.3076170000004,3452.6923829999996,112.94873000000007
55,682.4360349999997,1444.3588869999994,119.35888699999941,220.2563479999999,35.0,52.94873000000007,71.53857400000015,78.0771479999994,44.74365200000011,103.9741210000002,200.89746099999957,212.17968800000017,3473.7177730000003,109.10253900000043
56,691.794922,1514.8715819999998,116.53857400000015,218.20507799999996,35.64111300000059,49.74365200000011,68.9741210000002,74.74365200000011,41.79492200000004,102.94873000000007,206.41015599999992,212.56396500000028,3495.6411129999997,105.89746099999957
57,709.1025390000004,1560.8974609999996,118.0771479999994,216.41015599999992,35.51269500000035,46.53857400000015,67.43603499999972,75.51269500000035,40.0,104.35888699999941,213.46142599999985,216.9228520000006,3512.4360349999997,108.3334960000002
58,725.1284180000002,1591.794922,121.0258789999998,214.48730499999965,34.102539000000434,43.7177729999994,66.41015599999992,78.3334960000002,37.94873000000007,106.2822270000006,216.6665039999998,221.0258789999998,3519.3588870000003,112.94873000000007
59,731.794922,1620.0,122.05126999999993,212.43603499999972,32.82031300000017,42.69238299999961,65.89746099999957,80.76904300000024,35.897460999999566,107.17968800000017,214.7436520000001,221.41015599999992,3516.1538090000004,112.69238299999961
60,724.6152340000008,1650.7690430000002,120.25634799999989,210.2563479999999,33.589844000000085,43.974121000000196,66.15380900000036,81.41015599999992,34.74365200000011,107.56396500000028,210.6411130000006,217.3076170000004,3503.9741209999993,108.7177729999994
61,705.8974609999996,1682.5639650000003,117.69238299999961,209.10253900000043,36.79492200000004,47.17968800000017,68.20507799999996,80.89746099999957,34.48730499999965,108.58984400000008,208.46142599999985,210.51269500000035,3486.1538090000004,107.82031300000017
62,687.0512699999999,1714.4873049999997,117.43603499999972,210.89746099999957,42.56396500000028,51.79492200000004,72.43603499999972,80.64111300000059,34.35888699999941,111.53857400000015,211.15380900000036,205.12841800000024,3472.4360349999997,110.64111300000059
63,682.1796880000002,1747.1796880000002,121.15380900000036,216.41015599999992,49.61523400000078,56.9228520000006,77.69238299999961,81.53857400000015,33.20507799999996,116.15380900000036,219.10253900000043,204.7436520000001,3472.94873,112.05126999999993
64,696.4101559999999,1776.5385740000002,127.17968800000017,221.79492200000004,53.20507799999996,60.0,80.51269500000035,82.05126999999993,30.128418000000238,119.35888699999941,227.94873000000007,209.10253900000043,3486.0258790000007,110.76904300000024
65,720.5126950000003,1791.5385740000002,131.15380900000036,221.53857400000015,47.56396500000028,57.69238299999961,76.6665039999998,79.87158199999976,24.74365200000011,117.30761700000039,231.41015599999992,213.7177729999994,3497.4360349999997,110.89746099999957
66,740.6411130000006,1785.5126950000003,130.12841800000024,213.7177729999994,34.35888699999941,50.12841800000024,67.17968800000017,74.48730499999965,18.333496000000196,111.15380900000036,227.43603499999972,215.0,3494.230956999999,113.0771479999994
67,750.1284180000002,1768.0771479999994,126.15380900000036,204.10253900000043,24.871581999999762,43.46142599999985,60.0,70.64111300000059,15.128418000000238,107.94873000000007,222.17968800000017,214.10253900000043,3478.205078,112.30761700000039
68,750.1284180000002,1758.7177729999994,124.87158199999976,200.76904300000024,30.384765999999217,44.87158199999976,62.82031300000017,73.46142599999985,18.333496000000196,114.87158199999976,223.58984400000008,215.76904300000024,3462.3076170000004,108.0771479999994
69,743.3334960000002,1768.3334960000002,128.7177729999994,206.15380900000036,49.48730499999965,54.23095699999976,75.51269500000035,83.20507799999996,26.538574000000153,129.87158199999976,233.84619099999964,221.0258789999998,3455.256348000001,106.9228520000006
70,732.3076170000004,1789.6152340000008,134.87158199999976,215.0,67.30761700000039,64.23095699999976,89.35888699999941,93.20507799999996,34.23095699999976,142.6923829999996,246.53857400000015,226.53857400000015,3454.743651999999,112.05126999999993
71,721.5385740000002,1803.0771479999994,138.3334960000002,218.9741210000002,68.9741210000002,66.9228520000006,95.25634799999989,96.2822270000006,36.025878999999804,144.61523400000078,253.58984400000008,227.43603499999972,3452.8203129999993,117.30761700000039
72,717.8203130000002,1792.5639650000003,137.17968800000017,213.9741210000002,51.666503999999804,60.51269500000035,90.12841800000024,90.64111300000059,30.897460999999566,136.53857400000015,253.0771479999994,223.84619099999964,3444.743651999999,116.6665039999998
73,724.7436520000001,1758.589844,134.10253900000043,202.82031300000017,27.82031300000017,50.25634799999989,79.35888699999941,81.15380900000036,23.077147999999397,127.17968800000017,249.48730499999965,220.38476599999922,3430.5126950000003,113.84619099999964
74,739.7436520000001,1718.0771479999994,133.58984400000008,193.46142599999985,15.641113000000587,44.35888699999941,71.15380900000036,75.0,17.94873000000007,126.0258789999998,249.3588869999994,222.6923829999996,3412.5639650000003,114.23095699999976
75,758.0771479999994,1692.5639650000003,138.20507799999996,193.0771479999994,26.922852000000603,48.46142599999985,71.2822270000006,76.9228520000006,19.74365200000011,136.9228520000006,257.05126999999993,232.82031300000017,3395.0,115.76904300000024
76,776.0258789999998,1692.3076170000004,147.05126999999993,202.94873000000007,58.974121000000196,62.17968800000017,79.74365200000011,86.79492200000004,28.077147999999397,156.79492200000004,271.4101559999999,248.0771479999994,3382.6923829999996,113.58984400000008
77,788.0771479999994,1708.205078,156.41015599999992,215.89746099999957,94.48730499999965,78.0771479999994,90.89746099999957,99.10253900000043,38.20507799999996,176.2822270000006,286.2822270000006,261.6665039999998,3375.384765999999,110.12841800000024
78,786.9228520000006,1717.4360349999997,161.15380900000036,221.6665039999998,114.35888699999941,87.56396500000028,97.17968800000017,106.6665039999998,44.102539000000434,185.76904300000024,293.7177729999994,266.2822270000006,3363.205078,110.89746099999957
79,770.5126950000003,1700.1284180000002,158.58984400000008,214.7436520000001,110.25634799999989,87.43603499999972,95.25634799999989,105.25634799999989,42.82031300000017,182.05126999999993,289.7436520000001,259.3588869999994,3333.589844,114.74365200000011
80,747.6923829999996,1654.6152340000008,150.6411130000006,198.84619099999964,90.76904300000024,81.15380900000036,88.0771479999994,96.9228520000006,36.666503999999804,171.41015599999992,278.9741210000002,246.79492200000004,3285.6411129999997,115.51269500000035
81,731.1538090000004,1597.8203130000002,143.46142599999985,183.20507799999996,72.05126999999993,75.0,81.15380900000036,87.56396500000028,30.769043000000238,163.46142599999985,271.0258789999998,237.94873000000007,3234.743651999999,113.20507799999996
82,725.2563479999999,1552.6923829999996,140.76904300000024,175.12841800000024,64.61523400000078,71.9228520000006,77.56396500000028,82.17968800000017,29.102539000000434,162.82031300000017,271.9228520000006,237.05126999999993,3196.794922,112.56396500000028
83,723.205078,1530.3847659999992,142.17968800000017,175.38476599999922,67.69238299999961,71.15380900000036,76.53857400000015,81.6665039999998,31.410155999999915,166.6665039999998,279.7436520000001,239.7436520000001,3172.3076170000004,114.35888699999941
84,715.7690430000002,1525.1284180000002,143.84619099999964,179.48730499999965,74.23095699999976,70.76904300000024,75.64111300000059,83.84619099999964,35.25634799999989,168.46142599999985,287.4360349999997,239.48730499999965,3148.7177730000003,113.3334960000002
85,699.7436520000001,1521.6665039999998,143.58984400000008,182.56396500000028,77.82031300000017,69.35888699999941,74.23095699999976,86.0258789999998,37.82031300000017,165.6411130000006,288.9741210000002,234.23095699999976,3116.5385739999992,108.9741210000002
86,679.1025390000004,1507.6923829999996,141.6665039999998,182.17968800000017,77.43603499999972,66.6665039999998,73.46142599999985,87.43603499999972,38.20507799999996,160.6411130000006,283.0771479999994,226.6665039999998,3076.410156,107.43603499999972
87,660.2563479999999,1480.256348,139.10253900000043,178.58984400000008,74.74365200000011,63.589844000000085,74.10253900000043,88.0771479999994,36.9228520000006,158.7177729999994,273.3334960000002,220.51269500000035,3032.8203129999993,110.51269500000035
88,647.9487300000001,1444.6152340000008,136.6665039999998,173.0771479999994,71.53857400000015,61.9228520000006,75.64111300000059,88.46142599999985,35.64111300000059,162.82031300000017,266.15380900000036,217.3076170000004,2988.8461909999996,112.56396500000028
89,643.5898440000001,1409.2309569999998,135.76904300000024,167.94873000000007,68.0771479999994,62.17968800000017,77.17968800000017,89.48730499999965,35.76904300000024,171.2822270000006,266.9228520000006,216.6665039999998,2946.410156,110.0
90,645.0,1379.8715819999998,137.6923829999996,165.0,64.87158199999976,63.0771479999994,78.3334960000002,91.41015599999992,37.43603499999972,178.0771479999994,276.53857400000015,217.82031300000017,2906.5385739999992,108.0771479999994
91,645.8974609999996,1356.794922,141.53857400000015,163.7177729999994,62.43603499999972,62.94873000000007,79.48730499999965,93.58984400000008,39.61523400000078,176.53857400000015,289.23095699999976,219.23095699999976,2864.230956999999,111.0258789999998
92,639.4873049999997,1335.6411130000006,143.84619099999964,162.05126999999993,61.025878999999804,61.153809000000365,80.51269500000035,93.84619099999964,40.897460999999566,164.87158199999976,295.89746099999957,218.20507799999996,2810.5126950000003,114.61523400000078
93,623.4614259999998,1311.5385740000002,142.6923829999996,158.7177729999994,60.51269500000035,59.48730499999965,81.2822270000006,91.6665039999998,40.897460999999566,149.48730499999965,291.53857400000015,213.7177729999994,2741.6665040000007,113.46142599999985
94,602.4360349999997,1283.4614259999998,139.23095699999976,154.61523400000078,61.153809000000365,60.25634799999989,81.9228520000006,88.84619099999964,40.38476599999922,141.2822270000006,280.6411130000006,207.94873000000007,2663.8461909999996,110.25634799999989
95,583.5898440000001,1252.8203130000002,136.9228520000006,152.17968800000017,63.333496000000196,64.23095699999976,83.0771479999994,88.20507799999996,40.76904300000024,146.41015599999992,272.5639650000003,204.7436520000001,2584.3588869999994,110.64111300000059
96,570.5126950000003,1220.5126950000003,137.43603499999972,151.6665039999998,66.79492200000004,69.10253900000043,84.48730499999965,90.25634799999989,42.69238299999961,160.6411130000006,275.2563479999999,205.6411130000006,2502.820313,113.46142599999985
97,560.8974609999996,1186.2822270000006,140.2563479999999,152.17968800000017,70.64111300000059,72.69238299999961,85.0,93.0771479999994,45.25634799999989,172.3076170000004,288.3334960000002,209.48730499999965,2414.8715819999998,113.3334960000002
98,550.5126950000003,1149.6152340000008,145.12841800000024,152.56396500000028,75.12841800000024,74.87158199999976,85.25634799999989,95.12841800000024,48.333496000000196,173.3334960000002,304.3588869999994,214.87158199999976,2318.333496,111.53857400000015
99,537.9487300000001,1110.1284180000002,152.43603499999972,152.82031300000017,82.30761700000039,78.7177729999994,88.20507799999996,97.17968800000017,52.69238299999961,166.41015599999992,313.5898440000001,221.53857400000015,2212.820313,113.0771479999994
100,524.7436520000001,1066.9228520000006,161.15380900000036,152.6923829999996,93.58984400000008,87.69238299999961,97.56396500000028,102.05126999999993,59.74365200000011,162.6923829999996,310.6411130000006,228.58984400000008,2094.1025390000004,116.2822270000006
101,510.6411130000006,1016.4101559999999,168.58984400000008,150.38476599999922,106.41015599999992,100.64111300000059,112.17968800000017,110.25634799999989,69.74365200000011,170.0,297.3076170000004,233.84619099999964,1955.7690430000002,115.0
102,491.15380900000036,952.8203130000002,171.0258789999998,143.58984400000008,113.46142599999985,111.2822270000006,124.48730499999965,118.3334960000002,80.0,184.3588869999994,281.0258789999998,233.84619099999964,1795.8974609999996,109.61523400000078
103,460.6411130000006,871.1538090000004,165.76904300000024,131.2822270000006,107.30761700000039,111.41015599999992,124.74365200000011,119.48730499999965,85.76904300000024,192.94873000000007,270.2563479999999,226.9228520000006,1623.205078,107.05126999999993
104,420.2563479999999,775.0,153.7177729999994,116.41015599999992,88.46142599999985,99.23095699999976,109.74365200000011,110.25634799999989,84.61523400000078,186.15380900000036,270.2563479999999,214.48730499999965,1455.1284180000002,109.23095699999976
105,380.51269500000035,677.9487300000001,139.87158199999976,105.25634799999989,67.30761700000039,82.69238299999961,87.17968800000017,95.25634799999989,79.10253900000043,166.79492200000004,281.0258789999998,202.43603499999972,1307.94873,110.12841800000024
106,353.84619099999964,596.5385740000002,131.6665039999998,102.69238299999961,57.05126999999993,74.61523400000078,71.53857400000015,83.7177729999994,75.89746099999957,147.94873000000007,296.6665039999998,197.43603499999972,1187.8203130000002,107.56396500000028
107,344.7436520000001,537.6923829999996,132.82031300000017,107.82031300000017,62.82031300000017,81.0258789999998,71.6665039999998,82.43603499999972,80.12841800000024,140.38476599999922,307.94873000000007,201.0258789999998,1086.9228520000006,107.17968800000017
108,346.15380900000036,494.23095699999976,140.0,113.46142599999985,77.82031300000017,96.2822270000006,84.23095699999976,90.0,91.0258789999998,144.61523400000078,306.6665039999998,207.94873000000007,991.2822270000006,112.17968800000017
109,346.53857400000015,454.3588869999994,146.41015599999992,112.17968800000017,90.89746099999957,109.74365200000011,97.82031300000017,99.61523400000078,103.9741210000002,151.79492200000004,291.6665039999998,210.6411130000006,891.6665039999998,117.17968800000017
110,339.3588869999994,412.05126999999993,147.56396500000028,102.94873000000007,95.89746099999957,113.7177729999994,103.20507799999996,105.0,113.7177729999994,152.3076170000004,268.3334960000002,205.38476599999922,789.6152340000008,116.41015599999992
111,325.89746099999957,370.51269500000035,144.61523400000078,90.64111300000059,93.7177729999994,107.94873000000007,99.10253900000043,103.9741210000002,117.94873000000007,143.0771479999994,243.0771479999994,194.23095699999976,692.8203130000002,112.82031300000017
112,313.7177729999994,336.6665039999998,140.76904300000024,81.2822270000006,90.25634799999989,97.56396500000028,91.41015599999992,99.23095699999976,118.0771479999994,128.84619099999964,219.61523400000078,182.56396500000028,608.3334960000002,112.05126999999993
113,310.3847659999992,316.15380900000036,139.3588869999994,78.0771479999994,91.9228520000006,90.64111300000059,87.69238299999961,96.0258789999998,117.94873000000007,119.61523400000078,200.89746099999957,174.61523400000078,539.1025390000004,112.69238299999961
114,317.94873000000007,308.7177729999994,141.9228520000006,80.25634799999989,101.6665039999998,93.58984400000008,92.43603499999972,98.58984400000008,121.2822270000006,121.9228520000006,190.6411130000006,172.6923829999996,482.05126999999993,110.89746099999957
115,330.6411130000006,308.46142599999985,147.56396500000028,84.35888699999941,116.6665039999998,105.76904300000024,103.46142599999985,106.15380900000036,128.84619099999964,133.20507799999996,190.76904300000024,176.0258789999998,430.0,109.23095699999976
116,338.46142599999985,307.3076170000004,152.94873000000007,87.30761700000039,130.38476599999922,119.87158199999976,114.35888699999941,114.10253900000043,137.82031300000017,143.0771479999994,197.56396500000028,181.0258789999998,376.6665039999998,111.79492200000004
117,336.2822270000006,301.53857400000015,155.2563479999999,87.82031300000017,138.58984400000008,128.20507799999996,119.48730499999965,118.46142599999985,144.7436520000001,143.3334960000002,204.48730499999965,183.20507799999996,322.4360349999997,115.38476599999922
118,327.05126999999993,292.94873000000007,154.7436520000001,87.30761700000039,142.43603499999972,129.23095699999976,118.46142599999985,119.48730499999965,149.23095699999976,134.3588869999994,206.2822270000006,181.2822270000006,273.20507799999996,113.84619099999964
119,316.6665039999998,283.84619099999964,153.58984400000008,87.05126999999993,145.12841800000024,126.79492200000004,114.74365200000011,119.48730499999965,152.94873000000007,123.46142599999985,201.2822270000006,176.2822270000006,232.82031300000017,108.84619099999964
120,307.4360349999997,272.4360349999997,152.94873000000007,86.41015599999992,146.9228520000006,124.35888699999941,111.41015599999992,119.23095699999976,156.79492200000004,116.0258789999998,191.6665039999998,168.84619099999964,198.84619099999964,107.82031300000017
121,298.5898440000001,256.2822270000006,151.41015599999992,84.23095699999976,146.2822270000006,123.3334960000002,109.48730499999965,117.43603499999972,160.2563479999999,112.43603499999972,181.79492200000004,159.3588869999994,166.41015599999992,111.79492200000004
122,290.6411130000006,237.05126999999993,147.94873000000007,81.0258789999998,144.61523400000078,123.84619099999964,108.9741210000002,113.0771479999994,162.43603499999972,110.12841800000024,175.89746099999957,149.87158199999976,134.10253900000043,113.7177729999994
123,284.10253900000043,218.84619099999964,143.9741210000002,78.9741210000002,144.10253900000043,125.51269500000035,109.74365200000011,107.43603499999972,162.82031300000017,106.15380900000036,174.61523400000078,143.84619099999964,102.69238299999961,110.51269500000035
124,276.9228520000006,202.94873000000007,141.15380900000036,78.9741210000002,145.51269500000035,126.41015599999992,110.89746099999957,101.6665039999998,160.89746099999957,98.3334960000002,172.94873000000007,141.6665039999998,70.89746099999957,107.56396500000028
125,265.89746099999957,187.94873000000007,139.7436520000001,79.87158199999976,146.53857400000015,124.48730499999965,111.15380900000036,96.9228520000006,156.9228520000006,87.82031300000017,164.87158199999976,140.76904300000024,35.897460999999566,108.7177729999994
126,251.41015599999992,173.58984400000008,138.84619099999964,80.12841800000024,147.17968800000017,121.79492200000004,111.0258789999998,94.35888699999941,153.0771479999994,79.74365200000011,151.15380900000036,138.0771479999994,-1.2822270000006029,110.38476599999922
127,238.7177729999994,162.94873000000007,138.84619099999964,80.0,150.12841800000024,122.56396500000028,113.0771479999994,95.76904300000024,152.56396500000028,79.61523400000078,139.3588869999994,133.9741210000002,-33.846190999999635,109.23095699999976
128,231.41015599999992,158.58984400000008,140.38476599999922,80.89746099999957,157.56396500000028,128.0771479999994,118.58984400000008,101.2822270000006,155.89746099999957,86.79492200000004,136.15380900000036,130.76904300000024,-56.53857400000015,108.46142599999985
129,227.94873000000007,158.20507799999996,142.17968800000017,82.69238299999961,166.6665039999998,134.23095699999976,125.0,108.3334960000002,160.0,93.3334960000002,140.0,129.10253900000043,-71.15380900000036,110.76904300000024
130,222.6923829999996,156.0258789999998,140.89746099999957,83.84619099999964,171.6665039999998,135.0,127.94873000000007,112.05126999999993,160.6411130000006,90.0,142.17968800000017,126.15380900000036,-84.48706099999981,111.9228520000006
131,211.2822270000006,146.15380900000036,134.87158199999976,82.69238299999961,168.58984400000008,128.3334960000002,124.23095699999976,110.0,156.2822270000006,75.38476599999922,135.51269500000035,118.9741210000002,-102.17944299999999,108.20507799999996
132,193.46142599999985,126.15380900000036,126.15380900000036,78.7177729999994,158.46142599999985,118.3334960000002,114.61523400000078,103.58984400000008,148.20507799999996,56.79492200000004,121.2822270000006,107.30761700000039,-125.25634799999989,104.48730499999965
133,173.20507799999996,98.84619099999964,118.9741210000002,73.3334960000002,146.9228520000006,110.76904300000024,103.84619099999964,97.30761700000039,139.7436520000001,44.102539000000434,107.30761700000039,94.61523400000078,-149.8718259999996,107.69238299999961
134,157.17968800000017,71.2822270000006,116.2822270000006,70.0,140.51269500000035,109.10253900000043,97.56396500000028,94.87158199999976,134.23095699999976,43.20507799999996,101.15380900000036,85.76904300000024,-170.76928699999962,115.0
135,149.87158199999976,51.025878999999804,118.46142599999985,71.2822270000006,142.3076170000004,112.30761700000039,99.35888699999941,97.05126999999993,133.20507799999996,51.153809000000365,104.10253900000043,83.9741210000002,-184.61547900000005,117.69238299999961
136,149.61523400000078,39.61523400000078,123.0771479999994,76.41015599999992,150.12841800000024,116.41015599999992,107.17968800000017,102.05126999999993,136.53857400000015,60.25634799999989,110.51269500000035,88.0771479999994,-192.0512700000004,114.61523400000078
137,149.23095699999976,32.30761700000039,126.79492200000004,81.79492200000004,157.82031300000017,118.3334960000002,115.64111300000059,106.79492200000004,141.79492200000004,63.333496000000196,113.0771479999994,92.94873000000007,-197.56420900000057,112.17968800000017
138,142.05126999999993,22.56396500000028,126.9228520000006,84.10253900000043,160.51269500000035,117.43603499999972,120.38476599999922,109.48730499999965,146.0258789999998,59.87158199999976,108.0771479999994,93.7177729999994,-206.53857400000015,112.94873000000007
139,127.69238299999961,8.974121000000196,123.7177729999994,82.30761700000039,158.7177729999994,115.89746099999957,120.76904300000024,110.0,147.94873000000007,54.87158199999976,97.69238299999961,89.35888699999941,-221.15380900000036,112.69238299999961
140,111.53857400000015,-5.641113000000132,120.25634799999989,78.58984400000008,156.53857400000015,115.64111300000059,119.48730499999965,109.61523400000078,147.94873000000007,54.48730499999965,88.0771479999994,83.20507799999996,-240.5129390000002,110.25634799999989
141,99.48730499999965,-17.435790999999426,119.10253900000043,75.12841800000024,157.43603499999972,116.53857400000015,119.35888699999941,109.74365200000011,146.9228520000006,60.64111300000059,84.35888699999941,80.0,-261.02563499999997,109.74365200000011
142,94.35888699999941,-25.1281740000004,120.64111300000059,73.3334960000002,161.9228520000006,118.46142599999985,121.15380900000036,110.0,145.51269500000035,70.0,88.46142599999985,81.6665039999998,-280.0,112.43603499999972
143,95.12841800000024,-29.487060999999812,123.20507799999996,73.9741210000002,168.46142599999985,122.17968800000017,125.0,110.51269500000035,144.23095699999976,77.94873000000007,98.58984400000008,87.17968800000017,-296.02563499999997,113.0771479999994
144,98.7177729999994,-32.051270000000386,125.64111300000059,76.9228520000006,175.2563479999999,128.7177729999994,130.38476599999922,112.05126999999993,144.3588869999994,81.9228520000006,109.61523400000078,93.58984400000008,-310.0,110.0
145,100.0,-36.025634999999966,127.82031300000017,80.51269500000035,179.3588869999994,136.9228520000006,136.6665039999998,115.38476599999922,145.76904300000024,82.30761700000039,115.76904300000024,97.69238299999961,-325.64111300000013,108.7177729999994
146,94.10253900000043,-45.51293900000019,129.10253900000043,82.05126999999993,178.3334960000002,142.43603499999972,141.0258789999998,118.84619099999964,147.43603499999972,80.0,113.46142599999985,97.30761700000039,-348.20507799999996,112.94873000000007
147,81.15380900000036,-61.41015600000037,127.94873000000007,80.25634799999989,172.05126999999993,141.6665039999998,140.6411130000006,119.87158199999976,147.6923829999996,76.41015599999992,105.12841800000024,91.79492200000004,-379.7436520000001,117.05126999999993
148,66.15380900000036,-80.1281740000004,124.10253900000043,77.17968800000017,164.3588869999994,135.51269500000035,135.0,116.9228520000006,146.15380900000036,73.58984400000008,98.0771479999994,84.10253900000043,-416.79492200000004,114.74365200000011
149,55.897460999999566,-95.89746100000002,119.48730499999965,76.2822270000006,159.7436520000001,127.17968800000017,126.6665039999998,110.76904300000024,143.84619099999964,72.82031300000017,97.17968800000017,78.3334960000002,-452.6923829999996,109.74365200000011
150,53.0771479999994,-104.8718259999996,116.15380900000036,78.58984400000008,159.87158199999976,120.51269500000035,119.61523400000078,104.48730499999965,142.05126999999993,73.7177729999994,102.05126999999993,76.2822270000006,-481.79492200000004,108.84619099999964
151,55.12841800000024,-107.05127000000039,115.51269500000035,82.69238299999961,163.46142599999985,118.3334960000002,117.05126999999993,101.0258789999998,141.2822270000006,74.74365200000011,107.82031300000017,76.9228520000006,-502.179443,111.0258789999998
152,57.94873000000007,-104.74365200000011,117.56396500000028,86.15380900000036,168.3334960000002,121.9228520000006,120.38476599999922,102.94873000000007,142.05126999999993,76.0258789999998,110.12841800000024,78.20507799999996,-516.025635,111.0258789999998
153,57.69238299999961,-102.43579099999943,121.53857400000015,87.94873000000007,172.3076170000004,129.23095699999976,127.43603499999972,109.74365200000011,144.23095699999976,78.3334960000002,107.43603499999972,79.61523400000078,-528.8461909999996,109.10253900000043
154,52.69238299999961,-104.48706099999981,125.12841800000024,88.3334960000002,173.7177729999994,135.51269500000035,134.87158199999976,117.56396500000028,146.6665039999998,80.89746099999957,100.64111300000059,80.51269500000035,-546.025635,110.25634799999989
155,43.589844000000085,-112.82055700000001,125.64111300000059,86.9228520000006,172.3076170000004,136.79492200000004,139.3588869999994,122.30761700000039,147.56396500000028,82.05126999999993,92.30761700000039,80.51269500000035,-569.2307130000004,114.10253900000043
156,34.23095699999976,-125.64111300000013,122.82031300000017,84.35888699999941,169.10253900000043,133.58984400000008,140.76904300000024,122.43603499999972,146.79492200000004,81.53857400000015,86.79492200000004,79.23095699999976,-594.2307130000004,114.61523400000078
157,27.82031300000017,-138.58984399999963,118.9741210000002,82.30761700000039,165.89746099999957,129.23095699999976,140.38476599999922,120.25634799999989,145.2563479999999,80.76904300000024,86.53857400000015,77.56396500000028,-614.7436520000001,110.89746099999957
158,24.871581999999762,-149.35888699999987,117.56396500000028,82.17968800000017,162.6923829999996,126.2822270000006,139.23095699999976,118.58984400000008,143.9741210000002,81.15380900000036,90.0,76.41015599999992,-628.4614259999998,108.84619099999964
159,23.205077999999958,-157.3076170000004,118.7177729999994,83.3334960000002,159.23095699999976,125.12841800000024,137.43603499999972,119.10253900000043,143.7177729999994,82.30761700000039,93.3334960000002,75.76904300000024,-638.3332520000004,110.0
160,20.897460999999566,-162.0512700000004,120.64111300000059,83.9741210000002,156.79492200000004,125.51269500000035,135.51269500000035,121.79492200000004,144.7436520000001,83.58984400000008,94.61523400000078,76.0258789999998,-648.3332520000004,110.38476599999922
161,18.077147999999397,-163.46142599999985,121.41015599999992,83.7177729999994,157.17968800000017,127.05126999999993,134.48730499999965,125.0,146.6665039999998,85.0,95.0,77.43603499999972,-660.2563479999999,108.3334960000002
162,14.871581999999762,-163.46142599999985,120.64111300000059,83.20507799999996,160.12841800000024,128.20507799999996,134.48730499999965,126.79492200000004,148.20507799999996,85.76904300000024,95.64111300000059,79.23095699999976,-674.3588869999999,108.7177729999994
163,11.153809000000365,-165.1281740000004,118.58984400000008,83.3334960000002,162.82031300000017,127.56396500000028,135.38476599999922,125.89746099999957,147.94873000000007,85.25634799999989,95.51269500000035,79.23095699999976,-690.0,113.46142599999985
164,7.56396500000028,-169.35888699999987,116.15380900000036,84.23095699999976,163.7177729999994,126.6665039999998,137.3076170000004,122.94873000000007,146.15380900000036,83.84619099999964,94.23095699999976,76.53857400000015,-705.0,116.9228520000006
165,5.769043000000238,-174.7436520000001,115.12841800000024,85.64111300000059,163.20507799999996,127.82031300000017,140.12841800000024,120.51269500000035,144.61523400000078,82.82031300000017,92.69238299999961,72.69238299999961,-716.1538090000004,114.35888699999941
166,4.871581999999762,-180.1281740000004,116.0258789999998,86.53857400000015,161.9228520000006,130.89746099999957,142.43603499999972,119.61523400000078,144.23095699999976,83.0771479999994,91.53857400000015,69.74365200000011,-723.5898439999996,110.51269500000035
167,1.7949220000000423,-185.64111300000013,117.43603499999972,85.89746099999957,159.10253900000043,132.6923829999996,142.43603499999972,119.10253900000043,143.9741210000002,83.3334960000002,90.0,68.58984400000008,-730.5129390000002,111.15380900000036
168,-4.61547900000005,-190.76928699999962,118.0771479999994,83.84619099999964,155.6411130000006,131.2822270000006,140.76904300000024,117.82031300000017,142.82031300000017,82.69238299999961,87.94873000000007,68.58984400000008,-740.2563479999999,113.46142599999985
169,-11.28198199999997,-193.84619099999964,118.20507799999996,82.56396500000028,154.23095699999976,128.84619099999964,140.6411130000006,116.79492200000004,141.6665039999998,81.6665039999998,87.30761700000039,69.87158199999976,-751.794922,111.9228520000006
170,-14.358886999999868,-194.23071300000038,120.0,84.61523400000078,157.3076170000004,128.58984400000008,143.9741210000002,117.82031300000017,141.9228520000006,82.30761700000039,90.51269500000035,72.69238299999961,-762.9487300000001,108.0771479999994
171,-13.71801800000003,-193.71801800000003,122.94873000000007,90.12841800000024,163.58984400000008,131.15380900000036,148.84619099999964,120.76904300000024,143.7177729999994,84.48730499999965,95.89746099999957,76.0258789999998,-773.3332519999999,107.82031300000017
172,-12.564209000000574,-195.5129390000002,123.9741210000002,95.25634799999989,168.84619099999964,133.9741210000002,150.6411130000006,123.3334960000002,145.0,86.53857400000015,98.20507799999996,77.30761700000039,-784.2307129999999,110.51269500000035
173,-14.743652000000111,-200.38452099999995,120.38476599999922,95.64111300000059,169.48730499999965,134.48730499999965,146.41015599999992,123.3334960000002,144.61523400000078,86.2822270000006,92.43603499999972,74.35888699999941,-795.7692870000001,110.89746099999957
174,-21.666747999999643,-207.56420900000057,113.3334960000002,90.38476599999922,164.3588869999994,131.41015599999992,137.43603499999972,120.64111300000059,141.6665039999998,82.17968800000017,79.23095699999976,67.43603499999972,-806.6667480000001,109.10253900000043
175,-32.30761700000039,-215.0,106.2822270000006,82.30761700000039,155.2563479999999,125.64111300000059,128.20507799999996,116.41015599999992,137.3076170000004,75.89746099999957,64.23095699999976,58.589844000000085,-814.871826,109.61523400000078
176,-42.564209000000574,-220.64111300000013,102.30761700000039,76.53857400000015,147.05126999999993,120.64111300000059,123.7177729999994,112.94873000000007,133.46142599999985,71.2822270000006,54.87158199999976,51.53857400000015,-819.102539,112.17968800000017
177,-47.051270000000386,-222.3076170000004,102.56396500000028,76.79492200000004,145.0,119.74365200000011,125.89746099999957,112.05126999999993,132.17968800000017,72.05126999999993,55.51269500000035,49.48730499999965,-818.5898440000001,111.53857400000015
178,-44.23071300000038,-220.0,106.15380900000036,82.17968800000017,150.6411130000006,123.3334960000002,132.82031300000017,113.9741210000002,133.84619099999964,78.0771479999994,65.0,53.46142599999985,-814.4870609999998,107.30761700000039
179,-38.07690400000001,-217.56420900000057,110.51269500000035,87.94873000000007,158.58984400000008,127.82031300000017,138.9741210000002,116.9228520000006,136.41015599999992,84.61523400000078,75.89746099999957,60.64111300000059,-810.6411129999997,106.6665039999998
180,-35.25634799999989,-218.97436500000003,112.17968800000017,89.61523400000078,162.05126999999993,128.9741210000002,140.12841800000024,118.0771479999994,137.17968800000017,86.53857400000015,81.0258789999998,65.89746099999957,-811.5385739999997,111.79492200000004
181,-37.948729999999614,-224.7436520000001,110.12841800000024,86.53857400000015,159.61523400000078,126.79492200000004,136.2822270000006,117.05126999999993,135.6411130000006,82.94873000000007,78.84619099999964,66.2822270000006,-817.9487300000001,115.89746099999957
182,-42.435790999999426,-231.02563499999997,107.43603499999972,82.94873000000007,156.15380900000036,125.12841800000024,132.3076170000004,116.2822270000006,134.3588869999994,78.0771479999994,74.35888699999941,63.846190999999635,-825.6411129999997,113.84619099999964
183,-43.846190999999635,-234.4870609999998,107.82031300000017,82.82031300000017,156.9228520000006,126.9228520000006,133.20507799999996,117.94873000000007,135.51269500000035,76.53857400000015,72.43603499999972,62.94873000000007,-830.2563479999999,110.0
184,-41.66674799999964,-234.61547900000005,111.2822270000006,86.53857400000015,161.9228520000006,131.2822270000006,139.23095699999976,122.30761700000039,138.46142599999985,79.61523400000078,73.46142599999985,64.87158199999976,-830.2563479999999,110.12841800000024
185,-38.846190999999635,-233.33325200000036,114.87158199999976,91.15380900000036,167.17968800000017,135.51269500000035,146.9228520000006,126.53857400000015,141.15380900000036,85.89746099999957,74.74365200000011,68.0771479999994,-827.5642090000001,111.9228520000006
186,-38.33325200000036,-233.076904,115.76904300000024,93.7177729999994,168.3334960000002,137.3076170000004,151.9228520000006,128.84619099999964,141.6665039999998,92.69238299999961,75.12841800000024,70.12841800000024,-824.871826,110.76904300000024
187,-41.025634999999966,-235.38452099999995,114.35888699999941,93.20507799999996,164.3588869999994,136.6665039999998,152.3076170000004,129.23095699999976,140.38476599999922,97.43603499999972,76.6665039999998,70.25634799999989,-824.871826,109.61523400000078
188,-45.51293900000019,-240.76928699999962,112.56396500000028,90.64111300000059,157.82031300000017,135.51269500000035,149.61523400000078,129.23095699999976,138.20507799999996,97.56396500000028,81.15380900000036,69.48730499999965,-827.9487300000001,112.82031300000017
189,-48.846190999999635,-247.179443,111.79492200000004,88.3334960000002,154.23095699999976,136.15380900000036,147.05126999999993,130.0,137.3076170000004,93.84619099999964,86.6665039999998,69.10253900000043,-831.5385739999997,117.56396500000028
190,-48.974365000000034,-251.15380900000036,111.79492200000004,87.94873000000007,157.3076170000004,139.87158199999976,146.6665039999998,132.05126999999993,138.46142599999985,90.0,88.58984400000008,69.74365200000011,-832.3076170000004,116.6665039999998
191,-46.41015600000037,-251.66674799999964,111.6665039999998,89.23095699999976,165.6411130000006,144.61523400000078,148.46142599999985,134.48730499999965,141.0258789999998,89.35888699999941,83.20507799999996,70.89746099999957,-829.615479,111.0258789999998
192,-44.74365200000011,-251.28198199999997,110.64111300000059,90.38476599999922,172.94873000000007,146.2822270000006,149.7436520000001,135.12841800000024,142.6923829999996,92.17968800000017,72.05126999999993,71.15380900000036,-826.794922,107.94873000000007
193,-46.92309599999999,-253.33325200000036,108.7177729999994,89.87158199999976,173.58984400000008,142.82031300000017,148.3334960000002,133.0771479999994,141.9228520000006,95.51269500000035,61.79492200000004,69.74365200000011,-826.5385739999997,109.48730499999965
194,-51.66674799999964,-257.179443,107.05126999999993,88.3334960000002,168.58984400000008,137.3076170000004,145.38476599999922,130.12841800000024,139.87158199999976,98.58984400000008,60.0,67.82031300000017,-827.9487300000001,110.51269500000035
195,-54.8718259999996,-259.2307130000004,107.69238299999961,88.0771479999994,163.58984400000008,134.7436520000001,144.48730499999965,128.9741210000002,139.23095699999976,102.05126999999993,68.0771479999994,68.20507799999996,-827.4357909999999,109.10253900000043
196,-54.10253899999998,-257.9487299999996,111.0258789999998,90.38476599999922,162.3076170000004,137.17968800000017,147.17968800000017,131.2822270000006,140.6411130000006,106.2822270000006,79.74365200000011,71.6665039999998,-823.8461910000001,109.87158199999976
197,-50.25634799999989,-254.7436520000001,114.74365200000011,94.10253900000043,163.7177729999994,141.53857400000015,151.6665039999998,135.2563479999999,142.43603499999972,108.9741210000002,85.76904300000024,76.0258789999998,-820.0,114.10253900000043
198,-46.153809000000365,-252.3076170000004,116.0258789999998,97.17968800000017,164.23095699999976,143.20507799999996,154.7436520000001,138.0771479999994,142.56396500000028,108.7177729999994,82.69238299999961,78.84619099999964,-818.5898440000001,115.89746099999957
199,-44.61547900000005,-252.3076170000004,114.61523400000078,98.20507799999996,161.6665039999998,139.7436520000001,153.7177729999994,137.56396500000028,140.2563479999999,105.64111300000059,73.84619099999964,78.9741210000002,-820.384521,112.43603499999972
200,-47.948729999999614,-256.28198199999997,111.9228520000006,96.15380900000036,155.2563479999999,132.05126999999993,148.0771479999994,133.20507799999996,136.79492200000004,100.38476599999922,65.64111300000059,76.41015599999992,-824.3588870000003,109.23095699999976
201,-56.53857400000015,-263.97436500000003,109.48730499999965,91.41015599999992,147.17968800000017,122.69238299999961,138.9741210000002,126.15380900000036,133.3334960000002,93.9741210000002,62.82031300000017,71.9228520000006,-829.615479,111.0258789999998
202,-66.79492200000004,-272.0512700000004,107.56396500000028,86.2822270000006,140.89746099999957,116.53857400000015,130.2563479999999,119.87158199999976,131.15380900000036,88.3334960000002,66.79492200000004,66.79492200000004,-833.974365,113.9741210000002
203,-72.56420900000057,-275.2563479999999,106.41015599999992,84.35888699999941,139.87158199999976,117.56396500000028,126.53857400000015,117.69238299999961,131.0258789999998,87.17968800000017,75.64111300000059,64.35888699999941,-835.2563479999999,113.20507799999996
204,-70.1281740000004,-271.28198199999997,106.79492200000004,87.30761700000039,143.9741210000002,125.0,130.12841800000024,120.64111300000059,132.56396500000028,91.79492200000004,85.12841800000024,66.53857400000015,-833.076904,111.41015599999992
205,-62.30761700000039,-263.97436500000003,108.58984400000008,92.94873000000007,149.61523400000078,133.46142599999985,137.94873000000007,126.2822270000006,134.10253900000043,98.9741210000002,89.87158199999976,71.9228520000006,-829.3588870000003,113.0771479999994
206,-54.23071300000038,-259.61547900000005,110.51269500000035,97.43603499999972,152.43603499999972,137.56396500000028,145.0,130.38476599999922,134.10253900000043,103.3334960000002,88.20507799999996,76.79492200000004,-826.4101559999999,115.76904300000024
207,-50.38452099999995,-261.28198199999997,111.0258789999998,98.46142599999985,151.53857400000015,135.76904300000024,147.3076170000004,130.51269500000035,133.0771479999994,102.30761700000039,82.30761700000039,77.94873000000007,-824.4870609999998,113.9741210000002
208,-52.30761700000039,-267.3076170000004,109.87158199999976,95.64111300000059,148.0771479999994,130.6411130000006,143.58984400000008,126.9228520000006,131.79492200000004,96.9228520000006,75.12841800000024,75.38476599999922,-824.102539,110.25634799999989
209,-59.61547900000005,-274.35888699999987,106.6665039999998,90.89746099999957,142.82031300000017,125.25634799999989,135.76904300000024,121.2822270000006,130.0,90.64111300000059,68.0771479999994,70.64111300000059,-826.923096,110.76904300000024
210,-69.48706099999981,-279.102539,101.79492200000004,86.79492200000004,136.79492200000004,120.64111300000059,127.56396500000028,115.89746099999957,127.17968800000017,85.89746099999957,62.17968800000017,66.0258789999998,-833.4614260000003,115.25634799999989
211,-76.92309599999999,-279.7436520000001,97.43603499999972,85.51269500000035,132.05126999999993,118.46142599999985,123.46142599999985,112.94873000000007,123.9741210000002,84.87158199999976,59.48730499999965,63.46142599999985,-840.5129390000002,117.05126999999993
212,-78.07690400000001,-275.7692869999996,96.79492200000004,87.69238299999961,131.41015599999992,119.48730499999965,125.89746099999957,113.84619099999964,122.43603499999972,87.94873000000007,62.56396500000028,65.0,-843.076904,114.61523400000078
213,-73.33325200000036,-269.35888699999987,100.76904300000024,91.53857400000015,135.89746099999957,123.0771479999994,132.94873000000007,117.56396500000028,124.23095699999976,93.46142599999985,70.12841800000024,69.87158199999976,-838.974365,112.82031300000017
214,-66.28198199999997,-263.84619099999964,106.2822270000006,94.61523400000078,142.94873000000007,126.9228520000006,139.48730499999965,121.6665039999998,128.3334960000002,98.3334960000002,77.17968800000017,74.87158199999976,-830.128174,113.84619099999964
215,-60.38452099999995,-261.28198199999997,108.9741210000002,95.51269500000035,148.58984400000008,129.23095699999976,141.6665039999998,123.7177729999994,132.56396500000028,100.64111300000059,79.48730499999965,76.53857400000015,-820.7692870000001,113.0771479999994
216,-57.69238299999961,-262.3076170000004,107.05126999999993,95.12841800000024,149.48730499999965,129.3588869999994,138.84619099999964,123.7177729999994,134.23095699999976,100.89746099999957,76.41015599999992,74.35888699999941,-814.615479,109.48730499999965
217,-59.8718259999996,-266.79492200000004,102.30761700000039,94.74365200000011,144.61523400000078,126.6665039999998,133.3334960000002,122.56396500000028,132.05126999999993,100.38476599999922,70.0,69.35888699999941,-814.4870609999998,108.3334960000002
218,-67.05127000000039,-273.71801800000003,97.30761700000039,94.48730499999965,135.38476599999922,121.53857400000015,128.3334960000002,120.89746099999957,126.9228520000006,99.48730499999965,63.0771479999994,63.46142599999985,-820.0,111.41015599999992
219,-75.76928699999962,-279.8718259999996,94.10253900000043,93.84619099999964,126.2822270000006,116.41015599999992,126.15380900000036,119.23095699999976,121.79492200000004,98.58984400000008,58.0771479999994,58.974121000000196,-826.6667480000001,113.20507799999996
220,-80.38452099999995,-281.15380900000036,93.9741210000002,93.20507799999996,122.30761700000039,115.0,127.82031300000017,118.58984400000008,120.0,98.84619099999964,57.43603499999972,59.102539000000434,-828.205078,109.48730499999965
221,-78.07690400000001,-275.897461,96.9228520000006,93.58984400000008,125.38476599999922,119.23095699999976,132.43603499999972,119.61523400000078,122.56396500000028,101.0258789999998,61.53857400000015,65.0,-822.3076170000004,105.51269500000035
222,-71.28198199999997,-267.3076170000004,100.64111300000059,95.51269500000035,132.05126999999993,126.9228520000006,137.3076170000004,121.79492200000004,127.56396500000028,104.48730499999965,67.17968800000017,73.20507799999996,-812.0512699999999,107.56396500000028
223,-65.25634799999989,-260.897461,101.79492200000004,97.82031300000017,137.56396500000028,133.58984400000008,139.48730499999965,123.7177729999994,131.79492200000004,106.6665039999998,69.23095699999976,77.17968800000017,-803.5898440000001,112.69238299999961
224,-64.74365200000011,-261.02563499999997,98.7177729999994,99.23095699999976,138.20507799999996,135.76904300000024,137.94873000000007,123.46142599999985,132.82031300000017,105.38476599999922,65.12841800000024,72.69238299999961,-801.1538089999999,114.23095699999976
225,-70.64111300000013,-267.4357909999994,93.0771479999994,98.84619099999964,134.10253900000043,132.17968800000017,133.20507799999996,120.38476599999922,130.51269500000035,100.89746099999957,57.56396500000028,62.30761700000039,-805.0,112.69238299999961
226,-78.97436500000003,-275.5129390000002,88.46142599999985,97.05126999999993,128.7177729999994,125.38476599999922,127.82031300000017,116.15380900000036,126.9228520000006,95.64111300000059,53.46142599999985,53.7177729999994,-810.128174,113.20507799999996
227,-83.20507799999996,-277.5642090000006,88.20507799999996,95.64111300000059,126.53857400000015,120.64111300000059,125.51269500000035,114.23095699999976,124.74365200000011,94.23095699999976,58.0771479999994,54.102539000000434,-809.4870609999998,115.51269500000035
228,-78.33325200000036,-269.7436520000001,93.0771479999994,96.2822270000006,129.7436520000001,123.20507799999996,128.7177729999994,117.30761700000039,125.89746099999957,99.61523400000078,70.0,64.35888699999941,-798.8461910000001,114.74365200000011
229,-65.89746100000002,-255.76928699999962,100.89746099999957,99.35888699999941,136.2822270000006,132.94873000000007,136.15380900000036,123.9741210000002,129.48730499999965,109.23095699999976,81.41015599999992,78.3334960000002,-781.794922,111.41015599999992
230,-54.48706099999981,-245.64111300000013,107.05126999999993,102.69238299999961,140.6411130000006,143.3334960000002,143.3334960000002,129.10253900000043,132.56396500000028,116.2822270000006,84.35888699999941,86.6665039999998,-767.820557,111.0258789999998
231,-52.051270000000386,-246.02563499999997,107.94873000000007,103.0771479999994,139.7436520000001,147.43603499999972,146.0258789999998,128.7177729999994,132.43603499999972,115.51269500000035,77.56396500000028,84.87158199999976,-764.2307129999999,113.9741210000002
232,-59.35888699999987,-254.35888699999987,103.46142599999985,99.74365200000011,135.89746099999957,143.7177729999994,143.84619099999964,123.7177729999994,129.87158199999976,109.61523400000078,68.0771479999994,76.79492200000004,-769.102539,114.48730499999965
233,-69.35888699999987,-261.923096,98.20507799999996,95.51269500000035,133.84619099999964,136.9228520000006,140.6411130000006,119.35888699999941,128.0771479999994,105.89746099999957,64.87158199999976,71.53857400000015,-773.205078,111.15380900000036
234,-75.1281740000004,-262.820557,96.41015599999992,93.84619099999964,135.89746099999957,132.82031300000017,139.7436520000001,119.35888699999941,129.23095699999976,108.58984400000008,70.51269500000035,74.10253900000043,-769.871826,109.10253900000043
235,-74.61547900000005,-257.9487299999996,97.94873000000007,95.51269500000035,139.10253900000043,133.20507799999996,140.76904300000024,123.3334960000002,131.9228520000006,115.12841800000024,77.94873000000007,81.2822270000006,-760.5129390000002,111.15380900000036
236,-71.28198199999997,-252.3076170000004,99.10253900000043,98.46142599999985,139.23095699999976,136.41015599999992,141.15380900000036,127.05126999999993,132.94873000000007,118.3334960000002,77.69238299999961,85.0,-753.076904,112.43603499999972
237,-69.8718259999996,-250.1281740000004,97.43603499999972,100.0,134.10253900000043,138.0771479999994,137.82031300000017,126.15380900000036,130.12841800000024,113.46142599999985,66.0258789999998,80.12841800000024,-753.718018,109.74365200000011
238,-72.82055700000001,-251.923096,93.46142599999985,98.9741210000002,125.12841800000024,134.7436520000001,129.7436520000001,119.74365200000011,124.35888699999941,101.9228520000006,48.333496000000196,68.58984400000008,-762.179443,108.0771479999994
239,-78.33325200000036,-255.2563479999999,89.48730499999965,96.53857400000015,116.41015599999992,126.6665039999998,120.25634799999989,111.0258789999998,118.20507799999996,90.51269500000035,34.74365200000011,58.0771479999994,-771.4101559999999,111.6665039999998
240,-81.79492200000004,-256.15380900000036,88.20507799999996,95.25634799999989,112.69238299999961,118.0771479999994,114.61523400000078,105.51269500000035,114.48730499999965,87.43603499999972,33.0771479999994,55.0,-772.4357909999999,116.41015599999992
241,-80.25634799999989,-253.076904,90.51269500000035,96.9228520000006,115.64111300000059,114.74365200000011,116.15380900000036,106.79492200000004,114.87158199999976,95.12841800000024,42.82031300000017,60.51269500000035,-762.4357909999999,116.15380900000036
242,-75.89746100000002,-249.10253899999998,95.0,100.12841800000024,121.15380900000036,118.0771479999994,122.56396500000028,113.58984400000008,117.82031300000017,107.56396500000028,55.12841800000024,68.9741210000002,-748.076904,112.82031300000017
243,-75.0,-250.1281740000004,97.43603499999972,101.2822270000006,122.43603499999972,122.94873000000007,127.30761700000039,119.61523400000078,119.74365200000011,114.23095699999976,60.76904300000024,72.69238299999961,-740.7692869999996,112.05126999999993
244,-81.41015600000037,-257.5642090000006,95.25634799999989,97.94873000000007,116.6665039999998,123.7177729999994,125.51269500000035,119.10253900000043,118.20507799999996,109.74365200000011,57.43603499999972,68.20507799999996,-746.1538089999999,112.82031300000017
245,-91.28198199999997,-265.64111300000013,89.74365200000011,91.79492200000004,108.84619099999964,119.61523400000078,119.35888699999941,112.05126999999993,114.74365200000011,98.58984400000008,50.64111300000059,59.48730499999965,-757.9487300000001,110.76904300000024
246,-96.41015600000037,-266.66674799999964,86.0258789999998,87.94873000000007,106.79492200000004,115.51269500000035,116.15380900000036,104.23095699999976,113.0771479999994,90.51269500000035,46.79492200000004,54.35888699999941,-764.102539,107.30761700000039
247,-91.92309599999999,-258.46142599999985,87.43603499999972,89.35888699999941,113.7177729999994,116.2822270000006,120.12841800000024,101.15380900000036,115.0,91.15380900000036,46.53857400000015,57.30761700000039,-757.179443,108.3334960000002
248,-80.89746100000002,-245.5129390000002,92.69238299999961,95.12841800000024,125.25634799999989,122.17968800000017,128.84619099999964,103.84619099999964,118.9741210000002,98.20507799999996,45.64111300000059,65.64111300000059,-740.1281740000004,112.82031300000017
249,-70.25634799999989,-234.7436520000001,97.17968800000017,101.6665039999998,134.3588869999994,129.3588869999994,135.2563479999999,109.10253900000043,122.05126999999993,105.25634799999989,41.666503999999804,73.3334960000002,-721.5385740000002,114.23095699999976
250,-65.64111300000013,-229.61547900000005,98.46142599999985,105.76904300000024,137.05126999999993,132.82031300000017,134.48730499999965,113.20507799999996,122.69238299999961,107.17968800000017,36.153809000000365,76.41015599999992,-709.7436520000001,110.89746099999957
251,-67.69238299999961,-229.35888699999987,97.30761700000039,105.89746099999957,133.0771479999994,130.2563479999999,127.56396500000028,114.48730499999965,121.6665039999998,103.46142599999985,33.0771479999994,75.12841800000024,-707.3076170000004,109.23095699999976
252,-72.82055700000001,-231.41015600000037,95.51269500000035,102.17968800000017,125.25634799999989,123.46142599999985,120.51269500000035,113.46142599999985,120.76904300000024,98.20507799999996,34.61523400000078,72.69238299999961,-710.897461,111.79492200000004
253,-76.28198199999997,-233.076904,94.23095699999976,97.43603499999972,117.94873000000007,118.0771479999994,118.84619099999964,112.30761700000039,121.41015599999992,96.0258789999998,39.87158199999976,71.9228520000006,-714.3588869999999,113.58984400000008
254,-75.89746100000002,-233.58984399999963,94.10253900000043,94.87158199999976,114.87158199999976,118.0771479999994,123.9741210000002,112.56396500000028,122.94873000000007,98.9741210000002,46.2822270000006,73.84619099999964,-714.102539,111.2822270000006
255,-73.58984399999963,-233.20507799999996,95.12841800000024,96.53857400000015,116.79492200000004,123.0771479999994,130.89746099999957,113.58984400000008,123.84619099999964,105.12841800000024,50.38476599999922,77.17968800000017,-710.7692869999996,109.87158199999976
256,-72.17944299999999,-232.9487299999996,95.89746099999957,101.41015599999992,121.9228520000006,128.84619099999964,133.0771479999994,113.84619099999964,122.43603499999972,110.25634799999989,50.12841800000024,78.58984400000008,-707.820557,112.82031300000017
257,-72.82055700000001,-232.3076170000004,94.74365200000011,105.64111300000059,127.69238299999961,131.53857400000015,127.94873000000007,111.9228520000006,119.48730499999965,111.15380900000036,46.025878999999804,76.0258789999998,-706.1538090000004,115.76904300000024
258,-73.07690400000001,-229.61547900000005,91.79492200000004,106.53857400000015,132.17968800000017,130.51269500000035,120.0,108.7177729999994,117.69238299999961,108.7177729999994,40.51269500000035,71.15380900000036,-703.5898439999996,113.84619099999964
259,-70.64111300000013,-224.35888699999987,89.61523400000078,103.58984400000008,133.9741210000002,127.05126999999993,116.2822270000006,107.05126999999993,118.46142599999985,106.6665039999998,36.410155999999915,67.82031300000017,-697.820557,110.64111300000059
260,-65.51293900000019,-218.33325200000036,89.87158199999976,99.35888699999941,132.17968800000017,123.58984400000008,120.25634799999989,108.3334960000002,121.15380900000036,107.56396500000028,35.64111300000059,68.9741210000002,-689.3588869999999,111.6665039999998
261,-59.74365200000011,-213.58984399999963,92.56396500000028,96.53857400000015,127.94873000000007,122.30761700000039,128.7177729999994,112.43603499999972,123.58984400000008,111.15380900000036,39.102539000000434,74.10253900000043,-680.7692869999996,114.61523400000078
262,-55.38452099999995,-211.41015600000037,96.0258789999998,96.6665039999998,124.48730499999965,124.48730499999965,135.51269500000035,116.79492200000004,124.35888699999941,115.38476599999922,46.2822270000006,80.12841800000024,-675.2563479999999,113.7177729999994
263,-54.8718259999996,-212.820557,98.58984400000008,98.7177729999994,122.94873000000007,128.58984400000008,135.6411130000006,118.46142599999985,123.46142599999985,116.9228520000006,52.69238299999961,83.84619099999964,-674.2307130000004,110.64111300000059
264,-59.61547900000005,-218.33325200000036,98.46142599999985,100.12841800000024,121.53857400000015,130.51269500000035,128.7177729999994,115.76904300000024,121.0258789999998,113.20507799999996,52.69238299999961,82.69238299999961,-678.205078,111.2822270000006
265,-67.94872999999961,-226.41015600000037,95.12841800000024,98.84619099999964,118.0771479999994,127.82031300000017,118.84619099999964,109.48730499999965,117.69238299999961,103.9741210000002,44.23095699999976,76.53857400000015,-685.0,114.87158199999976
266,-75.76928699999962,-233.20507799999996,90.0,95.76904300000024,112.43603499999972,121.9228520000006,111.9228520000006,103.0771479999994,114.10253900000043,93.58984400000008,32.30761700000039,68.7177729999994,-690.897461,115.0
267,-78.71801800000003,-235.1281740000004,85.89746099999957,93.58984400000008,107.30761700000039,116.6665039999998,110.51269500000035,100.12841800000024,111.79492200000004,87.17968800000017,25.769043000000238,64.61523400000078,-692.4357909999994,110.51269500000035
268,-76.15380900000036,-231.41015600000037,85.12841800000024,94.23095699999976,105.25634799999989,114.48730499999965,113.20507799999996,101.79492200000004,111.2822270000006,87.69238299999961,28.846190999999635,66.79492200000004,-688.718018,107.30761700000039
269,-70.89746100000002,-224.4870609999998,87.05126999999993,97.17968800000017,107.43603499999972,115.51269500000035,116.9228520000006,105.89746099999957,112.17968800000017,93.9741210000002,38.333496000000196,73.46142599999985,-681.6667479999996,107.56396500000028
270,-66.02563499999997,-217.820557,90.0,99.87158199999976,112.17968800000017,118.20507799999996,118.9741210000002,109.87158199999976,114.23095699999976,102.05126999999993,46.666503999999804,79.61523400000078,-673.4614259999998,107.43603499999972
271,-63.974365000000034,-214.23071300000038,92.43603499999972,99.87158199999976,115.76904300000024,120.25634799999989,119.35888699999941,112.56396500000028,116.6665039999998,106.6665039999998,47.30761700000039,81.6665039999998,-666.4101560000004,105.51269500000035
272,-65.89746100000002,-215.64111300000013,93.7177729999994,96.79492200000004,114.23095699999976,119.35888699999941,118.46142599999985,113.7177729999994,118.0771479999994,104.48730499999965,39.61523400000078,79.23095699999976,-662.4357909999994,106.79492200000004
273,-70.38452099999995,-220.89746100000002,93.46142599999985,92.56396500000028,107.30761700000039,115.12841800000024,117.43603499999972,113.84619099999964,117.30761700000039,96.41015599999992,28.717772999999397,74.23095699999976,-662.4357909999994,112.82031300000017
274,-73.71801800000003,-225.2563479999999,91.9228520000006,90.0,99.87158199999976,110.51269500000035,117.43603499999972,113.0771479999994,115.0,88.58984400000008,22.43603499999972,70.38476599999922,-663.5898439999996,116.79492200000004
275,-72.05127000000039,-224.23071300000038,90.51269500000035,90.89746099999957,97.30761700000039,108.9741210000002,118.84619099999964,112.43603499999972,113.58984400000008,87.94873000000007,25.51269500000035,70.38476599999922,-661.5385740000002,114.10253900000043
276,-66.79492200000004,-218.20507799999996,90.25634799999989,94.48730499999965,100.38476599999922,110.38476599999922,119.48730499999965,112.30761700000039,113.9741210000002,95.76904300000024,34.48730499999965,74.35888699999941,-654.4870609999998,109.48730499999965
277,-62.82055700000001,-212.6923829999996,90.64111300000059,98.0771479999994,104.87158199999976,111.2822270000006,116.79492200000004,111.41015599999992,115.0,105.64111300000059,40.64111300000059,78.20507799999996,-646.1538090000004,109.61523400000078
278,-63.07690400000001,-211.02563499999997,90.38476599999922,99.48730499999965,106.79492200000004,109.35888699999941,111.6665039999998,109.48730499999965,115.38476599999922,109.87158199999976,39.35888699999941,78.7177729999994,-640.5129390000002,112.05126999999993
279,-64.74365200000011,-211.79492200000004,89.74365200000011,99.10253900000043,106.53857400000015,107.17968800000017,108.20507799999996,108.3334960000002,115.38476599999922,106.53857400000015,35.0,76.79492200000004,-637.4357909999994,111.41015599999992
280,-63.20507799999996,-210.89746100000002,90.25634799999989,98.20507799999996,106.41015599999992,108.46142599999985,109.74365200000011,110.25634799999989,115.89746099999957,99.74365200000011,35.64111300000059,75.89746099999957,-634.102539,108.9741210000002
281,-58.07690400000001,-207.43579099999943,91.79492200000004,97.82031300000017,107.56396500000028,113.0771479999994,116.0258789999998,114.74365200000011,116.9228520000006,95.38476599999922,44.35888699999941,78.20507799999996,-628.8461909999996,109.35888699999941
282,-52.69238299999961,-203.58984399999963,92.94873000000007,97.94873000000007,109.23095699999976,117.94873000000007,122.94873000000007,118.7177729999994,117.94873000000007,96.79492200000004,55.64111300000059,81.9228520000006,-622.6923829999996,111.53857400000015
283,-50.0,-201.28198199999997,92.43603499999972,98.7177729999994,110.12841800000024,120.25634799999989,127.17968800000017,120.12841800000024,118.20507799999996,103.0771479999994,60.897460999999566,83.9741210000002,-617.5642090000006,110.38476599999922
284,-50.76928699999962,-200.89746100000002,91.0258789999998,98.9741210000002,109.23095699999976,119.23095699999976,127.17968800000017,119.10253900000043,117.43603499999972,109.10253900000043,56.025878999999804,82.43603499999972,-614.7436520000001,107.17968800000017
285,-54.35888699999987,-202.3076170000004,89.74365200000011,97.69238299999961,106.2822270000006,115.64111300000059,123.58984400000008,116.6665039999998,115.38476599999922,108.9741210000002,43.589844000000085,78.3334960000002,-615.2563479999999,107.82031300000017
286,-59.10253899999998,-204.61547900000005,88.58984400000008,95.25634799999989,102.43603499999972,111.9228520000006,118.58984400000008,114.23095699999976,112.82031300000017,101.53857400000015,31.666503999999804,73.84619099999964,-617.6923829999996,112.17968800000017
287,-62.435790999999426,-206.02563499999997,87.56396500000028,93.58984400000008,100.51269500000035,110.89746099999957,115.38476599999922,112.56396500000028,111.0258789999998,92.17968800000017,27.56396500000028,71.9228520000006,-618.718018,113.58984400000008
288,-62.435790999999426,-205.0,87.69238299999961,94.87158199999976,103.0771479999994,113.58984400000008,115.51269500000035,112.56396500000028,111.15380900000036,87.56396500000028,32.30761700000039,73.46142599999985,-615.1281740000004,110.51269500000035
289,-60.0,-202.3076170000004,89.48730499999965,98.20507799999996,108.9741210000002,117.94873000000007,118.20507799999996,113.7177729999994,112.43603499999972,89.10253900000043,39.23095699999976,76.79492200000004,-608.076904,108.58984400000008
290,-57.948729999999614,-199.7436520000001,91.9228520000006,100.51269500000035,114.48730499999965,120.64111300000059,121.15380900000036,114.87158199999976,113.46142599999985,92.82031300000017,40.897460999999566,78.7177729999994,-601.6667479999996,111.0258789999998
291,-57.82055700000001,-197.9487299999996,92.43603499999972,99.61523400000078,117.05126999999993,121.53857400000015,122.82031300000017,114.48730499999965,113.46142599999985,94.10253900000043,35.897460999999566,77.82031300000017,-599.3588869999999,112.94873000000007
292,-58.58984399999963,-195.2563479999999,90.51269500000035,96.41015599999992,117.05126999999993,122.30761700000039,123.3334960000002,112.56396500000028,112.94873000000007,93.20507799999996,30.384765999999217,75.38476599999922,-600.384521,110.89746099999957
293,-58.846190999999635,-191.41015600000037,87.43603499999972,93.3334960000002,115.76904300000024,123.7177729999994,123.3334960000002,110.0,112.94873000000007,92.82031300000017,31.153809000000365,72.94873000000007,-602.179443,108.84619099999964
294,-58.974365000000034,-188.46142599999985,84.61523400000078,91.9228520000006,113.0771479999994,123.58984400000008,122.17968800000017,107.82031300000017,113.46142599999985,95.12841800000024,38.333496000000196,70.89746099999957,-602.3076170000004,110.64111300000059
295,-59.35888699999987,-188.33325200000036,82.56396500000028,92.30761700000039,108.9741210000002,120.38476599999922,119.35888699999941,107.05126999999993,113.9741210000002,98.9741210000002,45.76904300000024,68.46142599999985,-599.3588869999999,112.56396500000028
296,-58.974365000000034,-190.64111300000013,82.17968800000017,94.23095699999976,105.38476599999922,115.76904300000024,115.76904300000024,108.0771479999994,114.10253900000043,101.9228520000006,47.43603499999972,66.41015599999992,-592.9487299999996,110.12841800000024
297,-56.53857400000015,-192.6923829999996,84.61523400000078,96.6665039999998,104.10253900000043,112.69238299999961,112.94873000000007,110.38476599999922,114.10253900000043,102.17968800000017,43.0771479999994,66.2822270000006,-584.102539,106.9228520000006
298,-51.92309599999999,-192.43579099999943,88.9741210000002,98.7177729999994,105.25634799999989,112.56396500000028,112.17968800000017,112.69238299999961,113.84619099999964,99.87158199999976,37.69238299999961,69.35888699999941,-575.2563479999999,108.7177729999994
299,-46.025634999999966,-188.84619099999964,93.0771479999994,100.12841800000024,107.82031300000017,115.38476599999922,113.58984400000008,113.7177729999994,113.84619099999964,97.43603499999972,37.30761700000039,75.51269500000035,-567.179443,113.0771479999994
300,-40.1281740000004,-182.43579099999943,95.0,101.79492200000004,111.41015599999992,119.87158199999976,117.05126999999993,113.20507799999996,114.35888699999941,98.58984400000008,43.20507799999996,83.58984400000008,-559.4870609999998,113.0771479999994
301,-35.89746100000002,-175.76928699999962,94.74365200000011,103.9741210000002,115.51269500000035,123.84619099999964,120.76904300000024,112.17968800000017,115.51269500000035,104.61523400000078,51.153809000000365,90.51269500000035,-551.794922,109.48730499999965
302,-35.89746100000002,-172.43579099999943,92.56396500000028,105.0,117.30761700000039,124.48730499999965,122.05126999999993,110.64111300000059,116.41015599999992,111.79492200000004,54.48730499999965,92.69238299999961,-545.897461,108.58984400000008
303,-40.64111300000013,-174.23071300000038,88.7177729999994,102.69238299999961,114.61523400000078,120.51269500000035,118.7177729999994,108.3334960000002,115.76904300000024,114.74365200000011,50.64111300000059,88.84619099999964,-543.974365,111.0258789999998
304,-46.66674799999964,-178.58984399999963,84.61523400000078,97.56396500000028,108.46142599999985,114.10253900000043,112.05126999999993,105.51269500000035,113.7177729999994,110.38476599999922,43.974121000000196,81.79492200000004,-545.384521,111.9228520000006
305,-49.74365200000011,-181.53857400000015,82.69238299999961,92.94873000000007,103.20507799999996,108.9741210000002,106.0258789999998,102.82031300000017,111.9228520000006,101.0258789999998,41.53857400000015,77.43603499999972,-547.3076170000004,110.12841800000024
306,-47.82055700000001,-181.15380900000036,84.87158199999976,92.30761700000039,101.79492200000004,107.43603499999972,103.7177729999994,101.41015599999992,111.6665039999998,92.43603499999972,46.153809000000365,79.10253900000043,-547.3076170000004,110.38476599999922
307,-42.17944299999999,-178.33325200000036,89.61523400000078,96.0258789999998,104.48730499999965,108.84619099999964,105.25634799999989,101.79492200000004,112.43603499999972,89.74365200000011,54.35888699999941,84.74365200000011,-544.2307130000004,113.9741210000002
308,-35.51293900000019,-174.35888699999987,93.7177729999994,101.0258789999998,108.46142599999985,111.2822270000006,108.7177729999994,103.84619099999964,113.58984400000008,94.48730499999965,60.51269500000035,89.48730499999965,-537.6923829999996,115.25634799999989
309,-30.25634799999989,-170.1281740000004,95.0,104.10253900000043,111.2822270000006,112.56396500000028,111.2822270000006,106.2822270000006,113.84619099999964,103.46142599999985,61.025878999999804,89.87158199999976,-528.4614259999998,111.79492200000004
310,-28.58984399999963,-166.28198199999997,93.46142599999985,103.84619099999964,111.2822270000006,110.76904300000024,111.0258789999998,106.79492200000004,112.43603499999972,110.0,56.410155999999915,86.41015599999992,-519.615479,108.9741210000002
311,-30.769286999999622,-163.97436500000003,90.64111300000059,101.41015599999992,108.9741210000002,106.41015599999992,108.3334960000002,104.61523400000078,109.48730499999965,108.46142599999985,49.61523400000078,82.17968800000017,-514.3588869999999,110.89746099999957
312,-33.07690400000001,-162.3076170000004,88.9741210000002,99.74365200000011,107.43603499999972,102.69238299999961,105.89746099999957,101.6665039999998,106.6665039999998,100.25634799999989,45.64111300000059,80.89746099999957,-512.0512700000004,113.0771479999994
313,-31.025634999999966,-159.35888699999987,90.12841800000024,101.41015599999992,109.48730499999965,103.3334960000002,107.05126999999993,101.41015599999992,106.15380900000036,92.82031300000017,47.69238299999961,84.87158199999976,-509.102539,110.76904300000024
314,-23.461425999999847,-154.61547900000005,94.48730499999965,106.6665039999998,114.48730499999965,108.46142599999985,112.56396500000028,105.38476599999922,108.58984400000008,93.20507799999996,54.74365200000011,93.0771479999994,-503.076904,107.82031300000017
315,-14.487060999999812,-150.1281740000004,99.48730499999965,112.43603499999972,118.46142599999985,113.84619099999964,118.9741210000002,111.0258789999998,112.05126999999993,101.6665039999998,61.79492200000004,100.89746099999957,-495.64111300000013,109.74365200000011
316,-9.743652000000111,-148.33325200000036,101.79492200000004,114.23095699999976,117.17968800000017,114.87158199999976,121.6665039999998,113.9741210000002,114.48730499999965,111.41015599999992,63.846190999999635,102.69238299999961,-489.8718259999996,113.84619099999964
317,-11.025634999999966,-149.7436520000001,99.61523400000078,110.38476599999922,110.51269500000035,110.76904300000024,118.46142599999985,111.9228520000006,114.61523400000078,114.23095699999976,59.61523400000078,97.30761700000039,-487.3076170000004,114.23095699999976
318,-16.41015600000037,-153.076904,94.61523400000078,103.84619099999964,102.43603499999972,104.23095699999976,111.53857400000015,106.2822270000006,112.82031300000017,106.6665039999998,51.666503999999804,88.84619099999964,-487.0512700000004,111.9228520000006
319,-22.179442999999992,-156.79492200000004,89.87158199999976,99.35888699999941,97.56396500000028,98.9741210000002,105.12841800000024,100.64111300000059,109.87158199999976,93.20507799999996,44.74365200000011,83.0771479999994,-487.4357909999994,112.30761700000039
320,-24.8718259999996,-158.58984399999963,87.82031300000017,100.0,98.46142599999985,97.69238299999961,103.0771479999994,98.3334960000002,107.56396500000028,83.7177729999994,43.333496000000196,83.46142599999985,-486.02563499999997,114.61523400000078
321,-22.564209000000574,-155.76928699999962,89.23095699999976,104.23095699999976,104.74365200000011,101.41015599999992,106.79492200000004,101.0258789999998,107.43603499999972,86.79492200000004,49.35888699999941,89.35888699999941,-480.64111300000013,113.46142599999985
322,-16.025634999999966,-148.20507799999996,92.69238299999961,108.0771479999994,112.82031300000017,107.69238299999961,114.23095699999976,107.43603499999972,110.51269500000035,102.17968800000017,61.025878999999804,97.17968800000017,-471.66674799999964,109.23095699999976
323,-9.743652000000111,-140.1281740000004,95.89746099999957,108.0771479999994,117.82031300000017,111.53857400000015,120.25634799999989,113.7177729999994,114.61523400000078,120.25634799999989,71.6665039999998,101.6665039999998,-463.33325200000036,107.82031300000017
324,-7.692382999999609,-136.66674799999964,96.15380900000036,104.61523400000078,116.53857400000015,109.10253900000043,121.15380900000036,116.2822270000006,116.79492200000004,129.61523400000078,73.9741210000002,99.61523400000078,-460.0,110.0
325,-9.61547900000005,-139.35888699999987,93.0771479999994,101.2822270000006,111.15380900000036,101.9228520000006,117.30761700000039,114.74365200000011,116.0258789999998,126.53857400000015,66.2822270000006,91.9228520000006,-461.41015600000037,110.25634799999989
326,-12.179442999999992,-144.23071300000038,89.10253900000043,101.6665039999998,107.17968800000017,95.0,112.82031300000017,111.79492200000004,113.84619099999964,116.15380900000036,54.61523400000078,83.9741210000002,-462.6923829999996,107.05126999999993
327,-12.179442999999992,-146.53857400000015,87.56396500000028,105.25634799999989,107.69238299999961,92.17968800000017,111.41015599999992,110.64111300000059,112.69238299999961,107.30761700000039,47.56396500000028,81.15380900000036,-459.4870609999998,106.15380900000036
328,-9.61547900000005,-144.10253899999998,88.84619099999964,108.0771479999994,111.53857400000015,94.23095699999976,114.23095699999976,111.6665039999998,113.84619099999964,105.51269500000035,49.87158199999976,84.74365200000011,-451.41015600000037,110.38476599999922
329,-6.025634999999966,-137.6923829999996,91.2822270000006,106.79492200000004,115.0,99.48730499999965,119.23095699999976,112.94873000000007,116.53857400000015,110.25634799999989,59.74365200000011,91.2822270000006,-441.79492200000004,113.7177729999994
330,-3.077147999999397,-130.76928699999962,92.94873000000007,101.79492200000004,115.64111300000059,105.38476599999922,123.7177729999994,113.46142599999985,119.48730499999965,117.17968800000017,71.0258789999998,96.15380900000036,-434.61547900000005,111.41015599999992
331,-2.5639650000002803,-127.94872999999961,93.46142599999985,96.41015599999992,112.94873000000007,109.48730499999965,124.74365200000011,113.0771479999994,120.76904300000024,120.12841800000024,76.53857400000015,96.6665039999998,-432.4357909999994,107.69238299999961
332,-5.256347999999889,-131.923096,92.56396500000028,93.9741210000002,108.0771479999994,109.61523400000078,121.79492200000004,112.43603499999972,118.84619099999964,116.15380900000036,72.17968800000017,92.94873000000007,-435.2563479999999,108.3334960000002
333,-9.61547900000005,-140.1281740000004,91.0258789999998,95.64111300000059,104.61523400000078,107.05126999999993,117.30761700000039,112.17968800000017,115.25634799999989,107.05126999999993,60.25634799999989,87.69238299999961,-439.2307130000004,111.0258789999998
334,-12.307617000000391,-145.1281740000004,90.25634799999989,100.0,106.2822270000006,105.38476599999922,115.25634799999989,113.3334960000002,112.69238299999961,99.23095699999976,49.35888699999941,85.25634799999989,-438.33325200000036,110.51269500000035
335,-10.512939000000188,-141.53857400000015,92.05126999999993,104.35888699999941,113.46142599999985,107.05126999999993,117.82031300000017,115.89746099999957,113.3334960000002,97.94873000000007,47.82031300000017,88.3334960000002,-429.7436520000001,108.84619099999964
336,-5.512939000000188,-131.15380900000036,96.0258789999998,106.6665039999998,121.2822270000006,110.51269500000035,123.0771479999994,118.58984400000008,116.0258789999998,103.46142599999985,56.9228520000006,95.0,-417.0512700000004,110.51269500000035
337,-0.8974609999995664,-121.66674799999964,99.35888699999941,107.05126999999993,124.61523400000078,112.94873000000007,127.94873000000007,119.48730499999965,117.56396500000028,111.0258789999998,69.10253900000043,100.38476599999922,-408.33325200000036,113.84619099999964
338,0.38476599999921746,-119.23071300000038,100.0,107.17968800000017,122.30761700000039,113.3334960000002,131.15380900000036,118.0771479999994,116.53857400000015,115.64111300000059,74.87158199999976,100.89746099999957,-409.61547900000005,112.43603499999972
339,-2.5639650000002803,-124.48706099999981,97.94873000000007,108.20507799999996,117.69238299999961,112.56396500000028,133.3334960000002,115.89746099999957,113.46142599999985,115.12841800000024,69.48730499999965,96.6665039999998,-419.61547900000005,107.69238299999961
340,-7.820557000000008,-132.6923829999996,95.12841800000024,109.61523400000078,113.9741210000002,111.9228520000006,135.12841800000024,114.48730499999965,110.76904300000024,110.51269500000035,56.53857400000015,90.51269500000035,-431.923096,106.79492200000004
341,-11.923095999999987,-137.6923829999996,92.69238299999961,109.10253900000043,112.69238299999961,111.9228520000006,135.89746099999957,114.23095699999976,109.87158199999976,105.12841800000024,45.0,86.2822270000006,-437.179443,111.15380900000036
342,-11.153809000000365,-135.2563479999999,91.41015599999992,106.0258789999998,112.82031300000017,112.69238299999961,134.48730499999965,114.61523400000078,111.0258789999998,103.3334960000002,42.69238299999961,86.15380900000036,-430.0,114.10253900000043
343,-4.743652000000111,-127.30761700000039,91.53857400000015,101.6665039999998,112.17968800000017,112.17968800000017,130.0,114.87158199999976,113.46142599999985,105.89746099999957,50.897460999999566,90.25634799999989,-411.53857400000015,112.69238299999961
344,4.230956999999762,-120.25634799999989,92.82031300000017,98.0771479999994,108.7177729999994,108.3334960000002,123.0771479999994,114.74365200000011,115.51269500000035,110.0,64.10253900000043,96.53857400000015,-389.7436520000001,111.0258789999998
345,12.17968800000017,-119.23071300000038,94.23095699999976,96.6665039999998,103.46142599999985,101.6665039999998,116.53857400000015,113.84619099999964,116.15380900000036,112.17968800000017,75.12841800000024,102.30761700000039,-372.5642090000006,111.6665039999998
346,18.077147999999397,-123.33325200000036,95.0,97.94873000000007,100.12841800000024,96.0258789999998,114.48730499999965,113.3334960000002,115.64111300000059,112.30761700000039,80.51269500000035,106.0258789999998,-361.923096,111.0258789999998
347,23.205077999999958,-127.43579099999943,96.0258789999998,101.15380900000036,101.53857400000015,95.76904300000024,118.3334960000002,113.7177729999994,115.25634799999989,113.20507799999996,82.17968800000017,108.0771479999994,-355.0,107.17968800000017
348,27.56396500000028,-127.30761700000039,98.20507799999996,104.61523400000078,105.89746099999957,100.51269500000035,125.0,115.12841800000024,115.25634799999989,116.2822270000006,83.20507799999996,109.61523400000078,-348.97436500000003,105.51269500000035
349,29.48730499999965,-123.84619099999964,101.2822270000006,106.6665039999998,109.35888699999941,106.2822270000006,129.23095699999976,116.79492200000004,115.25634799999989,120.12841800000024,85.25634799999989,110.51269500000035,-343.58984399999963,109.35888699999941
350,28.461425999999847,-119.61547900000005,103.0771479999994,106.9228520000006,110.12841800000024,108.9741210000002,128.9741210000002,118.3334960000002,115.0,122.30761700000039,88.0771479999994,111.0258789999998,-339.8718259999996,113.84619099999964
351,26.153809000000365,-117.30761700000039,102.43603499999972,106.6665039999998,109.48730499999965,108.3334960000002,125.89746099999957,119.74365200000011,115.25634799999989,122.43603499999972,89.74365200000011,111.2822270000006,-337.9487299999996,113.0771479999994
352,24.48730499999965,-117.17944299999999,99.87158199999976,106.41015599999992,109.10253900000043,105.64111300000059,123.7177729999994,120.89746099999957,116.53857400000015,121.41015599999992,87.94873000000007,111.2822270000006,-337.6923829999996,109.74365200000011
353,23.461425999999847,-117.94872999999961,96.41015599999992,106.0258789999998,108.0771479999994,102.30761700000039,123.84619099999964,120.25634799999989,117.30761700000039,118.9741210000002,82.05126999999993,109.48730499999965,-338.71801800000003,109.87158199999976
354,21.922852000000603,-118.07690400000001,92.69238299999961,104.87158199999976,105.0,98.58984400000008,124.87158199999976,116.79492200000004,116.15380900000036,114.61523400000078,73.46142599999985,104.48730499999965,-340.897461,112.56396500000028
355,19.358886999999413,-116.79492200000004,89.87158199999976,102.56396500000028,99.74365200000011,95.38476599999922,124.35888699999941,111.53857400000015,112.94873000000007,109.35888699999941,64.87158199999976,97.17968800000017,-342.9487299999996,112.43603499999972
356,16.282227000000603,-115.25634799999989,88.9741210000002,100.0,94.74365200000011,93.58984400000008,121.41015599999992,106.9228520000006,109.23095699999976,105.51269500000035,58.333496000000196,90.64111300000059,-343.71801800000003,110.25634799999989
357,13.461425999999847,-115.89746100000002,90.51269500000035,98.3334960000002,92.94873000000007,93.9741210000002,117.69238299999961,105.64111300000059,106.9228520000006,104.74365200000011,55.51269500000035,87.94873000000007,-343.076904,110.76904300000024
358,12.17968800000017,-118.20507799999996,93.20507799999996,98.3334960000002,96.41015599999992,96.79492200000004,116.41015599999992,108.3334960000002,107.05126999999993,106.15380900000036,57.05126999999993,89.74365200000011,-340.2563479999999,113.0771479999994
359,14.615234000000783,-118.84619099999964,95.64111300000059,100.64111300000059,104.48730499999965,101.79492200000004,119.48730499999965,113.20507799999996,109.35888699999941,107.69238299999961,62.69238299999961,94.23095699999976,-333.97436500000003,111.79492200000004
360,20.769043000000238,-115.0,96.9228520000006,104.48730499999965,113.7177729999994,107.94873000000007,125.76904300000024,117.30761700000039,112.69238299999961,107.43603499999972,69.61523400000078,99.35888699999941,-324.4870609999998,107.30761700000039
361,27.82031300000017,-107.82055700000001,97.56396500000028,108.46142599999985,119.35888699999941,113.3334960000002,132.17968800000017,118.84619099999964,115.38476599999922,105.64111300000059,73.84619099999964,103.0771479999994,-314.8718259999996,105.89746099999957
362,32.17968800000017,-101.02563499999997,97.17968800000017,110.89746099999957,119.35888699999941,116.15380900000036,135.76904300000024,117.94873000000007,116.41015599999992,103.84619099999964,74.35888699999941,105.0,-308.46142599999985,109.61523400000078
363,33.0771479999994,-97.56420900000057,96.0258789999998,111.2822270000006,115.76904300000024,116.2822270000006,136.0258789999998,116.6665039999998,116.41015599999992,104.35888699999941,74.61523400000078,106.15380900000036,-305.897461,112.17968800000017
364,32.56396500000028,-97.56420900000057,95.0,110.64111300000059,112.56396500000028,115.64111300000059,134.61523400000078,116.6665039999998,116.15380900000036,108.46142599999985,77.94873000000007,107.30761700000039,-305.5129390000002,109.87158199999976
365,31.410155999999915,-100.0,95.0,109.61523400000078,111.41015599999992,115.12841800000024,132.6923829999996,117.69238299999961,115.89746099999957,113.58984400000008,83.0771479999994,108.3334960000002,-306.02563499999997,107.30761700000039
366,28.846190999999635,-103.97436500000003,95.0,107.82031300000017,110.76904300000024,114.61523400000078,130.2563479999999,117.82031300000017,115.12841800000024,116.2822270000006,85.64111300000059,107.17968800000017,-307.179443,108.58984400000008
367,24.74365200000011,-107.05127000000039,93.58984400000008,104.74365200000011,109.61523400000078,113.3334960000002,127.05126999999993,115.89746099999957,113.84619099999964,115.51269500000035,82.82031300000017,102.69238299999961,-307.5642090000006,110.25634799999989
368,21.666503999999804,-107.05127000000039,91.0258789999998,101.79492200000004,109.10253900000043,111.15380900000036,123.58984400000008,113.3334960000002,113.46142599999985,114.10253900000043,76.79492200000004,97.17968800000017,-305.1281740000004,108.3334960000002
369,22.05126999999993,-103.84619099999964,89.23095699999976,100.51269500000035,109.74365200000011,108.46142599999985,121.2822270000006,111.79492200000004,114.23095699999976,115.51269500000035,71.53857400000015,93.84619099999964,-299.4870609999998,106.41015599999992
370,24.74365200000011,-100.51293900000019,88.7177729999994,100.76904300000024,110.12841800000024,104.35888699999941,119.74365200000011,111.79492200000004,115.38476599999922,118.7177729999994,68.9741210000002,93.20507799999996,-293.84619099999964,108.9741210000002
371,26.922852000000603,-100.1281740000004,88.7177729999994,100.89746099999957,108.84619099999964,98.9741210000002,117.82031300000017,111.6665039999998,115.51269500000035,119.74365200000011,68.7177729999994,93.0771479999994,-291.66674799999964,112.43603499999972
372,27.17968800000017,-101.28198199999997,88.7177729999994,100.51269500000035,107.17968800000017,95.25634799999989,115.89746099999957,111.2822270000006,114.10253900000043,116.41015599999992,69.87158199999976,92.82031300000017,-292.0512700000004,111.41015599999992
373,27.43603499999972,-100.51293900000019,90.12841800000024,100.89746099999957,107.56396500000028,96.53857400000015,116.15380900000036,111.53857400000015,112.69238299999961,110.64111300000059,72.56396500000028,94.35888699999941,-291.28198199999997,107.94873000000007
374,29.230956999999762,-96.15380900000036,93.46142599999985,102.30761700000039,110.12841800000024,102.94873000000007,119.74365200000011,113.3334960000002,112.82031300000017,106.41015599999992,75.76904300000024,99.35888699999941,-287.0512700000004,108.3334960000002
375,32.30761700000039,-91.15380900000036,96.53857400000015,103.46142599999985,111.53857400000015,110.51269500000035,124.61523400000078,116.15380900000036,114.23095699999976,105.89746099999957,77.82031300000017,105.25634799999989,-280.897461,111.79492200000004
376,35.25634799999989,-88.84619099999964,96.9228520000006,102.43603499999972,109.35888699999941,114.61523400000078,127.30761700000039,117.82031300000017,115.38476599999922,107.94873000000007,77.94873000000007,107.94873000000007,-276.53857400000015,112.17968800000017
377,36.9228520000006,-90.0,94.87158199999976,100.0,104.35888699999941,113.7177729999994,126.15380900000036,117.30761700000039,115.0,109.23095699999976,76.9228520000006,106.2822270000006,-275.897461,108.84619099999964
378,37.30761700000039,-92.05127000000039,93.3334960000002,99.48730499999965,100.25634799999989,109.74365200000011,123.20507799999996,115.64111300000059,113.58984400000008,107.30761700000039,76.41015599999992,103.0771479999994,-277.179443,107.69238299999961
379,38.46142599999985,-89.8718259999996,95.25634799999989,103.20507799999996,101.9228520000006,107.94873000000007,122.69238299999961,115.38476599999922,113.3334960000002,104.10253900000043,78.7177729999994,103.9741210000002,-275.1281740000004,110.38476599999922
380,43.20507799999996,-79.48706099999981,101.0258789999998,110.89746099999957,112.05126999999993,112.05126999999993,127.56396500000028,119.35888699999941,116.41015599999992,105.25634799999989,85.51269500000035,112.43603499999972,-263.84619099999964,111.6665039999998
381,52.30761700000039,-62.948729999999614,108.20507799999996,118.84619099999964,127.17968800000017,121.2822270000006,135.76904300000024,127.43603499999972,122.69238299999961,114.74365200000011,96.0258789999998,126.41015599999992,-244.10253899999998,109.61523400000078
382,61.153809000000365,-49.48706099999981,112.69238299999961,121.9228520000006,137.56396500000028,128.7177729999994,140.89746099999957,135.12841800000024,128.20507799999996,128.46142599999985,105.38476599999922,137.6923829999996,-225.38452099999995,108.9741210000002
383,63.333496000000196,-48.46142599999985,110.64111300000059,117.69238299999961,134.3588869999994,126.9228520000006,136.6665039999998,136.53857400000015,128.46142599999985,137.3076170000004,106.6665039999998,137.56396500000028,-219.7436520000001,112.43603499999972
