,EEG.AF3,EEG.F7,EEG.F3,EEG.FC5,EEG.T7,EEG.P7,EEG.O1,EEG.O2,EEG.P8,EEG.T8,EEG.FC6,EEG.F4,EEG.F8,EEG.AF4
0,63.7177729999994,13.461425999999847,91.2822270000006,109.35888699999941,105.25634799999989,111.53857400000015,98.9741210000002,102.05126999999993,109.61523400000078,100.38476599999922,98.58984400000008,106.2822270000006,-213.46142599999985,111.9228520000006
1,73.9741210000002,14.743652000000111,92.69238299999961,106.6665039999998,107.82031300000017,113.20507799999996,101.79492200000004,103.7177729999994,112.82031300000017,106.2822270000006,104.10253900000043,112.56396500000028,-186.53857400000015,109.23095699999976
2,94.87158199999976,8.077147999999397,94.74365200000011,106.2822270000006,101.79492200000004,109.48730499999965,98.7177729999994,102.82031300000017,113.9741210000002,103.9741210000002,103.9741210000002,119.87158199999976,-172.179443,110.12841800000024
3,130.0,5.641113000000587,97.43603499999972,111.15380900000036,91.0258789999998,101.79492200000004,91.15380900000036,99.35888699999941,111.79492200000004,95.0,103.46142599999985,128.58984400000008,-173.97436500000003,111.15380900000036
4,175.6411130000006,22.56396500000028,101.41015599999992,121.53857400000015,84.35888699999941,95.38476599999922,84.61523400000078,95.51269500000035,107.82031300000017,87.56396500000028,108.84619099999964,139.23095699999976,-177.43579099999943,108.58984400000008
5,222.05126999999993,62.56396500000028,107.17968800000017,133.20507799999996,86.9228520000006,94.48730499999965,83.46142599999985,94.10253900000043,104.87158199999976,89.61523400000078,121.9228520000006,151.15380900000036,-160.38452099999995,106.79492200000004
6,259.6152340000008,113.20507799999996,113.58984400000008,141.2822270000006,95.64111300000059,97.94873000000007,87.05126999999993,95.89746099999957,104.23095699999976,100.38476599999922,138.84619099999964,162.43603499999972,-111.28198199999997,109.87158199999976
7,283.5898440000001,157.17968800000017,117.82031300000017,144.23095699999976,102.82031300000017,101.41015599999992,91.0258789999998,98.7177729999994,105.38476599999922,112.05126999999993,153.0771479999994,170.89746099999957,-37.69238299999961,114.23095699999976
8,293.3334960000002,184.10253900000043,118.46142599999985,144.7436520000001,102.94873000000007,101.0258789999998,91.6665039999998,100.51269500000035,106.6665039999998,116.41015599999992,160.2563479999999,174.87158199999976,39.87158199999976,113.58984400000008
9,291.53857400000015,195.0,116.2822270000006,146.79492200000004,96.2822270000006,96.6665039999998,89.23095699999976,99.48730499999965,106.0258789999998,111.2822270000006,159.7436520000001,174.61523400000078,102.94873000000007,110.12841800000024
10,286.2822270000006,197.43603499999972,113.46142599999985,151.2822270000006,86.53857400000015,90.38476599999922,85.25634799999989,95.89746099999957,101.6665039999998,99.35888699999941,153.3334960000002,172.3076170000004,148.84619099999964,110.25634799999989
11,288.9741210000002,201.0258789999998,111.53857400000015,156.15380900000036,77.69238299999961,85.12841800000024,81.15380900000036,90.64111300000059,93.0771479999994,85.76904300000024,143.9741210000002,170.38476599999922,196.53857400000015,114.23095699999976
12,304.7436520000001,213.7177729999994,111.2822270000006,158.58984400000008,72.17968800000017,82.69238299999961,77.43603499999972,85.64111300000059,82.43603499999972,74.87158199999976,135.89746099999957,171.0258789999998,279.6152340000008,115.76904300000024
13,327.82031300000017,236.0258789999998,113.0771479999994,158.46142599999985,69.48730499999965,82.69238299999961,74.35888699999941,82.05126999999993,73.0771479999994,69.87158199999976,132.6923829999996,175.12841800000024,427.82031300000017,113.7177729999994
14,346.9228520000006,259.23095699999976,116.41015599999992,158.46142599999985,66.79492200000004,82.56396500000028,72.43603499999972,80.76904300000024,67.69238299999961,72.05126999999993,136.79492200000004,181.79492200000004,647.9487300000001,112.69238299999961
15,357.17968800000017,272.17968800000017,119.74365200000011,161.41015599999992,62.69238299999961,81.15380900000036,72.56396500000028,81.53857400000015,66.79492200000004,80.89746099999957,147.3076170000004,189.48730499999965,917.9487300000001,114.23095699999976
16,363.3334960000002,271.6665039999998,121.9228520000006,167.3076170000004,59.102539000000434,80.0,75.0,84.23095699999976,69.35888699999941,94.35888699999941,160.76904300000024,197.17968800000017,1198.7177729999994,114.35888699999941
17,372.4360349999997,266.2822270000006,123.3334960000002,173.46142599999985,59.23095699999976,81.9228520000006,79.61523400000078,88.0771479999994,73.58984400000008,108.7177729999994,172.05126999999993,204.23095699999976,1457.1796880000002,111.53857400000015
18,385.51269500000035,268.3334960000002,124.74365200000011,176.9228520000006,63.46142599999985,86.6665039999998,85.0,91.53857400000015,77.30761700000039,117.94873000000007,177.17968800000017,210.0,1684.1025390000004,110.89746099999957
19,397.4360349999997,283.7177729999994,126.41015599999992,176.6665039999998,68.0771479999994,91.15380900000036,88.46142599999985,92.30761700000039,78.3334960000002,118.3334960000002,175.0,212.82031300000017,1895.0,114.10253900000043
20,403.46142599999985,309.87158199999976,127.05126999999993,175.0,68.84619099999964,91.79492200000004,87.94873000000007,89.35888699999941,76.15380900000036,110.89746099999957,167.6923829999996,211.41015599999992,2113.589844,115.89746099999957
21,403.7177729999994,339.23095699999976,125.38476599999922,174.48730499999965,64.48730499999965,87.82031300000017,83.46142599999985,83.84619099999964,71.9228520000006,101.79492200000004,158.58984400000008,205.89746099999957,2351.1538090000004,112.17968800000017
22,400.76904300000024,366.2822270000006,121.6665039999998,175.12841800000024,57.05126999999993,82.05126999999993,77.69238299999961,79.10253900000043,67.82031300000017,97.43603499999972,151.15380900000036,197.94873000000007,2601.025879,107.82031300000017
23,396.15380900000036,392.17968800000017,117.05126999999993,174.23095699999976,50.25634799999989,77.69238299999961,74.10253900000043,77.69238299999961,65.89746099999957,100.25634799999989,147.94873000000007,190.2563479999999,2846.2822269999997,108.46142599999985
24,390.76904300000024,424.6152340000008,112.69238299999961,170.38476599999922,47.05126999999993,76.53857400000015,74.61523400000078,79.74365200000011,66.53857400000015,107.43603499999972,149.7436520000001,184.61523400000078,3066.6665040000007,111.6665039999998
25,388.20507799999996,473.3334960000002,110.51269500000035,166.53857400000015,48.20507799999996,77.94873000000007,78.3334960000002,83.0771479999994,68.58984400000008,114.10253900000043,155.76904300000024,182.6923829999996,3242.1796879999993,112.17968800000017
26,395.0,541.0258789999998,112.17968800000017,167.17968800000017,51.153809000000365,79.10253900000043,82.30761700000039,84.74365200000011,69.74365200000011,116.9228520000006,163.9741210000002,185.6411130000006,3359.1025390000004,110.89746099999957
27,414.23095699999976,619.3588869999994,117.30761700000039,173.9741210000002,52.69238299999961,77.17968800000017,83.0771479999994,83.3334960000002,68.7177729999994,116.6665039999998,173.58984400000008,192.3076170000004,3422.94873,112.17968800000017
28,440.12841800000024,692.9487300000001,123.20507799999996,182.43603499999972,51.53857400000015,72.94873000000007,80.0,80.0,66.0258789999998,116.6665039999998,185.12841800000024,200.2563479999999,3456.794922,114.74365200000011
29,462.17968800000017,751.4101559999999,126.6665039999998,187.17968800000017,48.846190999999635,69.23095699999976,75.12841800000024,77.05126999999993,64.10253900000043,120.25634799999989,198.84619099999964,206.41015599999992,3482.1796879999993,113.9741210000002
30,471.9228520000006,795.7690430000002,126.79492200000004,185.76904300000024,46.410155999999915,67.82031300000017,71.0258789999998,76.0258789999998,64.35888699999941,126.53857400000015,211.53857400000015,209.48730499999965,3503.7177730000003,111.0258789999998
31,467.17968800000017,836.1538090000004,124.61523400000078,180.6411130000006,44.87158199999976,67.17968800000017,68.20507799999996,76.41015599999992,65.64111300000059,131.41015599999992,217.3076170000004,208.7177729999994,3516.410156,110.89746099999957
32,451.4101559999999,881.4101559999999,121.2822270000006,175.38476599999922,44.102539000000434,64.61523400000078,65.89746099999957,76.53857400000015,65.76904300000024,132.3076170000004,213.3334960000002,203.84619099999964,3520.769043000001,113.84619099999964
33,434.7436520000001,932.4360349999997,118.3334960000002,172.05126999999993,44.23095699999976,60.0,63.333496000000196,75.38476599999922,63.46142599999985,129.87158199999976,203.9741210000002,196.41015599999992,3523.0771480000003,113.9741210000002
34,428.9741210000002,983.0771479999994,117.69238299999961,171.0258789999998,43.974121000000196,55.25634799999989,60.38476599999922,73.3334960000002,59.61523400000078,127.05126999999993,197.94873000000007,190.2563479999999,3523.8461909999996,110.76904300000024
35,437.6923829999996,1026.6665039999998,120.12841800000024,170.38476599999922,41.025878999999804,52.05126999999993,56.666503999999804,71.15380900000036,55.51269500000035,124.48730499999965,200.76904300000024,188.7177729999994,3519.1025390000004,109.61523400000078
36,450.89746099999957,1060.5126950000003,123.58984400000008,168.20507799999996,33.974121000000196,50.76904300000024,53.0771479999994,68.7177729999994,52.30761700000039,121.15380900000036,210.38476599999922,191.53857400000015,3510.128418000001,112.69238299999961
37,455.0,1086.410156,125.12841800000024,164.7436520000001,25.897460999999566,51.79492200000004,51.025878999999804,66.6665039999998,51.025878999999804,117.69238299999961,219.10253900000043,195.38476599999922,3505.384765999999,114.87158199999976
38,447.05126999999993,1108.4614259999998,123.46142599999985,162.56396500000028,21.794922000000042,55.12841800000024,51.9228520000006,65.89746099999957,52.30761700000039,116.15380900000036,219.61523400000078,197.43603499999972,3507.1796879999993,113.0771479999994
39,435.89746099999957,1131.794922,120.64111300000059,163.58984400000008,24.48730499999965,58.846190999999635,54.102539000000434,66.6665039999998,55.38476599999922,117.69238299999961,209.87158199999976,197.43603499999972,3508.4614260000008,111.79492200000004
40,431.79492200000004,1161.2822270000006,118.9741210000002,166.53857400000015,31.410155999999915,60.51269500000035,55.12841800000024,68.46142599999985,58.46142599999985,120.89746099999957,195.89746099999957,196.2822270000006,3503.8461909999996,114.10253900000043
41,436.2822270000006,1197.3076170000004,119.48730499999965,168.20507799999996,37.94873000000007,59.102539000000434,53.974121000000196,70.0,59.74365200000011,123.58984400000008,188.7177729999994,195.6411130000006,3498.3334959999993,116.2822270000006
42,444.3588869999994,1234.2309569999998,122.05126999999993,167.3076170000004,41.153809000000365,56.53857400000015,52.43603499999972,70.38476599999922,58.974121000000196,124.87158199999976,196.15380900000036,197.17968800000017,3499.1025390000004,114.10253900000043
43,451.2822270000006,1262.94873,126.53857400000015,166.41015599999992,40.64111300000059,54.48730499999965,52.05126999999993,69.10253900000043,57.05126999999993,124.74365200000011,215.12841800000024,201.41015599999992,3504.615234000001,111.15380900000036
44,457.17968800000017,1277.3076170000004,131.6665039999998,167.94873000000007,37.82031300000017,53.974121000000196,52.82031300000017,66.9228520000006,55.25634799999989,124.35888699999941,234.23095699999976,207.05126999999993,3507.1796879999993,112.56396500000028
45,465.2563479999999,1278.9741210000002,135.6411130000006,171.6665039999998,35.76904300000024,55.76904300000024,54.74365200000011,66.15380900000036,55.12841800000024,124.87158199999976,243.20507799999996,211.53857400000015,3503.3334959999993,115.64111300000059
46,475.76904300000024,1276.2822270000006,137.94873000000007,174.87158199999976,36.9228520000006,60.64111300000059,57.82031300000017,68.84619099999964,57.17968800000017,127.82031300000017,240.89746099999957,213.7177729999994,3498.9741209999993,114.48730499999965
47,481.4101559999999,1278.4614259999998,138.7177729999994,174.48730499999965,41.025878999999804,66.79492200000004,61.153809000000365,74.48730499999965,60.38476599999922,132.43603499999972,232.82031300000017,213.20507799999996,3500.769043000001,110.38476599999922
48,473.46142599999985,1288.589844,137.94873000000007,170.2563479999999,43.7177729999994,69.87158199999976,62.43603499999972,78.7177729999994,61.9228520000006,134.87158199999976,225.89746099999957,209.7436520000001,3507.4360349999997,109.23095699999976
49,453.5898440000001,1301.9228520000006,135.76904300000024,164.7436520000001,41.53857400000015,66.9228520000006,60.12841800000024,78.20507799999996,59.74365200000011,133.20507799999996,224.23095699999976,204.87158199999976,3510.0,111.79492200000004
50,436.0258789999998,1310.8974609999996,133.58984400000008,161.15380900000036,36.666503999999804,60.64111300000059,56.153809000000365,73.84619099999964,55.64111300000059,130.6411130000006,229.23095699999976,201.53857400000015,3502.94873,112.69238299999961
51,432.5639650000003,1310.1284180000002,133.84619099999964,161.2822270000006,35.51269500000035,57.43603499999972,54.61523400000078,70.64111300000059,53.974121000000196,133.7177729999994,238.7177729999994,202.56396500000028,3490.769043000001,110.89746099999957
52,439.6152340000008,1298.7177729999994,136.6665039999998,163.0771479999994,41.410155999999915,60.897460999999566,57.69238299999961,71.9228520000006,57.30761700000039,143.7177729999994,246.79492200000004,206.0258789999998,3480.384765999999,111.0258789999998
53,442.94873000000007,1281.0258789999998,139.10253900000043,163.46142599999985,50.25634799999989,67.69238299999961,63.0771479999994,76.2822270000006,63.846190999999635,154.3588869999994,246.9228520000006,206.53857400000015,3470.5126950000003,114.10253900000043
54,436.9228520000006,1264.743652,137.82031300000017,160.2563479999999,54.35888699999941,70.89746099999957,66.41015599999992,79.87158199999976,68.58984400000008,156.15380900000036,237.17968800000017,201.79492200000004,3454.871581999999,114.61523400000078
55,429.3588869999994,1255.6411130000006,133.0771479999994,155.0,48.846190999999635,66.15380900000036,64.61523400000078,78.9741210000002,67.56396500000028,146.0258789999998,222.56396500000028,195.0,3433.3334959999993,111.15380900000036
56,430.89746099999957,1252.3076170000004,128.0771479999994,150.51269500000035,35.897460999999566,54.87158199999976,58.333496000000196,73.46142599999985,60.76904300000024,129.3588869999994,211.53857400000015,191.6665039999998,3412.6923829999996,108.9741210000002
57,441.6665039999998,1248.8461909999996,125.51269500000035,149.23095699999976,23.077147999999397,44.35888699999941,50.76904300000024,65.76904300000024,52.43603499999972,115.38476599999922,208.9741210000002,192.94873000000007,3396.6665040000007,110.89746099999957
58,450.51269500000035,1240.7690430000002,126.2822270000006,150.89746099999957,19.358886999999413,42.56396500000028,46.410155999999915,60.25634799999989,47.69238299999961,110.89746099999957,213.84619099999964,195.38476599999922,3381.1538090000004,112.17968800000017
59,444.48730499999965,1228.3334960000002,129.7436520000001,153.46142599999985,28.461425999999847,52.30761700000039,47.94873000000007,60.0,49.35888699999941,115.25634799999989,220.76904300000024,194.48730499999965,3362.5639650000003,109.35888699999941
60,418.5898440000001,1213.8461909999996,133.7177729999994,153.9741210000002,44.48730499999965,67.56396500000028,54.102539000000434,64.48730499999965,55.0,122.69238299999961,223.9741210000002,188.0771479999994,3340.8974609999996,106.79492200000004
61,380.0,1197.8203130000002,134.23095699999976,150.38476599999922,55.0,76.53857400000015,59.102539000000434,69.61523400000078,59.35888699999941,125.89746099999957,219.23095699999976,176.79492200000004,3312.94873,109.74365200000011
62,345.51269500000035,1181.1538090000004,128.84619099999964,143.58984400000008,51.53857400000015,71.79492200000004,57.30761700000039,70.25634799999989,58.589844000000085,122.56396500000028,207.3076170000004,163.46142599999985,3273.3334959999993,114.48730499999965
63,331.79492200000004,1166.794922,120.38476599999922,137.3076170000004,37.56396500000028,56.9228520000006,48.846190999999635,65.76904300000024,53.974121000000196,116.2822270000006,193.84619099999964,153.46142599999985,3225.8974609999996,114.74365200000011
64,343.46142599999985,1157.3076170000004,115.38476599999922,135.38476599999922,26.282227000000603,44.102539000000434,40.76904300000024,60.64111300000059,50.51269500000035,112.43603499999972,187.43603499999972,152.43603499999972,3185.769043000001,111.6665039999998
65,369.10253900000043,1151.9228520000006,119.35888699999941,138.84619099999964,29.871581999999762,44.102539000000434,41.666503999999804,60.51269500000035,52.43603499999972,113.7177729999994,192.82031300000017,162.05126999999993,3161.9228519999997,111.2822270000006
66,389.23095699999976,1147.6923829999996,130.76904300000024,145.38476599999922,49.74365200000011,58.846190999999635,54.48730499999965,67.30761700000039,59.74365200000011,118.84619099999964,207.3076170000004,177.82031300000017,3143.0771480000003,113.58984400000008
67,390.76904300000024,1142.05127,143.84619099999964,150.76904300000024,75.89746099999957,80.89746099999957,74.23095699999976,77.94873000000007,69.35888699999941,127.17968800000017,224.10253900000043,192.6923829999996,3106.794922,113.7177729999994
68,374.87158199999976,1130.256348,151.41015599999992,151.53857400000015,92.43603499999972,98.0771479999994,90.12841800000024,86.53857400000015,76.53857400000015,136.79492200000004,236.41015599999992,199.7436520000001,3037.94873,111.2822270000006
69,350.6411130000006,1103.4614259999998,149.23095699999976,145.51269500000035,86.53857400000015,100.12841800000024,92.17968800000017,87.56396500000028,76.6665039999998,142.43603499999972,238.9741210000002,195.0,2935.0,111.0258789999998
70,325.51269500000035,1055.3847659999992,137.05126999999993,133.3334960000002,58.46142599999985,85.64111300000059,77.05126999999993,78.7177729999994,68.84619099999964,138.0771479999994,227.56396500000028,178.20507799999996,2802.8203129999993,113.46142599999985
71,301.9228520000006,990.8974609999996,120.64111300000059,119.87158199999976,24.615234000000783,64.48730499999965,53.0771479999994,64.74365200000011,57.05126999999993,122.69238299999961,202.56396500000028,156.0258789999998,2649.230956999999,113.84619099999964
72,280.76904300000024,924.8715819999998,110.12841800000024,112.56396500000028,7.692382999999609,51.666503999999804,36.153809000000365,55.12841800000024,49.48730499999965,104.61523400000078,172.43603499999972,140.76904300000024,2484.743652,110.89746099999957
73,265.76904300000024,871.2822270000006,113.7177729999994,115.12841800000024,20.641113000000587,56.2822270000006,38.974121000000196,57.69238299999961,52.43603499999972,95.64111300000059,151.9228520000006,143.20507799999996,2318.589844,110.12841800000024
74,260.12841800000024,831.2822270000006,130.51269500000035,124.35888699999941,55.76904300000024,76.0258789999998,61.025878999999804,71.79492200000004,65.64111300000059,102.69238299999961,153.58984400000008,163.7177729999994,2154.615234000001,113.7177729999994
75,261.6665039999998,793.5898440000001,149.7436520000001,132.17968800000017,90.89746099999957,99.23095699999976,88.0771479999994,88.84619099999964,82.69238299999961,122.17968800000017,177.94873000000007,189.7436520000001,1991.794922,115.89746099999957
76,261.2822270000006,743.5898440000001,159.48730499999965,131.53857400000015,104.48730499999965,113.0771479999994,102.30761700000039,97.56396500000028,94.61523400000078,142.05126999999993,211.0258789999998,204.23095699999976,1828.205078,112.82031300000017
77,249.3588869999994,674.8715819999998,154.48730499999965,121.9228520000006,90.38476599999922,110.89746099999957,94.61523400000078,92.69238299999961,96.15380900000036,149.10253900000043,231.53857400000015,198.20507799999996,1663.4614259999998,108.84619099999964
78,225.2563479999999,594.6152340000008,139.23095699999976,108.58984400000008,59.74365200000011,95.51269500000035,70.76904300000024,77.82031300000017,89.23095699999976,137.94873000000007,225.6411130000006,176.9228520000006,1497.94873,108.84619099999964
79,199.10253900000043,519.8715819999998,123.9741210000002,99.35888699999941,33.974121000000196,77.43603499999972,46.666503999999804,63.333496000000196,81.15380900000036,115.51269500000035,195.51269500000035,155.89746099999957,1333.3334960000002,110.12841800000024
80,184.48730499999965,465.89746099999957,117.82031300000017,98.20507799999996,28.846190999999635,67.56396500000028,37.17968800000017,59.23095699999976,80.25634799999989,95.0,158.0771479999994,148.20507799999996,1172.94873,108.7177729999994
81,187.17968800000017,435.51269500000035,122.43603499999972,102.43603499999972,44.48730499999965,69.87158199999976,45.0,66.79492200000004,88.20507799999996,85.12841800000024,132.17968800000017,155.0,1018.3334960000002,107.17968800000017
82,201.15380900000036,418.3334960000002,131.41015599999992,105.0,67.69238299999961,80.38476599999922,61.79492200000004,78.46142599999985,99.48730499999965,83.20507799999996,125.76904300000024,165.12841800000024,868.5898440000001,110.64111300000059
83,215.76904300000024,400.89746099999957,135.89746099999957,101.15380900000036,85.25634799999989,92.94873000000007,76.2822270000006,84.74365200000011,106.9228520000006,81.41015599999992,132.6923829999996,166.2822270000006,724.3588869999994,116.2822270000006
84,224.61523400000078,376.9228520000006,132.94873000000007,92.82031300000017,93.20507799999996,103.46142599999985,82.69238299999961,82.30761700000039,107.82031300000017,75.76904300000024,139.23095699999976,155.12841800000024,590.0,117.43603499999972
85,228.20507799999996,349.48730499999965,126.53857400000015,86.15380900000036,95.76904300000024,109.61523400000078,82.43603499999972,75.25634799999989,105.64111300000059,69.74365200000011,134.7436520000001,138.9741210000002,470.76904300000024,113.9741210000002
86,230.38476599999922,325.12841800000024,122.56396500000028,85.89746099999957,97.69238299999961,110.12841800000024,79.87158199999976,70.25634799999989,105.38476599999922,68.46142599999985,118.84619099999964,127.94873000000007,368.7177729999994,111.41015599999992
87,235.51269500000035,309.3588869999994,123.20507799999996,90.64111300000059,99.74365200000011,105.51269500000035,78.58984400000008,71.41015599999992,109.48730499999965,73.84619099999964,100.38476599999922,126.53857400000015,281.53857400000015,111.41015599999992
88,245.38476599999922,302.17968800000017,126.2822270000006,95.12841800000024,100.25634799999989,98.3334960000002,79.10253900000043,77.82031300000017,116.2822270000006,82.17968800000017,90.38476599999922,131.79492200000004,205.12841800000024,110.25634799999989
89,258.9741210000002,298.84619099999964,128.9741210000002,94.87158199999976,99.87158199999976,92.94873000000007,81.6665039999998,85.89746099999957,122.82031300000017,88.7177729999994,93.9741210000002,137.6923829999996,136.41015599999992,107.94873000000007
90,273.46142599999985,294.3588869999994,130.89746099999957,91.15380900000036,102.56396500000028,93.84619099999964,86.53857400000015,92.82031300000017,127.30761700000039,91.6665039999998,107.56396500000028,141.0258789999998,75.38476599999922,108.84619099999964
91,287.3076170000004,287.3076170000004,133.20507799999996,89.10253900000043,113.84619099999964,102.94873000000007,95.64111300000059,98.58984400000008,130.6411130000006,93.3334960000002,123.46142599999985,142.82031300000017,24.74365200000011,112.82031300000017
92,299.48730499999965,279.3588869999994,137.17968800000017,92.30761700000039,133.9741210000002,117.69238299999961,108.20507799999996,104.48730499999965,134.10253900000043,96.2822270000006,135.89746099999957,145.89746099999957,-14.102538999999979,113.7177729999994
93,305.89746099999957,271.4101559999999,141.6665039999998,98.3334960000002,153.9741210000002,130.2563479999999,119.35888699999941,109.74365200000011,137.56396500000028,99.74365200000011,141.6665039999998,149.7436520000001,-46.41015600000037,109.48730499999965
94,300.12841800000024,260.51269500000035,143.20507799999996,100.12841800000024,161.79492200000004,132.43603499999972,122.43603499999972,111.0258789999998,138.7177729999994,100.0,138.9741210000002,149.7436520000001,-83.84619099999964,106.53857400000015
95,279.23095699999976,243.46142599999985,139.10253900000043,93.58984400000008,153.0771479999994,121.53857400000015,114.87158199999976,106.15380900000036,135.6411130000006,95.38476599999922,127.94873000000007,141.6665039999998,-135.38452099999995,109.61523400000078
96,248.7177729999994,221.2822270000006,130.12841800000024,81.79492200000004,135.51269500000035,103.84619099999964,101.6665039999998,97.30761700000039,129.7436520000001,87.56396500000028,113.58984400000008,127.05126999999993,-198.97436500000003,114.23095699999976
97,221.0258789999998,198.84619099999964,121.2822270000006,72.17968800000017,122.56396500000028,90.12841800000024,91.6665039999998,89.74365200000011,125.25634799999989,80.25634799999989,104.48730499999965,113.46142599999985,-263.20507799999996,114.23095699999976
98,205.2563479999999,180.89746099999957,117.94873000000007,70.38476599999922,122.30761700000039,87.17968800000017,90.0,87.82031300000017,125.64111300000059,75.51269500000035,107.05126999999993,107.69238299999961,-318.33325200000036,111.9228520000006
99,201.53857400000015,167.82031300000017,120.76904300000024,75.51269500000035,132.3076170000004,93.58984400000008,94.61523400000078,91.0258789999998,130.38476599999922,73.3334960000002,118.9741210000002,110.38476599999922,-364.2307130000004,112.30761700000039
100,201.79492200000004,157.56396500000028,125.51269500000035,81.6665039999998,143.20507799999996,102.82031300000017,99.23095699999976,94.61523400000078,135.76904300000024,72.94873000000007,130.6411130000006,115.76904300000024,-408.33325200000036,113.9741210000002
101,197.43603499999972,147.6923829999996,127.82031300000017,83.46142599999985,147.6923829999996,108.46142599999985,99.74365200000011,94.61523400000078,138.7177729999994,74.35888699999941,133.9741210000002,116.79492200000004,-456.41015600000037,112.69238299999961
102,186.15380900000036,137.05126999999993,126.9228520000006,80.51269500000035,145.2563479999999,108.3334960000002,97.05126999999993,91.2822270000006,138.46142599999985,77.69238299999961,127.56396500000028,111.9228520000006,-506.66674799999964,110.12841800000024
103,171.79492200000004,126.2822270000006,125.25634799999989,76.2822270000006,141.0258789999998,104.10253900000043,94.87158199999976,88.0771479999994,136.6665039999998,82.69238299999961,116.53857400000015,104.48730499999965,-552.179443,111.15380900000036
104,161.0258789999998,116.15380900000036,124.87158199999976,74.48730499999965,141.15380900000036,100.12841800000024,95.64111300000059,88.7177729999994,135.6411130000006,88.20507799999996,106.6665039999998,99.74365200000011,-587.9487299999996,114.48730499999965
105,156.79492200000004,107.05126999999993,125.38476599999922,75.25634799999989,146.9228520000006,100.76904300000024,99.10253900000043,93.3334960000002,136.9228520000006,92.05126999999993,101.15380900000036,99.74365200000011,-615.897461,114.10253900000043
106,154.7436520000001,97.69238299999961,125.12841800000024,76.0258789999998,154.10253900000043,106.9228520000006,102.56396500000028,98.7177729999994,139.3588869999994,91.9228520000006,99.23095699999976,102.30761700000039,-644.2307130000004,109.74365200000011
107,147.82031300000017,85.64111300000059,123.3334960000002,74.23095699999976,156.2822270000006,114.61523400000078,103.7177729999994,101.2822270000006,140.89746099999957,87.05126999999993,98.20507799999996,102.82031300000017,-679.7436520000001,108.3334960000002
108,133.3334960000002,70.38476599999922,120.38476599999922,69.87158199999976,152.43603499999972,119.10253900000043,103.20507799999996,100.51269500000035,140.51269500000035,80.51269500000035,97.82031300000017,99.23095699999976,-722.4357909999994,111.6665039999998
109,115.89746099999957,55.64111300000059,117.82031300000017,65.89746099999957,147.6923829999996,119.74365200000011,104.48730499999965,98.9741210000002,139.3588869999994,77.43603499999972,100.89746099999957,93.84619099999964,-764.3588870000003,114.48730499999965
110,102.69238299999961,45.51269500000035,117.30761700000039,65.76904300000024,148.3334960000002,119.61523400000078,109.87158199999976,100.0,138.84619099999964,80.76904300000024,109.48730499999965,90.89746099999957,-798.5898440000001,113.20507799999996
111,96.0258789999998,40.0,118.7177729999994,70.51269500000035,153.84619099999964,121.2822270000006,116.79492200000004,103.7177729999994,139.3588869999994,87.17968800000017,121.15380900000036,91.41015599999992,-825.5129390000002,111.79492200000004
112,92.17968800000017,35.38476599999922,120.0,77.69238299999961,158.58984400000008,124.10253900000043,120.76904300000024,106.9228520000006,139.3588869999994,91.2822270000006,128.7177729999994,92.30761700000039,-851.5385739999997,113.20507799999996
113,87.43603499999972,29.358886999999413,119.10253900000043,83.58984400000008,158.58984400000008,126.79492200000004,120.51269500000035,107.43603499999972,138.58984400000008,91.15380900000036,126.9228520000006,90.38476599999922,-880.897461,113.84619099999964
114,81.6665039999998,22.82031300000017,116.9228520000006,86.41015599999992,156.0258789999998,128.9741210000002,119.87158199999976,105.76904300000024,138.3334960000002,90.0,117.82031300000017,86.53857400000015,-911.5385739999997,110.76904300000024
115,75.89746099999957,16.794922000000042,116.15380900000036,86.0258789999998,155.12841800000024,130.0,122.43603499999972,105.12841800000024,139.48730499999965,90.76904300000024,108.84619099999964,84.10253900000043,-938.718018,108.0771479999994
116,69.48730499999965,10.384765999999217,117.05126999999993,82.30761700000039,156.9228520000006,128.58984400000008,127.56396500000028,106.41015599999992,141.41015599999992,92.30761700000039,105.76904300000024,84.74365200000011,-960.897461,110.25634799999989
117,61.2822270000006,1.153809000000365,117.17968800000017,76.2822270000006,158.9741210000002,124.61523400000078,130.76904300000024,107.43603499999972,142.43603499999972,91.0258789999998,109.23095699999976,85.76904300000024,-980.897461,113.46142599999985
118,51.79492200000004,-10.769286999999622,114.74365200000011,70.38476599999922,157.94873000000007,120.0,128.9741210000002,106.2822270000006,141.2822270000006,86.0258789999998,115.51269500000035,84.35888699999941,-1001.5385739999997,112.05126999999993
119,42.56396500000028,-23.71801800000003,110.89746099999957,67.94873000000007,152.82031300000017,117.43603499999972,122.69238299999961,103.0771479999994,138.3334960000002,80.64111300000059,119.61523400000078,80.51269500000035,-1022.5642090000001,108.20507799999996
120,34.87158199999976,-36.025634999999966,108.46142599999985,70.51269500000035,145.76904300000024,117.17968800000017,116.0258789999998,99.23095699999976,135.0,78.20507799999996,118.9741210000002,76.41015599999992,-1042.3076170000004,108.3334960000002
121,29.358886999999413,-45.1281740000004,108.84619099999964,75.76904300000024,141.15380900000036,117.94873000000007,112.56396500000028,96.79492200000004,132.82031300000017,79.61523400000078,115.51269500000035,74.87158199999976,-1057.820557,112.17968800000017
122,27.17968800000017,-49.10253899999998,112.05126999999993,80.51269500000035,144.10253900000043,119.23095699999976,114.10253900000043,96.79492200000004,133.0771479999994,83.9741210000002,113.20507799999996,76.9228520000006,-1067.94873,113.7177729999994
123,27.82031300000017,-47.948729999999614,116.2822270000006,82.30761700000039,154.23095699999976,121.15380900000036,118.3334960000002,99.23095699999976,135.6411130000006,89.61523400000078,114.87158199999976,81.53857400000015,-1074.743652,112.30761700000039
124,27.43603499999972,-46.153809000000365,118.9741210000002,81.2822270000006,164.87158199999976,123.3334960000002,121.0258789999998,102.56396500000028,138.3334960000002,94.35888699999941,118.20507799999996,85.12841800000024,-1082.6923829999996,112.56396500000028
125,22.30761700000039,-48.58984399999963,117.82031300000017,78.58984400000008,168.0771479999994,124.61523400000078,118.9741210000002,104.74365200000011,139.23095699999976,97.05126999999993,119.61523400000078,84.61523400000078,-1095.0,115.38476599999922
126,13.077147999999397,-56.153809000000365,113.0771479999994,75.89746099999957,162.6923829999996,124.61523400000078,113.58984400000008,105.25634799999989,138.20507799999996,98.9741210000002,117.82031300000017,80.25634799999989,-1109.871826,115.76904300000024
127,3.846190999999635,-65.38452099999995,108.20507799999996,74.74365200000011,154.87158199999976,123.9741210000002,109.61523400000078,105.38476599999922,137.05126999999993,102.05126999999993,115.12841800000024,75.64111300000059,-1122.94873,112.17968800000017
128,-2.5639650000002803,-73.20507799999996,106.2822270000006,75.38476599999922,150.89746099999957,123.46142599999985,110.12841800000024,105.64111300000059,136.79492200000004,105.12841800000024,113.3334960000002,73.20507799999996,-1132.5642090000001,109.87158199999976
129,-7.179442999999992,-79.61547900000005,106.6665039999998,77.17968800000017,151.41015599999992,123.3334960000002,113.9741210000002,104.87158199999976,136.53857400000015,104.23095699999976,111.2822270000006,72.05126999999993,-1140.6411129999997,111.6665039999998
130,-11.28198199999997,-85.0,106.6665039999998,79.74365200000011,153.7177729999994,124.10253900000043,118.84619099999964,102.69238299999961,135.51269500000035,98.0771479999994,108.3334960000002,69.87158199999976,-1148.718018,113.3334960000002
131,-13.846190999999635,-88.46142599999985,106.0258789999998,83.7177729999994,156.0258789999998,127.56396500000028,123.9741210000002,101.79492200000004,134.7436520000001,90.51269500000035,105.64111300000059,67.05126999999993,-1155.384521,111.53857400000015
132,-13.71801800000003,-89.23071300000038,106.41015599999992,88.9741210000002,158.46142599999985,133.20507799999996,130.2563479999999,104.74365200000011,135.76904300000024,86.9228520000006,105.64111300000059,66.6665039999998,-1158.076904,109.87158199999976
133,-12.179442999999992,-88.71801800000003,108.3334960000002,93.46142599999985,161.2822270000006,138.20507799999996,137.17968800000017,111.2822270000006,138.7177729999994,88.84619099999964,109.35888699999941,69.87158199999976,-1158.076904,112.17968800000017
134,-12.564209000000574,-89.10253899999998,110.0,93.9741210000002,163.7177729999994,139.7436520000001,142.82031300000017,117.43603499999972,141.41015599999992,93.0771479999994,114.74365200000011,73.9741210000002,-1159.230713,114.48730499999965
135,-16.666747999999643,-91.79492200000004,108.9741210000002,90.0,165.0,137.6923829999996,144.7436520000001,119.35888699999941,141.6665039999998,95.38476599999922,118.7177729999994,75.0,-1164.3588870000003,112.17968800000017
136,-23.461425999999847,-97.17944299999999,105.51269500000035,84.10253900000043,164.48730499999965,134.48730499999965,142.82031300000017,116.0258789999998,139.10253900000043,93.58984400000008,117.43603499999972,71.41015599999992,-1173.205078,108.84619099999964
137,-30.89746100000002,-104.74365200000011,101.79492200000004,80.25634799999989,161.79492200000004,132.56396500000028,138.7177729999994,109.48730499999965,134.7436520000001,88.20507799999996,109.48730499999965,64.74365200000011,-1182.6923829999996,110.38476599999922
138,-36.53857400000015,-113.71801800000003,99.61523400000078,80.64111300000059,158.20507799999996,132.56396500000028,134.7436520000001,103.84619099999964,131.0258789999998,81.9228520000006,97.43603499999972,58.974121000000196,-1189.102539,115.25634799999989
139,-38.46142599999985,-121.66674799999964,100.12841800000024,84.35888699999941,156.15380900000036,133.7177729999994,133.46142599999985,102.05126999999993,130.38476599999922,78.20507799999996,86.79492200000004,57.30761700000039,-1190.256348,116.41015599999992
140,-37.69238299999961,-127.05127000000039,102.43603499999972,88.46142599999985,155.6411130000006,133.46142599999985,135.0,104.61523400000078,132.82031300000017,77.82031300000017,81.41015599999992,59.74365200000011,-1187.94873,113.0771479999994
141,-38.07690400000001,-131.53857400000015,103.9741210000002,89.35888699999941,153.58984400000008,129.61523400000078,136.79492200000004,108.46142599999985,135.51269500000035,78.7177729999994,80.38476599999922,62.56396500000028,-1187.5642090000001,110.76904300000024
142,-43.71801800000003,-138.20507799999996,101.41015599999992,85.51269500000035,146.79492200000004,122.43603499999972,135.51269500000035,109.23095699999976,135.12841800000024,78.20507799999996,79.61523400000078,60.76904300000024,-1193.333252,111.53857400000015
143,-54.74365200000011,-148.33325200000036,94.10253900000043,78.84619099999964,136.41015599999992,115.76904300000024,130.89746099999957,105.12841800000024,130.76904300000024,75.89746099999957,75.64111300000059,52.94873000000007,-1204.102539,111.53857400000015
144,-66.41015600000037,-159.10253899999998,86.0258789999998,74.35888699999941,128.46142599999985,114.23095699999976,126.2822270000006,98.58984400000008,125.25634799999989,73.84619099999964,69.87158199999976,43.20507799999996,-1213.589844,109.74365200000011
145,-72.82055700000001,-165.5129390000002,82.82031300000017,76.0258789999998,128.7177729999994,119.10253900000043,125.38476599999922,94.35888699999941,122.43603499999972,73.58984400000008,67.05126999999993,38.589844000000085,-1215.769287,110.12841800000024
146,-70.76928699999962,-164.35888699999987,87.56396500000028,84.10253900000043,138.0771479999994,127.82031300000017,129.7436520000001,95.25634799999989,124.48730499999965,75.89746099999957,72.56396500000028,43.20507799999996,-1209.102539,113.3334960000002
147,-61.153809000000365,-155.89746100000002,97.43603499999972,93.9741210000002,151.9228520000006,136.53857400000015,137.94873000000007,100.51269500000035,130.0,81.0258789999998,87.05126999999993,55.25634799999989,-1196.025635,113.84619099999964
148,-49.48706099999981,-144.61547900000005,106.53857400000015,100.12841800000024,162.82031300000017,142.3076170000004,145.76904300000024,107.05126999999993,135.6411130000006,87.82031300000017,104.35888699999941,68.3334960000002,-1182.179443,109.74365200000011
149,-42.69238299999961,-137.6923829999996,110.12841800000024,98.9741210000002,164.7436520000001,143.0771479999994,148.3334960000002,111.2822270000006,138.20507799999996,93.0771479999994,114.23095699999976,75.64111300000059,-1173.333252,107.05126999999993
150,-44.74365200000011,-139.4870609999998,106.6665039999998,91.6665039999998,156.6665039999998,138.7177729999994,143.46142599999985,110.89746099999957,136.41015599999992,92.69238299999961,110.25634799999989,74.10253900000043,-1172.4357909999999,110.12841800000024
151,-52.564209000000574,-148.97436500000003,98.9741210000002,83.3334960000002,143.7177729999994,132.43603499999972,134.3588869999994,106.79492200000004,131.79492200000004,86.41015599999992,95.0,66.2822270000006,-1176.794922,114.48730499999965
152,-59.10253899999998,-159.35888699999987,93.0771479999994,80.38476599999922,134.87158199999976,129.10253900000043,127.56396500000028,102.43603499999972,127.82031300000017,78.3334960000002,79.10253900000043,59.23095699999976,-1180.0,114.10253900000043
153,-58.974365000000034,-164.61547900000005,93.46142599999985,85.12841800000024,136.0258789999998,131.6665039999998,128.46142599999985,101.2822270000006,127.43603499999972,74.61523400000078,71.9228520000006,58.589844000000085,-1177.179443,111.15380900000036
154,-52.435790999999426,-163.33325200000036,100.25634799999989,93.84619099999964,146.15380900000036,138.0771479999994,136.9228520000006,104.87158199999976,130.6411130000006,78.9741210000002,76.2822270000006,65.38476599999922,-1168.076904,111.0258789999998
155,-44.23071300000038,-158.20507799999996,108.3334960000002,99.87158199999976,158.46142599999985,144.23095699999976,148.20507799999996,111.41015599999992,135.6411130000006,89.74365200000011,87.69238299999961,75.38476599999922,-1156.025635,112.69238299999961
156,-39.35888699999987,-153.71801800000003,112.56396500000028,99.61523400000078,165.12841800000024,146.53857400000015,155.89746099999957,117.56396500000028,139.48730499999965,101.0258789999998,98.20507799999996,82.94873000000007,-1144.871826,111.79492200000004
157,-40.25634799999989,-153.20507799999996,110.76904300000024,94.23095699999976,162.94873000000007,143.84619099999964,155.0,119.35888699999941,139.48730499999965,106.6665039999998,101.53857400000015,83.84619099999964,-1138.076904,109.48730499999965
158,-46.79492200000004,-157.56420900000057,105.0,88.46142599999985,154.23095699999976,137.17968800000017,145.2563479999999,115.38476599999922,135.38476599999922,103.7177729999994,95.64111300000059,78.0771479999994,-1137.4357909999999,111.0258789999998
159,-55.64111300000013,-165.0,98.58984400000008,86.53857400000015,145.51269500000035,130.12841800000024,131.79492200000004,107.30761700000039,128.9741210000002,94.74365200000011,84.87158199999976,69.48730499999965,-1141.923096,115.25634799999989
160,-62.051270000000386,-171.923096,95.12841800000024,89.10253900000043,142.05126999999993,126.53857400000015,121.9228520000006,99.74365200000011,124.10253900000043,86.2822270000006,76.53857400000015,63.46142599999985,-1147.3076170000004,116.2822270000006
161,-62.948729999999614,-175.5129390000002,95.89746099999957,93.84619099999964,144.7436520000001,127.69238299999961,120.0,96.79492200000004,122.94873000000007,84.23095699999976,75.89746099999957,63.46142599999985,-1149.102539,112.43603499999972
162,-60.1281740000004,-176.02563499999997,99.35888699999941,97.05126999999993,149.61523400000078,131.15380900000036,124.35888699999941,99.10253900000043,124.74365200000011,88.46142599999985,81.53857400000015,68.58984400000008,-1146.410156,109.23095699999976
163,-57.30761700000039,-175.89746100000002,102.30761700000039,97.43603499999972,150.89746099999957,132.3076170000004,129.7436520000001,103.0771479999994,127.17968800000017,93.7177729999994,86.79492200000004,73.58984400000008,-1141.794922,109.10253900000043
164,-56.79492200000004,-176.53857400000015,102.17968800000017,96.53857400000015,146.6665039999998,129.87158199999976,132.05126999999993,105.12841800000024,128.58984400000008,95.0,86.9228520000006,74.87158199999976,-1137.4357909999999,108.58984400000008
165,-57.69238299999961,-177.3076170000004,99.87158199999976,96.53857400000015,139.7436520000001,125.64111300000059,130.6411130000006,103.7177729999994,128.46142599999985,91.79492200000004,82.82031300000017,73.0771479999994,-1133.4614260000003,105.89746099999957
166,-58.58984399999963,-177.3076170000004,98.0771479999994,97.56396500000028,135.0,122.82031300000017,127.94873000000007,100.76904300000024,127.56396500000028,88.46142599999985,79.48730499999965,71.53857400000015,-1128.589844,105.51269500000035
167,-59.48706099999981,-176.79492200000004,97.94873000000007,98.0771479999994,135.0,122.43603499999972,127.17968800000017,98.84619099999964,126.53857400000015,88.20507799999996,80.51269500000035,72.17968800000017,-1122.5642090000001,109.23095699999976
168,-60.89746100000002,-176.66674799999964,98.46142599999985,97.17968800000017,138.9741210000002,123.46142599999985,129.3588869999994,98.9741210000002,125.76904300000024,90.76904300000024,84.61523400000078,73.7177729999994,-1115.6411129999997,111.9228520000006
169,-63.20507799999996,-177.9487299999996,98.20507799999996,95.0,142.82031300000017,123.58984400000008,132.3076170000004,100.25634799999989,125.12841800000024,92.05126999999993,87.17968800000017,73.46142599999985,-1108.846191,110.0
170,-67.17944299999999,-181.923096,96.53857400000015,92.17968800000017,141.6665039999998,120.51269500000035,132.43603499999972,100.25634799999989,123.7177729999994,87.43603499999972,83.84619099999964,69.87158199999976,-1104.615479,107.56396500000028
171,-73.33325200000036,-189.10253899999998,93.58984400000008,89.87158199999976,134.61523400000078,114.35888699999941,127.69238299999961,97.56396500000028,121.0258789999998,76.6665039999998,74.10253900000043,63.20507799999996,-1104.743652,109.87158199999976
172,-79.8718259999996,-196.28198199999997,90.25634799999989,89.10253900000043,126.41015599999992,109.23095699999976,120.89746099999957,93.58984400000008,118.0771479999994,65.89746099999957,62.82031300000017,56.9228520000006,-1107.94873,113.7177729999994
173,-83.46142599999985,-198.71801800000003,88.46142599999985,91.0258789999998,123.7177729999994,110.0,117.82031300000017,92.05126999999993,117.43603499999972,63.7177729999994,57.69238299999961,55.51269500000035,-1109.3588870000003,113.3334960000002
174,-81.92309599999999,-194.61547900000005,90.0,94.87158199999976,128.84619099999964,117.56396500000028,122.05126999999993,95.25634799999989,120.38476599999922,73.0771479999994,62.69238299999961,60.25634799999989,-1104.230713,110.51269500000035
175,-77.43579099999943,-188.076904,93.9741210000002,98.0771479999994,137.17968800000017,127.43603499999972,131.15380900000036,101.15380900000036,125.0,87.82031300000017,73.46142599999985,67.69238299999961,-1093.205078,110.76904300000024
176,-74.10253899999998,-185.76928699999962,96.2822270000006,98.20507799999996,142.17968800000017,132.43603499999972,138.0771479999994,105.12841800000024,127.56396500000028,96.9228520000006,80.25634799999989,71.0258789999998,-1080.897461,113.58984400000008
177,-74.61547900000005,-189.8718259999996,94.74365200000011,95.51269500000035,141.41015599999992,129.7436520000001,136.9228520000006,104.10253900000043,126.15380900000036,93.9741210000002,77.43603499999972,67.30761700000039,-1072.179443,113.3334960000002
178,-78.33325200000036,-197.0512700000004,91.15380900000036,92.94873000000007,136.0258789999998,121.41015599999992,128.3334960000002,99.74365200000011,121.6665039999998,81.41015599999992,67.94873000000007,59.87158199999976,-1068.333252,109.87158199999976
179,-81.79492200000004,-201.66674799999964,89.23095699999976,92.82031300000017,130.2563479999999,113.20507799999996,118.84619099999964,95.89746099999957,117.17968800000017,68.58984400000008,61.153809000000365,55.897460999999566,-1067.4357909999999,108.58984400000008
180,-81.28198199999997,-199.35888699999987,91.41015599999992,95.64111300000059,128.58984400000008,111.0258789999998,116.15380900000036,96.2822270000006,115.76904300000024,65.76904300000024,65.12841800000024,60.0,-1064.3588870000003,110.76904300000024
181,-74.8718259999996,-189.35888699999987,97.05126999999993,100.12841800000024,133.9741210000002,117.30761700000039,123.46142599999985,101.6665039999998,119.35888699999941,77.17968800000017,79.35888699999941,70.64111300000059,-1054.871826,111.2822270000006
182,-65.76928699999962,-176.923096,102.94873000000007,104.23095699999976,144.23095699999976,128.84619099999964,136.15380900000036,108.9741210000002,126.41015599999992,97.30761700000039,94.87158199999976,81.79492200000004,-1039.102539,108.9741210000002
183,-61.025634999999966,-170.5129390000002,105.25634799999989,105.38476599999922,151.6665039999998,137.56396500000028,145.12841800000024,113.20507799999996,132.94873000000007,114.23095699999976,99.74365200000011,86.9228520000006,-1023.3332519999999,108.7177729999994
184,-66.15380900000036,-175.38452099999995,101.9228520000006,102.30761700000039,149.10253900000043,137.3076170000004,143.46142599999985,111.15380900000036,134.61523400000078,117.82031300000017,89.61523400000078,82.30761700000039,-1015.128174,112.05126999999993
185,-78.97436500000003,-188.84619099999964,93.9741210000002,96.53857400000015,137.17968800000017,128.3334960000002,132.05126999999993,103.9741210000002,130.0,107.56396500000028,70.51269500000035,70.76904300000024,-1016.794922,113.3334960000002
186,-91.66674799999964,-201.79492200000004,86.15380900000036,91.79492200000004,124.23095699999976,117.94873000000007,118.84619099999964,96.15380900000036,122.17968800000017,90.89746099999957,55.25634799999989,59.102539000000434,-1022.820557,109.35888699999941
187,-96.28198199999997,-205.76928699999962,83.0771479999994,91.2822270000006,118.84619099999964,113.46142599999985,112.56396500000028,92.43603499999972,115.89746099999957,77.05126999999993,52.43603499999972,53.589844000000085,-1024.871826,105.64111300000059
188,-90.38452099999995,-199.23071300000038,85.64111300000059,94.87158199999976,123.20507799999996,116.6665039999998,116.2822270000006,94.10253900000043,114.61523400000078,72.43603499999972,61.410155999999915,55.897460999999566,-1018.205078,107.69238299999961
189,-77.56420900000057,-186.66674799999964,90.38476599999922,99.10253900000043,133.20507799999996,123.84619099999964,126.53857400000015,99.61523400000078,118.20507799999996,78.3334960000002,74.48730499999965,63.333496000000196,-1003.8461910000001,111.41015599999992
190,-64.61547900000005,-175.1281740000004,93.58984400000008,101.79492200000004,142.82031300000017,130.51269500000035,136.53857400000015,106.53857400000015,124.23095699999976,91.2822270000006,82.94873000000007,71.53857400000015,-986.4101559999999,110.76904300000024
191,-57.435790999999426,-169.7436520000001,94.35888699999941,103.58984400000008,147.56396500000028,133.20507799999996,141.79492200000004,112.56396500000028,129.23095699999976,104.61523400000078,83.0771479999994,77.43603499999972,-972.179443,107.69238299999961
192,-58.46142599999985,-171.79492200000004,93.9741210000002,105.51269500000035,145.89746099999957,131.15380900000036,141.53857400000015,115.12841800000024,130.6411130000006,111.2822270000006,77.43603499999972,79.10253900000043,-965.0,107.94873000000007
193,-64.61547900000005,-177.3076170000004,93.20507799999996,107.30761700000039,139.87158199999976,127.56396500000028,138.3334960000002,114.10253900000043,128.58984400000008,108.9741210000002,72.56396500000028,76.79492200000004,-963.974365,111.41015599999992
194,-70.0,-180.76928699999962,92.43603499999972,107.56396500000028,134.3588869999994,126.6665039999998,135.89746099999957,111.0258789999998,125.12841800000024,102.05126999999993,74.35888699999941,73.20507799999996,-964.4870609999998,112.43603499999972
195,-70.89746100000002,-179.7436520000001,91.6665039999998,105.12841800000024,132.56396500000028,130.38476599999922,135.6411130000006,108.20507799999996,123.0771479999994,97.17968800000017,82.05126999999993,71.15380900000036,-962.4357909999999,110.64111300000059
196,-69.10253899999998,-177.0512700000004,90.12841800000024,100.38476599999922,134.10253900000043,135.38476599999922,136.0258789999998,106.79492200000004,123.20507799999996,97.30761700000039,88.9741210000002,71.15380900000036,-957.820557,110.51269500000035
197,-68.46142599999985,-177.179443,87.17968800000017,94.23095699999976,135.2563479999999,137.17968800000017,134.61523400000078,105.76904300000024,124.23095699999976,100.38476599999922,87.69238299999961,70.89746099999957,-953.205078,111.9228520000006
198,-70.25634799999989,-181.28198199999997,83.58984400000008,89.23095699999976,134.3588869999994,134.23095699999976,131.41015599999992,104.48730499999965,124.35888699999941,103.20507799999996,77.94873000000007,69.10253900000043,-948.4614260000003,110.51269500000035
199,-72.05127000000039,-185.89746100000002,82.30761700000039,88.3334960000002,132.17968800000017,129.23095699999976,128.84619099999964,103.46142599999985,123.20507799999996,103.3334960000002,66.53857400000015,67.17968800000017,-941.281982,105.89746099999957
200,-71.02563499999997,-187.179443,85.12841800000024,92.56396500000028,131.0258789999998,126.0258789999998,129.23095699999976,103.3334960000002,121.41015599999992,100.64111300000059,61.666503999999804,67.82031300000017,-930.384521,104.23095699999976
201,-67.30761700000039,-183.84619099999964,90.89746099999957,99.74365200000011,130.89746099999957,126.41015599999992,132.56396500000028,104.61523400000078,120.25634799999989,96.79492200000004,65.38476599999922,71.9228520000006,-917.6923829999996,107.56396500000028
202,-63.20507799999996,-177.6923829999996,95.89746099999957,105.64111300000059,131.41015599999992,130.0,137.43603499999972,107.05126999999993,120.76904300000024,95.38476599999922,74.61523400000078,78.0771479999994,-906.5385739999997,110.25634799999989
203,-60.1281740000004,-171.53857400000015,97.56396500000028,107.43603499999972,132.3076170000004,135.51269500000035,142.43603499999972,110.51269500000035,123.58984400000008,99.48730499999965,83.46142599999985,84.23095699999976,-898.205078,108.9741210000002
204,-58.71801800000003,-167.9487299999996,97.05126999999993,105.51269500000035,133.9741210000002,140.51269500000035,146.6665039999998,113.9741210000002,127.56396500000028,108.20507799999996,87.56396500000028,88.84619099999964,-892.3076170000004,107.43603499999972
205,-58.974365000000034,-167.820557,95.64111300000059,102.69238299999961,136.2822270000006,142.56396500000028,148.84619099999964,116.2822270000006,130.12841800000024,116.2822270000006,86.0258789999998,90.64111300000059,-888.205078,109.74365200000011
206,-60.0,-170.1281740000004,94.23095699999976,101.79492200000004,137.3076170000004,140.89746099999957,148.46142599999985,116.15380900000036,129.23095699999976,117.82031300000017,81.53857400000015,89.10253900000043,-885.0,111.79492200000004
207,-61.153809000000365,-172.3076170000004,92.82031300000017,103.46142599999985,135.38476599999922,136.41015599999992,146.0258789999998,113.9741210000002,125.51269500000035,111.79492200000004,77.94873000000007,85.64111300000059,-881.923096,108.84619099999964
208,-62.30761700000039,-173.076904,91.41015599999992,106.15380900000036,129.23095699999976,130.89746099999957,142.43603499999972,110.89746099999957,121.53857400000015,101.6665039999998,76.6665039999998,81.6665039999998,-878.3332519999999,104.74365200000011
209,-64.48706099999981,-173.58984399999963,89.74365200000011,106.6665039999998,119.23095699999976,125.12841800000024,137.82031300000017,108.0771479999994,118.9741210000002,91.9228520000006,75.89746099999957,78.20507799999996,-874.7436520000001,105.38476599999922
210,-67.94872999999961,-174.35888699999987,87.43603499999972,102.69238299999961,108.9741210000002,120.89746099999957,132.17968800000017,105.64111300000059,117.82031300000017,85.76904300000024,74.10253900000043,75.51269500000035,-870.897461,109.35888699999941
211,-70.89746100000002,-174.4870609999998,85.38476599999922,95.12841800000024,103.58984400000008,119.74365200000011,127.43603499999972,104.10253900000043,117.05126999999993,84.35888699999941,71.9228520000006,74.10253900000043,-866.794922,111.0258789999998
212,-72.30761700000039,-173.71801800000003,84.87158199999976,87.82031300000017,105.76904300000024,122.05126999999993,125.51269500000035,104.10253900000043,116.2822270000006,87.43603499999972,70.64111300000059,74.35888699999941,-863.205078,110.25634799999989
213,-73.58984399999963,-174.35888699999987,85.25634799999989,84.35888699999941,111.9228520000006,124.87158199999976,126.2822270000006,104.87158199999976,115.64111300000059,92.30761700000039,69.10253900000043,74.61523400000078,-861.923096,111.79492200000004
214,-76.79492200000004,-178.33325200000036,84.48730499999965,85.38476599999922,116.0258789999998,124.61523400000078,127.43603499999972,104.61523400000078,114.74365200000011,96.0258789999998,65.51269500000035,72.17968800000017,-863.076904,115.25634799999989
215,-80.89746100000002,-183.33325200000036,81.9228520000006,89.87158199999976,115.25634799999989,121.15380900000036,127.43603499999972,103.20507799999996,114.61523400000078,97.56396500000028,61.153809000000365,67.69238299999961,-862.3076170000004,115.12841800000024
216,-81.41015600000037,-184.23071300000038,80.25634799999989,95.76904300000024,112.43603499999972,117.82031300000017,126.9228520000006,102.82031300000017,116.15380900000036,99.10253900000043,61.666503999999804,65.12841800000024,-852.9487300000001,111.0258789999998
217,-75.38452099999995,-178.84619099999964,82.43603499999972,101.0258789999998,111.79492200000004,117.82031300000017,128.0771479999994,105.64111300000059,119.23095699999976,103.58984400000008,71.15380900000036,68.84619099999964,-832.820557,108.7177729999994
218,-64.35888699999987,-170.64111300000013,87.30761700000039,103.46142599999985,115.12841800000024,122.05126999999993,131.41015599999992,111.6665039999998,122.43603499999972,111.41015599999992,87.17968800000017,78.20507799999996,-806.794922,110.12841800000024
219,-53.846190999999635,-165.89746100000002,91.15380900000036,102.17968800000017,119.87158199999976,128.20507799999996,135.0,117.69238299999961,123.9741210000002,120.38476599999922,101.2822270000006,87.69238299999961,-783.8461910000001,110.89746099999957
220,-49.23071300000038,-167.9487299999996,91.41015599999992,98.46142599999985,122.17968800000017,132.43603499999972,136.15380900000036,120.25634799999989,124.10253900000043,127.17968800000017,104.74365200000011,91.9228520000006,-770.384521,108.58984400000008
221,-51.41015600000037,-175.2563479999999,89.10253900000043,95.38476599999922,119.87158199999976,132.3076170000004,133.58984400000008,118.46142599999985,123.84619099999964,129.87158199999976,96.0258789999998,89.74365200000011,-766.5385739999997,107.94873000000007
222,-56.92309599999999,-181.41015600000037,87.30761700000039,95.89746099999957,114.74365200000011,128.46142599999985,130.0,114.48730499999965,125.0,129.7436520000001,83.20507799999996,85.64111300000059,-766.4101559999999,111.79492200000004
223,-58.974365000000034,-179.7436520000001,88.46142599999985,100.51269500000035,111.79492200000004,124.74365200000011,129.10253900000043,112.82031300000017,128.58984400000008,129.7436520000001,78.0771479999994,84.87158199999976,-762.4357909999999,115.0
224,-54.10253899999998,-168.84619099999964,92.56396500000028,106.15380900000036,114.48730499999965,124.74365200000011,132.6923829999996,116.15380900000036,133.7177729999994,131.79492200000004,86.2822270000006,89.48730499999965,-751.794922,113.3334960000002
225,-45.51293900000019,-155.2563479999999,96.0258789999998,108.7177729999994,120.64111300000059,128.0771479999994,137.17968800000017,122.17968800000017,137.6923829999996,134.7436520000001,101.0258789999998,95.25634799999989,-739.2307130000004,110.25634799999989
226,-41.41015600000037,-149.10253899999998,95.0,105.64111300000059,124.10253900000043,130.38476599999922,137.43603499999972,124.74365200000011,137.05126999999993,134.87158199999976,108.0771479999994,95.64111300000059,-732.6923829999996,110.89746099999957
227,-46.41015600000037,-155.0,88.46142599999985,97.94873000000007,120.76904300000024,128.58984400000008,131.6665039999998,119.87158199999976,131.41015599999992,130.6411130000006,98.58984400000008,87.82031300000017,-735.6411130000001,113.20507799999996
228,-57.82055700000001,-167.9487299999996,80.64111300000059,90.51269500000035,113.20507799999996,123.58984400000008,123.58984400000008,110.25634799999989,124.23095699999976,124.48730499999965,77.56396500000028,76.41015599999992,-742.820557,112.56396500000028
229,-67.82055700000001,-178.33325200000036,77.43603499999972,88.3334960000002,107.17968800000017,118.9741210000002,119.23095699999976,102.94873000000007,120.0,120.25634799999989,60.0,70.12841800000024,-745.6411129999997,110.51269500000035
230,-71.02563499999997,-180.38452099999995,81.0258789999998,92.30761700000039,105.89746099999957,117.05126999999993,120.64111300000059,102.94873000000007,120.89746099999957,119.23095699999976,57.05126999999993,73.3334960000002,-740.384521,111.79492200000004
231,-67.82055700000001,-174.7436520000001,87.82031300000017,99.23095699999976,108.20507799999996,117.43603499999972,125.76904300000024,109.23095699999976,124.61523400000078,119.61523400000078,68.0771479999994,82.17968800000017,-730.0,114.61523400000078
232,-61.79492200000004,-166.66674799999964,91.9228520000006,104.48730499999965,110.89746099999957,118.84619099999964,129.7436520000001,116.15380900000036,127.30761700000039,118.84619099999964,81.79492200000004,88.46142599999985,-720.5129390000002,113.3334960000002
233,-57.435790999999426,-161.79492200000004,90.76904300000024,105.38476599999922,111.41015599999992,120.12841800000024,128.7177729999994,117.56396500000028,126.0258789999998,116.0258789999998,86.79492200000004,86.9228520000006,-716.025635,108.58984400000008
234,-57.948729999999614,-162.9487299999996,85.76904300000024,101.9228520000006,109.10253900000043,120.0,122.17968800000017,112.05126999999993,120.64111300000059,111.2822270000006,79.74365200000011,78.84619099999964,-717.179443,106.9228520000006
235,-63.07690400000001,-168.076904,80.89746099999957,96.41015599999992,106.0258789999998,118.0771479999994,114.48730499999965,103.3334960000002,114.10253900000043,107.05126999999993,67.17968800000017,70.38476599999922,-720.0,109.48730499999965
236,-68.20507799999996,-171.79492200000004,78.84619099999964,92.82031300000017,105.64111300000059,115.89746099999957,111.15380900000036,97.69238299999961,110.89746099999957,106.6665039999998,59.74365200000011,67.30761700000039,-718.076904,111.0258789999998
237,-68.46142599999985,-169.7436520000001,80.25634799999989,92.94873000000007,108.84619099999964,115.38476599999922,114.74365200000011,98.46142599999985,113.46142599999985,111.53857400000015,62.94873000000007,71.6665039999998,-708.076904,109.10253900000043
238,-64.23071300000038,-162.56420900000057,83.0771479999994,96.0258789999998,112.69238299999961,116.2822270000006,120.64111300000059,103.0771479999994,119.35888699999941,118.84619099999964,72.56396500000028,79.23095699999976,-693.5898439999996,108.58984400000008
239,-59.74365200000011,-155.76928699999962,83.84619099999964,99.35888699999941,112.82031300000017,116.2822270000006,121.6665039999998,105.64111300000059,123.3334960000002,123.46142599999985,79.35888699999941,83.58984400000008,-681.923096,111.2822270000006
240,-58.20507799999996,-153.46142599999985,81.41015599999992,101.41015599999992,109.23095699999976,113.9741210000002,115.0,102.43603499999972,122.30761700000039,122.94873000000007,79.35888699999941,81.9228520000006,-677.179443,112.30761700000039
241,-58.71801800000003,-155.1281740000004,78.20507799999996,102.56396500000028,105.38476599999922,111.0258789999998,105.12841800000024,95.89746099999957,118.0771479999994,120.51269500000035,76.9228520000006,77.69238299999961,-675.897461,108.7177729999994
242,-58.07690400000001,-157.6923829999996,78.0771479999994,103.20507799999996,104.48730499999965,110.0,99.87158199999976,91.6665039999998,115.25634799999989,120.64111300000059,78.58984400000008,76.6665039999998,-672.0512700000004,105.76904300000024
243,-56.153809000000365,-158.84619099999964,81.6665039999998,102.82031300000017,104.74365200000011,110.89746099999957,102.43603499999972,93.20507799999996,115.89746099999957,123.9741210000002,84.61523400000078,80.89746099999957,-662.9487299999996,108.3334960000002
244,-54.23071300000038,-157.56420900000057,85.76904300000024,101.41015599999992,103.3334960000002,112.30761700000039,109.87158199999976,98.7177729999994,118.9741210000002,127.30761700000039,88.58984400000008,87.05126999999993,-651.281982,112.05126999999993
245,-53.20507799999996,-153.97436500000003,87.56396500000028,100.12841800000024,100.51269500000035,113.3334960000002,117.05126999999993,103.9741210000002,121.53857400000015,127.05126999999993,85.76904300000024,90.38476599999922,-641.281982,111.2822270000006
246,-52.30761700000039,-149.10253899999998,87.05126999999993,101.0258789999998,99.48730499999965,113.7177729999994,120.89746099999957,106.15380900000036,122.05126999999993,123.0771479999994,77.82031300000017,89.74365200000011,-635.2563479999999,108.3334960000002
247,-50.51293900000019,-144.10253899999998,86.41015599999992,104.61523400000078,102.94873000000007,114.10253900000043,120.76904300000024,104.61523400000078,120.51269500000035,118.58984400000008,71.15380900000036,87.43603499999972,-631.6667479999996,110.0
248,-46.92309599999999,-139.35888699999987,87.82031300000017,109.23095699999976,110.38476599999922,115.0,118.84619099999964,101.9228520000006,118.7177729999994,117.05126999999993,71.53857400000015,87.69238299999961,-626.794922,115.0
249,-41.153809000000365,-133.71801800000003,91.2822270000006,112.56396500000028,119.23095699999976,117.43603499999972,117.69238299999961,100.89746099999957,118.20507799999996,120.64111300000059,79.61523400000078,92.69238299999961,-617.4357909999994,116.9228520000006
250,-34.74365200000011,-127.82055700000001,95.64111300000059,112.82031300000017,125.38476599999922,120.51269500000035,118.9741210000002,102.82031300000017,120.0,128.20507799999996,90.12841800000024,100.51269500000035,-604.4870609999998,114.61523400000078
251,-31.025634999999966,-124.35888699999987,97.94873000000007,109.35888699999941,124.87158199999976,121.2822270000006,121.41015599999992,106.0258789999998,122.43603499999972,135.2563479999999,95.38476599999922,105.89746099999957,-594.102539,112.94873000000007
252,-32.948729999999614,-126.15380900000036,95.51269500000035,103.0771479999994,116.79492200000004,117.69238299999961,121.79492200000004,107.56396500000028,122.82031300000017,136.9228520000006,91.53857400000015,104.10253900000043,-591.794922,113.46142599999985
253,-39.35888699999987,-131.923096,88.3334960000002,96.2822270000006,105.12841800000024,111.0258789999998,118.7177729999994,106.0258789999998,120.0,131.2822270000006,81.6665039999998,95.76904300000024,-597.0512700000004,112.43603499999972
254,-45.89746100000002,-137.6923829999996,80.64111300000059,92.56396500000028,96.41015599999992,105.25634799999989,113.7177729999994,102.69238299999961,115.64111300000059,121.41015599999992,72.43603499999972,86.15380900000036,-603.3332520000004,110.0
255,-48.974365000000034,-139.61547900000005,77.05126999999993,93.3334960000002,94.87158199999976,103.9741210000002,110.0,100.25634799999989,112.43603499999972,112.17968800000017,67.82031300000017,81.15380900000036,-603.718018,110.51269500000035
256,-48.71801800000003,-137.820557,78.58984400000008,97.43603499999972,100.0,107.94873000000007,109.87158199999976,100.38476599999922,111.79492200000004,107.05126999999993,67.17968800000017,81.9228520000006,-596.4101560000004,114.87158199999976
257,-47.17944299999999,-134.35888699999987,81.9228520000006,102.05126999999993,107.05126999999993,114.74365200000011,112.17968800000017,102.17968800000017,113.3334960000002,107.17968800000017,69.10253900000043,85.12841800000024,-585.1281740000004,116.6665039999998
258,-46.28198199999997,-131.66674799999964,83.7177729999994,105.0,111.79492200000004,120.0,115.0,104.10253900000043,115.25634799999989,110.51269500000035,73.58984400000008,87.17968800000017,-575.0,112.56396500000028
259,-46.66674799999964,-130.76928699999962,83.46142599999985,105.64111300000059,112.05126999999993,119.61523400000078,115.89746099999957,104.61523400000078,116.0258789999998,113.58984400000008,80.64111300000059,86.79492200000004,-569.3588869999999,108.20507799999996
260,-46.92309599999999,-130.38452099999995,82.94873000000007,104.74365200000011,108.7177729999994,113.3334960000002,115.0,103.46142599999985,115.25634799999989,113.58984400000008,87.30761700000039,85.89746099999957,-567.179443,108.9741210000002
261,-44.23071300000038,-127.43579099999943,83.9741210000002,103.0771479999994,105.51269500000035,106.53857400000015,114.10253900000043,102.17968800000017,114.10253900000043,110.89746099999957,89.35888699999941,86.6665039999998,-564.2307130000004,111.9228520000006
262,-37.564209000000574,-120.76928699999962,86.9228520000006,101.6665039999998,105.76904300000024,105.12841800000024,115.12841800000024,102.30761700000039,114.23095699999976,109.23095699999976,84.48730499999965,89.87158199999976,-557.5642090000006,111.2822270000006
263,-30.0,-112.69238299999961,90.0,100.89746099999957,109.35888699999941,110.0,117.94873000000007,104.35888699999941,116.0258789999998,111.53857400000015,75.38476599999922,94.23095699999976,-548.4614259999998,109.10253900000043
264,-26.153809000000365,-107.94872999999961,91.0258789999998,100.89746099999957,113.3334960000002,116.41015599999992,120.0,106.6665039999998,118.0771479999994,116.9228520000006,66.9228520000006,96.6665039999998,-541.1538090000004,109.87158199999976
265,-27.948729999999614,-107.82055700000001,88.9741210000002,101.2822270000006,115.38476599999922,120.0,119.48730499999965,107.17968800000017,118.7177729999994,122.69238299999961,63.846190999999635,95.51269500000035,-537.6923829999996,112.56396500000028
266,-31.923095999999987,-109.10253899999998,85.51269500000035,102.05126999999993,116.0258789999998,120.64111300000059,117.17968800000017,106.41015599999992,118.0771479999994,126.79492200000004,67.56396500000028,92.05126999999993,-535.5129390000002,112.56396500000028
267,-33.46142599999985,-107.17944299999999,83.84619099999964,103.7177729999994,116.6665039999998,120.0,115.25634799999989,105.89746099999957,117.30761700000039,128.58984400000008,76.0258789999998,89.61523400000078,-531.1538090000004,110.89746099999957
268,-31.153809000000365,-101.41015600000037,85.25634799999989,105.12841800000024,117.30761700000039,119.61523400000078,115.51269500000035,106.2822270000006,117.30761700000039,127.56396500000028,85.0,90.12841800000024,-523.974365,111.6665039999998
269,-27.051270000000386,-95.76928699999962,88.0771479999994,104.48730499999965,117.56396500000028,119.23095699999976,117.43603499999972,106.79492200000004,118.3334960000002,124.23095699999976,90.25634799999989,92.05126999999993,-515.7692869999996,114.10253900000043
270,-24.358886999999868,-95.0,89.10253900000043,101.53857400000015,117.17968800000017,119.10253900000043,119.48730499999965,106.41015599999992,119.87158199999976,120.64111300000059,89.74365200000011,92.17968800000017,-508.84619099999964,112.94873000000007
271,-25.641113000000132,-101.02563499999997,86.41015599999992,98.0771479999994,115.38476599999922,117.94873000000007,118.58984400000008,104.61523400000078,120.51269500000035,118.46142599999985,83.20507799999996,87.94873000000007,-504.4870609999998,108.58984400000008
272,-32.051270000000386,-112.43579099999943,80.51269500000035,96.0258789999998,110.38476599999922,113.84619099999964,112.82031300000017,101.15380900000036,118.20507799999996,116.53857400000015,73.46142599999985,79.74365200000011,-504.35888699999987,107.30761700000039
273,-41.92309599999999,-124.10253899999998,73.20507799999996,95.64111300000059,101.79492200000004,106.41015599999992,103.20507799999996,96.53857400000015,113.0771479999994,112.56396500000028,65.12841800000024,70.12841800000024,-508.33325200000036,111.0258789999998
274,-49.8718259999996,-129.7436520000001,67.94873000000007,95.89746099999957,92.82031300000017,98.46142599999985,94.61523400000078,92.56396500000028,107.94873000000007,106.0258789999998,63.20507799999996,63.846190999999635,-513.076904,113.58984400000008
275,-50.89746100000002,-126.15380900000036,67.56396500000028,96.79492200000004,87.94873000000007,94.74365200000011,91.79492200000004,91.79492200000004,105.89746099999957,99.61523400000078,68.58984400000008,64.48730499999965,-514.102539,111.41015599999992
276,-45.51293900000019,-116.15380900000036,71.9228520000006,97.82031300000017,88.0771479999994,96.41015599999992,95.25634799999989,94.48730499999965,107.69238299999961,95.51269500000035,77.43603499999972,71.41015599999992,-509.8718259999996,109.10253900000043
277,-38.20507799999996,-107.17944299999999,77.30761700000039,98.46142599999985,90.64111300000059,101.0258789999998,100.51269500000035,98.20507799999996,110.76904300000024,93.84619099999964,82.30761700000039,79.35888699999941,-502.820557,110.64111300000059
278,-33.58984399999963,-103.71801800000003,79.61523400000078,98.9741210000002,93.0771479999994,104.87158199999976,103.46142599999985,100.64111300000059,112.43603499999972,94.74365200000011,78.7177729999994,82.82031300000017,-495.2563479999999,112.82031300000017
279,-31.41015600000037,-103.97436500000003,78.46142599999985,99.87158199999976,96.15380900000036,107.17968800000017,104.23095699999976,101.6665039999998,112.69238299999961,98.9741210000002,68.7177729999994,81.2822270000006,-487.4357909999994,111.41015599999992
280,-29.74365200000011,-103.58984399999963,76.9228520000006,100.76904300000024,100.64111300000059,108.7177729999994,105.51269500000035,102.56396500000028,112.82031300000017,107.17968800000017,60.0,78.58984400000008,-478.97436500000003,108.9741210000002
281,-27.564209000000574,-100.51293900000019,76.9228520000006,100.51269500000035,105.12841800000024,109.35888699999941,108.58984400000008,103.9741210000002,114.23095699999976,116.79492200000004,59.23095699999976,78.3334960000002,-471.41015600000037,109.61523400000078
282,-25.769286999999622,-96.41015600000037,78.7177729999994,98.84619099999964,107.17968800000017,108.46142599999985,111.6665039999998,105.25634799999989,116.41015599999992,124.23095699999976,67.17968800000017,81.2822270000006,-466.28198199999997,111.15380900000036
283,-24.8718259999996,-93.58984399999963,81.0258789999998,98.0771479999994,106.0258789999998,107.17968800000017,112.69238299999961,105.25634799999989,118.0771479999994,127.05126999999993,78.20507799999996,85.64111300000059,-462.820557,109.48730499999965
284,-24.487060999999812,-92.82055700000001,83.58984400000008,100.64111300000059,103.20507799999996,107.30761700000039,111.6665039999998,104.23095699999976,118.84619099999964,126.2822270000006,84.87158199999976,89.35888699999941,-458.84619099999964,107.17968800000017
285,-24.487060999999812,-93.33325200000036,85.25634799999989,105.89746099999957,100.89746099999957,109.74365200000011,110.12841800000024,103.0771479999994,118.46142599999985,123.7177729999994,83.7177729999994,91.0258789999998,-453.71801800000003,109.48730499999965
286,-24.230713000000378,-93.46142599999985,85.25634799999989,110.51269500000035,100.51269500000035,112.82031300000017,110.0,102.56396500000028,117.56396500000028,120.89746099999957,77.56396500000028,90.38476599999922,-448.58984399999963,114.74365200000011
287,-23.205077999999958,-92.43579099999943,83.46142599999985,110.38476599999922,101.9228520000006,114.87158199999976,111.2822270000006,103.20507799999996,116.9228520000006,118.58984400000008,73.20507799999996,88.84619099999964,-444.35888699999987,116.53857400000015
288,-21.28198199999997,-90.76928699999962,81.6665039999998,105.25634799999989,103.20507799999996,114.35888699999941,112.43603499999972,104.74365200000011,116.9228520000006,116.79492200000004,73.7177729999994,88.3334960000002,-440.38452099999995,113.7177729999994
289,-20.0,-90.89746100000002,81.2822270000006,98.20507799999996,101.0258789999998,111.2822270000006,111.53857400000015,105.89746099999957,116.79492200000004,115.12841800000024,75.76904300000024,89.35888699999941,-436.923096,111.79492200000004
290,-20.641113000000132,-93.71801800000003,81.41015599999992,93.9741210000002,95.12841800000024,106.9228520000006,107.82031300000017,105.89746099999957,115.51269500000035,113.58984400000008,73.58984400000008,90.12841800000024,-433.97436500000003,112.69238299999961
291,-22.051270000000386,-96.41015600000037,80.38476599999922,95.0,89.48730499999965,103.9741210000002,103.7177729999994,105.12841800000024,113.7177729999994,112.30761700000039,66.9228520000006,89.48730499999965,-430.7692869999996,112.56396500000028
292,-21.923095999999987,-94.8718259999996,78.58984400000008,100.0,90.0,104.87158199999976,102.82031300000017,105.51269500000035,112.82031300000017,110.89746099999957,61.666503999999804,88.46142599999985,-425.897461,110.0
293,-19.10253899999998,-87.82055700000001,78.3334960000002,105.12841800000024,99.10253900000043,110.0,106.6665039999998,107.56396500000028,114.10253900000043,108.9741210000002,63.589844000000085,88.7177729999994,-419.61547900000005,109.48730499999965
294,-14.487060999999812,-78.20507799999996,80.25634799999989,107.94873000000007,113.0771479999994,116.6665039999998,113.58984400000008,110.64111300000059,116.9228520000006,107.56396500000028,72.43603499999972,90.64111300000059,-413.46142599999985,112.43603499999972
295,-9.743652000000111,-70.0,82.94873000000007,108.46142599999985,124.35888699999941,121.6665039999998,120.25634799999989,113.7177729999994,119.23095699999976,109.87158199999976,82.82031300000017,93.20507799999996,-408.33325200000036,113.7177729999994
296,-6.153809000000365,-65.51293900000019,84.87158199999976,108.20507799999996,126.53857400000015,122.94873000000007,123.84619099999964,115.51269500000035,120.38476599999922,118.0771479999994,88.7177729999994,95.12841800000024,-404.2307130000004,110.12841800000024
297,-4.61547900000005,-64.61547900000005,85.38476599999922,107.82031300000017,119.61523400000078,120.25634799999989,123.0771479999994,115.76904300000024,120.25634799999989,129.87158199999976,87.05126999999993,95.64111300000059,-400.1281740000004,106.79492200000004
298,-5.256347999999889,-66.15380900000036,85.12841800000024,107.17968800000017,109.61523400000078,115.38476599999922,118.84619099999964,114.10253900000043,119.10253900000043,138.46142599999985,79.35888699999941,94.87158199999976,-395.2563479999999,108.58984400000008
299,-6.153809000000365,-66.79492200000004,84.35888699999941,106.41015599999992,105.25634799999989,111.6665039999998,114.35888699999941,111.41015599999992,117.69238299999961,138.58984400000008,71.2822270000006,93.46142599999985,-388.33325200000036,112.17968800000017
300,-4.102538999999979,-64.23071300000038,83.84619099999964,105.89746099999957,110.51269500000035,112.17968800000017,112.82031300000017,109.23095699999976,117.05126999999993,131.41015599999992,69.10253900000043,92.82031300000017,-379.2307130000004,112.30761700000039
301,1.0258789999998044,-59.10253899999998,84.48730499999965,106.53857400000015,120.89746099999957,116.53857400000015,115.12841800000024,108.9741210000002,117.82031300000017,123.0771479999994,75.25634799999989,93.58984400000008,-369.2307130000004,110.25634799999989
302,6.410155999999915,-54.61547900000005,85.89746099999957,107.43603499999972,126.79492200000004,121.0258789999998,119.10253900000043,110.12841800000024,119.35888699999941,119.48730499999965,85.76904300000024,94.74365200000011,-361.66674799999964,110.89746099999957
303,8.461425999999847,-53.46142599999985,86.41015599999992,107.17968800000017,122.94873000000007,122.17968800000017,122.17968800000017,111.79492200000004,120.64111300000059,121.6665039999998,93.0771479999994,94.61523400000078,-358.46142599999985,113.0771479999994
304,6.922852000000603,-54.74365200000011,84.74365200000011,105.12841800000024,112.69238299999961,119.87158199999976,123.58984400000008,112.82031300000017,120.89746099999957,126.41015599999992,92.30761700000039,92.56396500000028,-357.820557,112.17968800000017
305,4.358886999999413,-56.025634999999966,82.43603499999972,102.43603499999972,104.61523400000078,116.41015599999992,123.0771479999994,113.0771479999994,120.25634799999989,127.94873000000007,84.23095699999976,90.12841800000024,-357.0512700000004,108.9741210000002
306,2.4360349999997197,-56.53857400000015,81.53857400000015,101.2822270000006,104.87158199999976,114.35888699999941,121.0258789999998,112.17968800000017,118.46142599999985,122.56396500000028,74.74365200000011,89.35888699999941,-354.8718259999996,109.10253900000043
307,2.1796880000001693,-56.025634999999966,82.43603499999972,102.69238299999961,112.17968800000017,114.87158199999976,118.3334960000002,110.25634799999989,115.64111300000059,111.6665039999998,70.64111300000059,90.25634799999989,-352.3076170000004,112.82031300000017
308,3.5898440000000846,-53.58984399999963,83.20507799999996,105.89746099999957,120.89746099999957,118.58984400000008,117.17968800000017,108.20507799999996,112.94873000000007,101.9228520000006,75.0,92.05126999999993,-349.8718259999996,114.35888699999941
309,6.666503999999804,-49.10253899999998,82.56396500000028,108.46142599999985,125.0,123.7177729999994,117.94873000000007,107.56396500000028,112.17968800000017,100.89746099999957,85.12841800000024,93.3334960000002,-347.0512700000004,111.79492200000004
310,9.230956999999762,-45.25634799999989,80.89746099999957,108.20507799999996,121.6665039999998,127.30761700000039,119.23095699999976,107.94873000000007,113.46142599999985,109.35888699999941,92.82031300000017,93.20507799999996,-343.58984399999963,110.0
311,8.589844000000085,-45.64111300000013,79.35888699999941,104.74365200000011,113.0771479999994,126.79492200000004,118.0771479999994,108.3334960000002,115.12841800000024,121.2822270000006,91.41015599999992,91.0258789999998,-340.0,111.53857400000015
312,5.128418000000238,-50.1281740000004,78.84619099999964,100.89746099999957,105.51269500000035,123.0771479999994,114.48730499999965,107.82031300000017,115.89746099999957,128.7177729999994,80.25634799999989,87.82031300000017,-336.02563499999997,112.30761700000039
313,2.1796880000001693,-53.974365000000034,80.51269500000035,100.38476599999922,104.87158199999976,119.61523400000078,111.0258789999998,106.6665039999998,115.25634799999989,128.84619099999964,66.79492200000004,85.64111300000059,-331.02563499999997,110.0
314,3.3334960000001956,-53.58984399999963,84.10253900000043,104.87158199999976,111.0258789999998,118.3334960000002,109.87158199999976,105.76904300000024,113.84619099999964,123.9741210000002,59.61523400000078,86.53857400000015,-325.2563479999999,108.84619099999964
315,8.717772999999397,-49.10253899999998,87.30761700000039,111.2822270000006,118.46142599999985,117.82031300000017,111.15380900000036,105.64111300000059,112.17968800000017,117.82031300000017,62.43603499999972,89.35888699999941,-319.7436520000001,111.9228520000006
316,15.512695000000349,-43.33325200000036,87.69238299999961,114.74365200000011,120.89746099999957,116.79492200000004,112.94873000000007,106.0258789999998,110.51269500000035,112.05126999999993,71.79492200000004,91.53857400000015,-314.7436520000001,114.48730499999965
317,20.25634799999989,-39.35888699999987,84.87158199999976,112.30761700000039,117.43603499999972,115.38476599999922,113.7177729999994,105.76904300000024,109.10253900000043,107.30761700000039,81.0258789999998,91.79492200000004,-309.7436520000001,111.15380900000036
318,19.871581999999762,-38.71801800000003,81.2822270000006,105.12841800000024,111.15380900000036,114.74365200000011,112.05126999999993,104.10253900000043,107.94873000000007,103.3334960000002,83.84619099999964,90.0,-305.7692869999996,106.15380900000036
319,12.82031300000017,-41.66674799999964,78.58984400000008,97.43603499999972,105.38476599999922,113.7177729999994,107.43603499999972,100.38476599999922,106.2822270000006,98.7177729999994,78.20507799999996,85.76904300000024,-305.0,106.6665039999998
320,1.6665039999998044,-46.153809000000365,76.9228520000006,92.94873000000007,101.6665039999998,111.15380900000036,100.51269500000035,95.25634799999989,103.9741210000002,93.0771479999994,67.69238299999961,80.0,-307.820557,111.79492200000004
321,-7.435790999999426,-49.23071300000038,75.64111300000059,93.7177729999994,100.12841800000024,107.05126999999993,93.84619099999964,91.0258789999998,101.41015599999992,87.82031300000017,60.25634799999989,75.12841800000024,-310.897461,114.87158199999976
322,-8.461425999999847,-48.846190999999635,75.76904300000024,99.10253900000043,100.12841800000024,103.58984400000008,90.89746099999957,89.61523400000078,100.0,85.64111300000059,62.17968800000017,74.61523400000078,-310.38452099999995,114.74365200000011
323,-0.256347999999889,-46.153809000000365,77.56396500000028,105.64111300000059,100.76904300000024,102.43603499999972,92.82031300000017,91.6665039999998,100.76904300000024,88.20507799999996,72.43603499999972,78.9741210000002,-305.38452099999995,115.64111300000059
324,12.56396500000028,-41.92309599999999,80.64111300000059,110.25634799999989,102.30761700000039,104.61523400000078,98.7177729999994,95.89746099999957,103.9741210000002,95.64111300000059,84.35888699999941,86.15380900000036,-297.5642090000006,117.17968800000017
325,24.48730499999965,-35.64111300000013,84.10253900000043,111.2822270000006,106.53857400000015,110.51269500000035,106.41015599999992,100.51269500000035,109.48730499999965,106.79492200000004,91.2822270000006,93.46142599999985,-288.33325200000036,114.61523400000078
326,32.82031300000017,-27.051270000000386,87.56396500000028,110.12841800000024,114.87158199999976,118.7177729999994,113.84619099999964,104.35888699999941,115.51269500000035,118.9741210000002,91.6665039999998,99.35888699999941,-278.46142599999985,108.3334960000002
327,36.153809000000365,-18.076904000000013,90.25634799999989,108.9741210000002,124.10253900000043,125.0,118.84619099999964,106.6665039999998,119.61523400000078,128.20507799999996,86.79492200000004,103.3334960000002,-268.97436500000003,105.25634799999989
328,34.102539000000434,-12.948729999999614,90.76904300000024,108.7177729999994,128.3334960000002,125.76904300000024,119.48730499999965,106.79492200000004,119.74365200000011,130.6411130000006,79.23095699999976,103.9741210000002,-261.15380900000036,107.43603499999972
329,28.333496000000196,-14.102538999999979,88.46142599999985,108.7177729999994,124.48730499999965,121.2822270000006,115.25634799999989,104.35888699999941,116.0258789999998,125.64111300000059,72.30761700000039,101.2822270000006,-256.02563499999997,109.23095699999976
330,24.871581999999762,-19.8718259999996,85.0,107.94873000000007,115.51269500000035,115.0,108.0771479999994,100.64111300000059,110.76904300000024,116.79492200000004,69.74365200000011,97.94873000000007,-254.23071300000038,107.56396500000028
331,29.615234000000783,-24.8718259999996,83.3334960000002,107.05126999999993,107.56396500000028,110.64111300000059,101.0258789999998,97.05126999999993,106.41015599999992,108.3334960000002,73.3334960000002,97.82031300000017,-256.28198199999997,106.6665039999998
332,42.94873000000007,-23.333252000000357,85.0,107.43603499999972,106.0258789999998,109.35888699999941,97.05126999999993,94.87158199999976,104.35888699999941,103.7177729999994,82.05126999999993,102.56396500000028,-258.97436500000003,110.12841800000024
333,57.05126999999993,-14.358886999999868,88.3334960000002,109.48730499999965,111.0258789999998,110.64111300000059,97.43603499999972,95.12841800000024,105.0,105.12841800000024,92.30761700000039,109.35888699999941,-255.0,113.20507799999996
334,62.56396500000028,-4.487060999999812,90.89746099999957,111.79492200000004,118.0771479999994,113.3334960000002,101.2822270000006,98.3334960000002,108.0771479999994,111.9228520000006,100.0,114.35888699999941,-241.02563499999997,111.2822270000006
335,59.87158199999976,-3.717772999999397,91.6665039999998,112.94873000000007,120.64111300000059,115.38476599999922,105.0,103.3334960000002,111.6665039999998,119.48730499999965,101.9228520000006,115.89746099999957,-224.10253899999998,108.3334960000002
336,63.589844000000085,-15.0,91.9228520000006,113.20507799999996,115.38476599999922,114.10253900000043,104.87158199999976,107.17968800000017,113.20507799999996,121.9228520000006,98.84619099999964,116.9228520000006,-216.28198199999997,109.74365200000011
337,92.56396500000028,-27.948729999999614,94.48730499999965,114.74365200000011,106.15380900000036,109.35888699999941,101.0258789999998,106.79492200000004,112.17968800000017,118.46142599999985,97.17968800000017,123.7177729999994,-219.8718259999996,113.46142599999985
338,149.10253900000043,-24.10253899999998,101.2822270000006,120.0,100.64111300000059,104.10253900000043,96.9228520000006,103.3334960000002,110.38476599999922,113.7177729999994,104.61523400000078,139.61523400000078,-222.0512700000004,113.84619099999964
339,211.9228520000006,7.948730000000069,111.2822270000006,128.20507799999996,102.94873000000007,101.53857400000015,96.41015599999992,100.38476599999922,109.74365200000011,113.3334960000002,122.43603499999972,160.51269500000035,-206.66674799999964,111.79492200000004
340,252.56396500000028,60.76904300000024,120.0,136.2822270000006,110.12841800000024,102.30761700000039,99.10253900000043,100.64111300000059,110.38476599999922,117.30761700000039,143.0771479999994,177.05126999999993,-170.5129390000002,112.69238299999961
341,262.82031300000017,112.17968800000017,123.0771479999994,140.2563479999999,114.87158199999976,104.35888699999941,101.0258789999998,102.94873000000007,110.64111300000059,120.38476599999922,155.76904300000024,182.3076170000004,-123.84619099999964,115.76904300000024
342,262.05126999999993,141.6665039999998,120.25634799999989,140.51269500000035,113.58984400000008,105.76904300000024,98.7177729999994,104.10253900000043,109.10253900000043,117.94873000000007,155.12841800000024,178.58984400000008,-77.43579099999943,115.38476599999922
343,277.6923829999996,146.6665039999998,116.0258789999998,141.15380900000036,107.82031300000017,105.12841800000024,91.9228520000006,101.79492200000004,105.64111300000059,110.25634799999989,145.0,175.2563479999999,-32.051270000000386,111.41015599999992
344,318.20507799999996,143.58984400000008,115.89746099999957,146.0258789999998,102.30761700000039,102.05126999999993,83.9741210000002,96.41015599999992,101.15380900000036,101.53857400000015,135.2563479999999,180.2563479999999,21.282227000000603,110.0
345,367.3076170000004,154.10253900000043,120.89746099999957,155.0,99.35888699999941,97.17968800000017,79.35888699999941,91.41015599999992,96.2822270000006,97.30761700000039,134.3588869999994,193.7177729999994,97.82031300000017,113.20507799999996
346,401.0258789999998,187.3076170000004,128.0771479999994,164.3588869999994,98.84619099999964,92.82031300000017,81.0258789999998,90.38476599999922,91.9228520000006,99.74365200000011,144.87158199999976,208.46142599999985,215.76904300000024,115.64111300000059
347,408.9741210000002,231.6665039999998,133.7177729999994,170.2563479999999,97.82031300000017,91.53857400000015,87.43603499999972,94.74365200000011,88.7177729999994,106.15380900000036,161.2822270000006,217.3076170000004,388.3334960000002,114.23095699999976
348,402.94873000000007,265.51269500000035,135.76904300000024,172.6923829999996,93.84619099999964,92.94873000000007,93.3334960000002,101.15380900000036,86.6665039999998,110.12841800000024,174.10253900000043,218.3334960000002,615.5126950000003,113.46142599999985
349,408.84619099999964,275.3847659999992,134.87158199999976,174.3588869999994,87.56396500000028,94.10253900000043,93.46142599999985,103.7177729999994,84.74365200000011,107.56396500000028,176.0258789999998,216.0258789999998,881.0258789999998,116.2822270000006
350,446.2822270000006,269.10253900000043,133.84619099999964,178.84619099999964,82.82031300000017,93.20507799999996,87.82031300000017,99.87158199999976,82.82031300000017,101.2822270000006,168.84619099999964,217.6923829999996,1163.8461909999996,118.46142599999985
351,510.76904300000024,267.3076170000004,135.6411130000006,186.9228520000006,82.82031300000017,90.89746099999957,81.2822270000006,93.0771479999994,81.9228520000006,98.46142599999985,160.2563479999999,226.6665039999998,1451.0258789999998,116.0258789999998
352,574.4873049999997,286.0258789999998,140.38476599999922,195.2563479999999,85.89746099999957,88.84619099999964,79.10253900000043,88.7177729999994,82.56396500000028,103.9741210000002,156.2822270000006,238.7177729999994,1743.0771479999994,112.82031300000017
353,607.9487300000001,325.2563479999999,144.10253900000043,198.84619099999964,86.6665039999998,87.69238299999961,81.15380900000036,88.7177729999994,82.94873000000007,114.35888699999941,154.23095699999976,244.61523400000078,2046.2822270000006,113.84619099999964
354,603.8461909999996,375.12841800000024,142.3076170000004,196.0258789999998,81.53857400000015,86.9228520000006,83.7177729999994,90.25634799999989,80.25634799999989,121.0258789999998,146.9228520000006,238.46142599999985,2357.179688,115.89746099999957
355,580.6411130000006,428.84619099999964,135.0,191.0258789999998,71.41015599999992,85.25634799999989,82.56396500000028,88.58984400000008,73.46142599999985,118.0771479999994,132.56396500000028,223.20507799999996,2654.743651999999,113.58984400000008
356,563.4614259999998,486.4101559999999,126.79492200000004,189.48730499999965,60.51269500000035,82.43603499999972,76.9228520000006,81.53857400000015,64.61523400000078,107.56396500000028,118.0771479999994,208.20507799999996,2911.410156,109.35888699999941
357,562.5639650000003,551.1538090000004,122.17968800000017,192.56396500000028,52.43603499999972,78.20507799999996,69.74365200000011,71.79492200000004,57.82031300000017,97.82031300000017,113.0771479999994,201.53857400000015,3114.871581999999,109.48730499999965
358,570.8974609999996,627.1796880000002,121.9228520000006,197.05126999999993,49.61523400000078,74.48730499999965,65.76904300000024,64.87158199999976,55.897460999999566,97.56396500000028,121.6665039999998,204.10253900000043,3273.3334959999993,113.0771479999994
359,578.4614259999998,718.205078,124.10253900000043,199.61523400000078,52.82031300000017,73.46142599999985,68.0771479999994,65.64111300000059,59.102539000000434,108.0771479999994,138.9741210000002,210.89746099999957,3400.5126950000003,113.9741210000002
360,585.2563479999999,825.2563479999999,127.05126999999993,199.87158199999976,59.48730499999965,75.76904300000024,75.76904300000024,73.84619099999964,64.74365200000011,123.46142599999985,156.41015599999992,217.05126999999993,3498.8461909999996,111.15380900000036
361,598.205078,942.0512699999999,129.61523400000078,199.87158199999976,65.0,78.84619099999964,83.84619099999964,84.10253900000043,68.3334960000002,134.7436520000001,167.56396500000028,220.76904300000024,3562.6923829999996,110.12841800000024
362,617.3076170000004,1056.9228520000006,130.51269500000035,200.76904300000024,65.12841800000024,79.61523400000078,87.56396500000028,89.87158199999976,66.9228520000006,137.82031300000017,171.41015599999992,222.05126999999993,3590.128418000001,112.56396500000028
363,634.2309569999998,1159.8715819999998,129.48730499999965,201.9228520000006,60.76904300000024,77.43603499999972,85.64111300000059,88.7177729999994,61.666503999999804,135.6411130000006,171.15380900000036,221.15380900000036,3586.410156,113.46142599999985
364,641.5385740000002,1245.8974609999996,128.0771479999994,202.3076170000004,55.38476599999922,73.84619099999964,81.15380900000036,83.46142599999985,56.2822270000006,134.23095699999976,170.38476599999922,218.58984400000008,3561.0258790000007,111.0258789999998
365,640.8974609999996,1313.589844,128.3334960000002,200.12841800000024,51.666503999999804,71.15380900000036,77.69238299999961,78.84619099999964,53.20507799999996,136.0258789999998,170.76904300000024,215.89746099999957,3528.589844,110.0
366,639.4873049999997,1364.8715819999998,129.7436520000001,195.0,49.23095699999976,70.0,76.15380900000036,77.05126999999993,52.56396500000028,138.46142599999985,171.2822270000006,213.84619099999964,3508.7177730000003,112.17968800000017
367,639.8715819999998,1404.3588869999994,130.0,188.0771479999994,47.30761700000039,70.25634799999989,75.38476599999922,77.94873000000007,53.0771479999994,138.9741210000002,171.79492200000004,212.05126999999993,3511.410156,112.94873000000007
368,638.3334960000002,1437.6923829999996,127.69238299999961,181.9228520000006,46.153809000000365,71.53857400000015,74.23095699999976,80.51269500000035,54.102539000000434,138.46142599999985,173.20507799999996,210.0,3525.0,109.61523400000078
369,631.9228520000006,1466.6665039999998,124.48730499999965,179.23095699999976,46.025878999999804,71.6665039999998,72.43603499999972,83.0771479999994,55.0,138.84619099999964,177.17968800000017,208.20507799999996,3527.4360349999997,107.17968800000017
370,625.3847659999992,1489.4873049999997,123.3334960000002,180.2563479999999,45.51269500000035,68.46142599999985,70.25634799999989,83.7177729999994,55.25634799999989,140.51269500000035,183.7177729999994,207.56396500000028,3512.6923829999996,109.35888699999941
371,627.1796880000002,1505.3847659999992,125.76904300000024,183.0771479999994,43.589844000000085,62.69238299999961,67.94873000000007,81.41015599999992,54.35888699999941,141.6665039999998,190.89746099999957,208.9741210000002,3496.2822269999997,112.69238299999961
372,640.3847659999992,1518.4614259999998,130.89746099999957,185.2563479999999,41.53857400000015,57.94873000000007,65.76904300000024,76.9228520000006,52.56396500000028,141.2822270000006,195.38476599999922,212.3076170000004,3493.4614260000008,112.17968800000017
373,657.8203130000002,1534.3588869999994,136.79492200000004,185.51269500000035,41.2822270000006,57.69238299999961,63.974121000000196,72.82031300000017,50.76904300000024,139.7436520000001,194.48730499999965,215.89746099999957,3500.6411129999997,110.76904300000024
374,667.9487300000001,1553.3334960000002,141.0258789999998,183.7177729999994,42.69238299999961,62.05126999999993,63.46142599999985,71.79492200000004,49.87158199999976,138.7177729999994,189.87158199999976,218.46142599999985,3505.128418000001,112.69238299999961
375,665.5126950000003,1571.1538090000004,141.9228520000006,180.76904300000024,44.48730499999965,68.20507799999996,65.0,74.10253900000043,50.38476599999922,139.10253900000043,187.3076170000004,219.10253900000043,3502.3076170000004,115.76904300000024
376,654.8715819999998,1582.6923829999996,140.38476599999922,178.20507799999996,46.2822270000006,73.0771479999994,68.0771479999994,77.82031300000017,52.17968800000017,140.51269500000035,191.53857400000015,218.9741210000002,3498.7177730000003,114.61523400000078
377,644.2309569999998,1586.2822270000006,139.10253900000043,176.6665039999998,48.589844000000085,74.87158199999976,70.89746099999957,79.61523400000078,53.846190999999635,140.6411130000006,199.87158199999976,218.9741210000002,3499.743651999999,110.51269500000035
378,639.6152340000008,1584.8715819999998,139.7436520000001,176.15380900000036,51.410155999999915,73.0771479999994,71.6665039999998,77.17968800000017,53.7177729999994,137.56396500000028,205.0,219.10253900000043,3503.205078,109.74365200000011
379,642.3076170000004,1585.256348,142.3076170000004,176.2822270000006,54.74365200000011,69.74365200000011,70.38476599999922,71.79492200000004,51.410155999999915,132.17968800000017,202.05126999999993,219.3588869999994,3503.9741209999993,112.56396500000028
380,650.1284180000002,1592.5639650000003,145.76904300000024,176.9228520000006,58.7177729999994,68.58984400000008,69.48730499999965,67.82031300000017,49.102539000000434,130.0,194.61523400000078,221.0258789999998,3501.794922,113.58984400000008
381,656.0258789999998,1606.2822270000006,149.3588869999994,177.56396500000028,63.0771479999994,71.41015599999992,70.64111300000059,69.23095699999976,49.48730499999965,135.2563479999999,190.12841800000024,224.7436520000001,3500.769043000001,111.41015599999992
382,652.8203130000002,1620.3847659999992,151.79492200000004,176.79492200000004,65.25634799999989,75.38476599999922,72.17968800000017,75.0,52.56396500000028,145.12841800000024,191.53857400000015,227.56396500000028,3503.205078,110.64111300000059
383,641.1538090000004,1627.94873,151.53857400000015,174.10253900000043,61.2822270000006,75.38476599999922,70.25634799999989,80.0,54.74365200000011,151.6665039999998,195.38476599999922,225.51269500000035,3505.769043000001,112.43603499999972
