,EEG.AF3,EEG.F7,EEG.F3,EEG.FC5,EEG.T7,EEG.P7,EEG.O1,EEG.O2,EEG.P8,EEG.T8,EEG.FC6,EEG.F4,EEG.F8,EEG.AF4
0,5.256347999999889,-130.76928699999962,87.30761700000039,108.0771479999994,121.9228520000006,123.20507799999996,125.51269500000035,119.61523400000078,120.38476599999922,138.46142599999985,71.9228520000006,108.3334960000002,-483.97436500000003,105.89746099999957
1,0.512695000000349,-135.0,84.87158199999976,104.74365200000011,119.35888699999941,124.10253900000043,123.58984400000008,119.87158199999976,120.89746099999957,133.84619099999964,64.48730499999965,103.7177729999994,-480.38452099999995,108.46142599999985
2,-4.487060999999812,-137.6923829999996,82.94873000000007,103.3334960000002,115.89746099999957,123.0771479999994,122.17968800000017,118.3334960000002,121.15380900000036,124.61523400000078,63.846190999999635,99.35888699999941,-480.64111300000013,112.43603499999972
3,-8.461425999999847,-138.46142599999985,81.41015599999992,104.10253900000043,110.25634799999989,119.48730499999965,120.25634799999989,115.0,119.87158199999976,113.46142599999985,69.48730499999965,96.2822270000006,-484.35888699999987,112.17968800000017
4,-10.1281740000004,-137.43579099999943,81.15380900000036,105.38476599999922,103.3334960000002,114.74365200000011,118.46142599999985,112.30761700000039,118.20507799999996,106.15380900000036,76.6665039999998,95.38476599999922,-488.076904,109.23095699999976
5,-8.333252000000357,-134.4870609999998,83.7177729999994,105.51269500000035,98.84619099999964,111.0258789999998,118.46142599999985,112.56396500000028,118.0771479999994,107.94873000000007,80.25634799999989,97.43603499999972,-487.179443,109.48730499999965
6,-2.1796869999998307,-128.46142599999985,88.84619099999964,104.61523400000078,100.89746099999957,111.0258789999998,121.9228520000006,116.6665039999998,120.89746099999957,119.74365200000011,79.48730499999965,102.94873000000007,-478.97436500000003,112.17968800000017
7,7.820313000000169,-118.84619099999964,94.87158199999976,104.61523400000078,110.38476599999922,115.51269500000035,129.10253900000043,123.7177729999994,126.2822270000006,137.17968800000017,77.82031300000017,111.0258789999998,-463.97436500000003,112.56396500000028
8,18.846190999999635,-107.82055700000001,99.23095699999976,106.2822270000006,122.30761700000039,121.53857400000015,137.05126999999993,130.76904300000024,131.79492200000004,151.41015599999992,79.48730499999965,118.7177729999994,-447.4357909999994,110.51269500000035
9,26.153809000000365,-100.89746100000002,99.35888699999941,108.20507799999996,128.20507799999996,123.46142599999985,140.12841800000024,133.7177729999994,134.10253900000043,153.3334960000002,83.84619099999964,122.17968800000017,-436.53857400000015,110.51269500000035
10,26.282227000000603,-101.92309599999999,94.10253900000043,108.0771479999994,123.58984400000008,117.69238299999961,134.48730499999965,130.0,130.6411130000006,140.12841800000024,86.41015599999992,118.46142599999985,-435.2563479999999,112.30761700000039
11,19.615234000000783,-109.23071300000038,85.25634799999989,105.12841800000024,111.15380900000036,107.05126999999993,122.56396500000028,121.41015599999992,123.0771479999994,119.35888699999941,83.3334960000002,109.10253900000043,-441.79492200000004,111.53857400000015
12,10.256347999999889,-117.17944299999999,77.30761700000039,101.53857400000015,99.10253900000043,98.3334960000002,111.9228520000006,113.3334960000002,116.2822270000006,103.9741210000002,75.64111300000059,98.9741210000002,-450.0,108.20507799999996
13,2.6923829999996087,-121.15380900000036,74.48730499999965,99.87158199999976,93.3334960000002,96.53857400000015,109.35888699999941,110.89746099999957,114.35888699999941,102.82031300000017,67.82031300000017,93.7177729999994,-454.4870609999998,108.3334960000002
14,-0.12841800000023795,-119.8718259999996,77.05126999999993,101.0258789999998,93.7177729999994,100.89746099999957,114.87158199999976,114.35888699999941,116.9228520000006,113.46142599999985,64.61523400000078,95.12841800000024,-453.20507799999996,112.69238299999961
15,2.5639650000002803,-115.0,81.79492200000004,104.23095699999976,96.41015599999992,106.53857400000015,122.82031300000017,120.0,119.87158199999976,125.89746099999957,66.6665039999998,100.64111300000059,-447.6923829999996,114.48730499999965
16,9.358886999999413,-109.8718259999996,85.64111300000059,107.94873000000007,97.43603499999972,108.84619099999964,126.9228520000006,122.82031300000017,119.87158199999976,130.76904300000024,71.9228520000006,106.6665039999998,-439.8718259999996,110.38476599999922
17,16.666503999999804,-107.56420900000057,87.43603499999972,110.0,96.6665039999998,106.79492200000004,125.76904300000024,121.15380900000036,116.79492200000004,126.0258789999998,77.17968800000017,110.64111300000059,-431.15380900000036,106.2822270000006
18,21.025878999999804,-108.84619099999964,87.69238299999961,109.74365200000011,96.0258789999998,102.56396500000028,122.56396500000028,117.30761700000039,113.0771479999994,117.43603499999972,80.38476599999922,112.17968800000017,-422.820557,107.69238299999961
19,22.43603499999972,-111.02563499999997,87.82031300000017,108.0771479999994,97.82031300000017,100.12841800000024,122.30761700000039,114.74365200000011,111.6665039999998,112.82031300000017,81.53857400000015,112.56396500000028,-415.0,111.15380900000036
20,24.358886999999413,-110.0,88.9741210000002,106.79492200000004,101.15380900000036,101.0258789999998,125.89746099999957,115.51269500000035,113.46142599999985,116.0258789999998,81.41015599999992,113.46142599999985,-409.4870609999998,111.53857400000015
21,28.461425999999847,-104.8718259999996,91.0258789999998,106.6665039999998,101.53857400000015,103.20507799999996,129.10253900000043,118.0771479999994,116.15380900000036,123.0771479999994,79.48730499999965,115.38476599999922,-408.076904,110.64111300000059
22,32.56396500000028,-98.84619099999964,92.69238299999961,106.79492200000004,96.15380900000036,102.69238299999961,127.05126999999993,119.23095699999976,117.05126999999993,125.89746099999957,75.0,116.53857400000015,-409.7436520000001,112.43603499999972
23,34.23095699999976,-95.51293900000019,92.17968800000017,106.2822270000006,88.3334960000002,99.35888699999941,119.87158199999976,117.69238299999961,115.51269500000035,121.0258789999998,69.10253900000043,115.25634799999989,-408.33325200000036,114.23095699999976
24,35.12841800000024,-95.51293900000019,89.87158199999976,105.64111300000059,84.35888699999941,96.41015599999992,112.43603499999972,115.38476599999922,113.7177729999994,112.94873000000007,66.79492200000004,113.0771479999994,-397.5642090000006,111.2822270000006
25,40.64111300000059,-97.94872999999961,88.20507799999996,105.38476599999922,87.05126999999993,96.79492200000004,109.35888699999941,114.35888699999941,113.7177729999994,108.58984400000008,72.56396500000028,113.58984400000008,-380.897461,105.89746099999957
26,55.76904300000024,-101.02563499999997,89.48730499999965,105.64111300000059,93.0771479999994,99.48730499999965,110.76904300000024,115.12841800000024,115.25634799999989,110.51269500000035,85.89746099999957,119.87158199999976,-369.102539,105.38476599999922
27,83.58984400000008,-101.28198199999997,93.9741210000002,106.9228520000006,97.69238299999961,101.53857400000015,113.84619099999964,116.41015599999992,116.6665039999998,116.0258789999998,101.79492200000004,132.05126999999993,-366.53857400000015,109.61523400000078
28,123.84619099999964,-93.20507799999996,100.89746099999957,111.0258789999998,99.74365200000011,102.69238299999961,116.2822270000006,117.30761700000039,117.17968800000017,121.79492200000004,114.48730499999965,147.94873000000007,-364.102539,111.79492200000004
29,170.51269500000035,-72.82055700000001,109.23095699999976,118.9741210000002,100.89746099999957,104.23095699999976,118.3334960000002,117.94873000000007,117.43603499999972,126.0258789999998,121.0258789999998,164.10253900000043,-348.71801800000003,110.12841800000024
30,212.6923829999996,-40.89746100000002,117.30761700000039,129.61523400000078,102.82031300000017,107.17968800000017,120.0,118.84619099999964,117.69238299999961,128.46142599999985,122.43603499999972,177.05126999999993,-318.71801800000003,109.48730499999965
31,242.82031300000017,-3.9741210000001956,123.0771479999994,139.7436520000001,105.76904300000024,110.12841800000024,121.15380900000036,119.74365200000011,117.82031300000017,128.9741210000002,123.58984400000008,184.48730499999965,-281.66674799999964,112.30761700000039
32,266.53857400000015,29.102539000000434,126.79492200000004,146.79492200000004,109.35888699999941,110.89746099999957,121.53857400000015,120.76904300000024,117.82031300000017,129.23095699999976,131.2822270000006,189.48730499999965,-241.41015600000037,113.7177729999994
33,298.3334960000002,52.94873000000007,130.76904300000024,150.2563479999999,112.43603499999972,107.82031300000017,120.64111300000059,121.79492200000004,118.0771479999994,131.0258789999998,148.46142599999985,198.0771479999994,-192.43579099999943,111.15380900000036
34,346.0258789999998,70.51269500000035,137.05126999999993,151.53857400000015,112.05126999999993,101.0258789999998,118.0771479999994,121.79492200000004,117.82031300000017,133.3334960000002,168.7177729999994,213.20507799999996,-128.076904,109.48730499999965
35,399.7436520000001,91.0258789999998,143.3334960000002,152.6923829999996,106.41015599999992,92.69238299999961,114.35888699999941,119.10253900000043,115.89746099999957,132.6923829999996,179.87158199999976,229.61523400000078,-45.76928699999962,112.17968800000017
36,440.76904300000024,121.53857400000015,145.6411130000006,154.87158199999976,97.43603499999972,87.17968800000017,111.15380900000036,114.23095699999976,111.9228520000006,128.0771479999994,175.2563479999999,238.9741210000002,60.0,115.38476599999922
37,459.10253900000043,159.10253900000043,143.0771479999994,159.3588869999994,90.64111300000059,87.94873000000007,110.89746099999957,109.61523400000078,107.05126999999993,122.56396500000028,159.87158199999976,237.3076170000004,204.48730499999965,114.48730499999965
38,464.87158199999976,192.56396500000028,139.3588869999994,166.6665039999998,89.74365200000011,93.46142599999985,113.20507799999996,107.56396500000028,102.69238299999961,120.38476599999922,146.79492200000004,230.2563479999999,405.2563479999999,112.43603499999972
39,482.4360349999997,212.6923829999996,138.84619099999964,176.41015599999992,92.56396500000028,98.3334960000002,114.87158199999976,107.69238299999961,98.58984400000008,122.30761700000039,146.41015599999992,227.56396500000028,667.1796880000002,113.9741210000002
40,532.8203130000002,222.43603499999972,143.0771479999994,186.41015599999992,93.84619099999964,97.82031300000017,112.82031300000017,108.0771479999994,94.23095699999976,125.51269500000035,160.0,236.6665039999998,975.0,116.53857400000015
41,612.5639650000003,235.38476599999922,149.61523400000078,194.10253900000043,90.38476599999922,92.69238299999961,107.43603499999972,107.30761700000039,90.38476599999922,127.43603499999972,180.38476599999922,255.2563479999999,1301.1538090000004,114.74365200000011
42,690.5126950000003,265.0,154.23095699999976,198.84619099999964,83.58984400000008,87.30761700000039,102.17968800000017,106.15380900000036,87.94873000000007,128.3334960000002,195.76904300000024,272.3076170000004,1624.2309569999998,110.89746099999957
43,731.4101559999999,313.3334960000002,153.20507799999996,201.0258789999998,77.05126999999993,85.25634799999989,100.38476599999922,105.25634799999989,87.05126999999993,129.48730499999965,198.0771479999994,276.53857400000015,1942.1796880000002,111.15380900000036
44,727.8203130000002,371.6665039999998,147.05126999999993,201.53857400000015,73.9741210000002,86.9228520000006,102.82031300000017,104.61523400000078,86.6665039999998,131.79492200000004,189.10253900000043,266.15380900000036,2267.94873,115.0
45,710.2563479999999,429.48730499999965,140.51269500000035,201.53857400000015,74.35888699999941,90.64111300000059,107.82031300000017,104.87158199999976,86.15380900000036,135.38476599999922,180.0,251.79492200000004,2605.6411130000006,116.0258789999998
46,717.8203130000002,483.5898440000001,138.58984400000008,201.53857400000015,75.25634799999989,92.94873000000007,111.9228520000006,105.76904300000024,85.12841800000024,138.7177729999994,181.0258789999998,246.15380900000036,2933.589844,113.0771479999994
47,760.3847659999992,541.9228520000006,141.53857400000015,201.6665039999998,71.53857400000015,90.89746099999957,111.53857400000015,106.0258789999998,82.82031300000017,139.23095699999976,191.0258789999998,251.79492200000004,3212.4360349999997,111.15380900000036
48,810.1284180000002,619.4873049999997,143.46142599999985,200.6411130000006,61.53857400000015,84.23095699999976,105.25634799999989,103.9741210000002,77.82031300000017,134.7436520000001,200.0,258.5898440000001,3410.769043000001,111.9228520000006
49,829.8715819999998,726.1538090000004,138.84619099999964,198.7177729999994,49.61523400000078,76.9228520000006,95.51269500000035,99.61523400000078,71.2822270000006,127.05126999999993,200.2563479999999,255.0,3521.2822269999997,110.89746099999957
50,809.8715819999998,856.9228520000006,128.9741210000002,197.17968800000017,43.333496000000196,73.3334960000002,87.43603499999972,95.0,65.76904300000024,122.17968800000017,195.38476599999922,240.51269500000035,3561.5385739999992,107.56396500000028
51,776.4101559999999,993.7177729999994,120.51269500000035,196.9228520000006,44.48730499999965,74.35888699999941,84.35888699999941,92.17968800000017,63.974121000000196,125.64111300000059,195.2563479999999,225.51269500000035,3563.7177730000003,107.17968800000017
52,768.0771479999994,1118.589844,118.46142599999985,196.9228520000006,47.17968800000017,76.2822270000006,85.64111300000059,91.79492200000004,65.64111300000059,136.6665039999998,205.38476599999922,221.2822270000006,3559.871581999999,111.41015599999992
53,801.2822270000006,1227.94873,122.17968800000017,195.6411130000006,44.74365200000011,76.0258789999998,87.43603499999972,92.56396500000028,68.3334960000002,149.10253900000043,220.51269500000035,230.0,3563.4614260000008,114.23095699999976
54,856.2822270000006,1329.8715819999998,127.17968800000017,193.46142599999985,36.53857400000015,73.20507799999996,86.79492200000004,93.0771479999994,68.7177729999994,155.2563479999999,229.87158199999976,243.20507799999996,3565.384765999999,111.41015599999992
55,894.7436520000001,1429.2309569999998,129.87158199999976,191.9228520000006,28.589844000000085,69.23095699999976,83.7177729999994,92.69238299999961,65.51269500000035,152.05126999999993,227.43603499999972,249.48730499999965,3551.6665040000007,107.43603499999972
56,891.794922,1520.1284180000002,129.10253900000043,192.6923829999996,27.43603499999972,65.38476599999922,80.12841800000024,91.53857400000015,60.12841800000024,143.46142599999985,217.17968800000017,244.23095699999976,3527.05127,107.94873000000007
57,856.5385740000002,1594.2309569999998,126.79492200000004,195.38476599999922,34.102539000000434,62.94873000000007,78.58984400000008,90.64111300000059,55.64111300000059,137.3076170000004,209.87158199999976,233.0771479999994,3510.769043000001,110.38476599999922
58,823.5898440000001,1651.9228520000006,125.64111300000059,198.9741210000002,43.974121000000196,63.0771479999994,79.87158199999976,91.53857400000015,54.87158199999976,138.7177729999994,213.46142599999985,226.41015599999992,3511.1538090000004,110.0
59,822.6923829999996,1700.6411130000006,127.69238299999961,200.89746099999957,48.333496000000196,64.74365200000011,81.2822270000006,93.9741210000002,57.17968800000017,146.15380900000036,225.89746099999957,230.12841800000024,3516.0258790000007,109.10253900000043
60,855.7690430000002,1747.8203130000002,131.6665039999998,198.84619099999964,42.30761700000039,64.35888699999941,79.74365200000011,95.89746099999957,58.589844000000085,153.0771479999994,237.43603499999972,240.6411130000006,3511.6665040000007,112.17968800000017
61,898.5898440000001,1795.5126950000003,134.3588869999994,193.9741210000002,29.358886999999413,60.51269500000035,74.87158199999976,94.87158199999976,55.76904300000024,154.10253900000043,239.61523400000078,248.20507799999996,3500.8974609999996,117.05126999999993
62,924.7436520000001,1842.3076170000004,134.23095699999976,190.2563479999999,19.230956999999762,55.51269500000035,70.38476599999922,91.0258789999998,48.846190999999635,149.48730499999965,232.17968800000017,247.56396500000028,3495.769043000001,117.17968800000017
63,925.2563479999999,1881.9228520000006,133.3334960000002,191.2822270000006,18.846190999999635,53.333496000000196,69.74365200000011,86.41015599999992,41.410155999999915,142.6923829999996,222.82031300000017,241.6665039999998,3499.230956999999,113.20507799999996
64,909.4873049999997,1905.256348,133.3334960000002,195.38476599999922,26.153809000000365,54.74365200000011,71.79492200000004,82.82031300000017,36.2822270000006,136.79492200000004,218.58984400000008,236.15380900000036,3503.7177730000003,111.41015599999992
65,892.5639650000003,1908.0771479999994,133.7177729999994,197.43603499999972,33.46142599999985,57.17968800000017,72.56396500000028,80.89746099999957,34.74365200000011,133.20507799999996,220.76904300000024,233.3334960000002,3503.3334959999993,113.3334960000002
66,883.9741210000002,1899.2309569999998,132.94873000000007,194.23095699999976,35.76904300000024,57.94873000000007,69.74365200000011,80.25634799999989,35.38476599999922,133.3334960000002,225.38476599999922,231.2822270000006,3500.5126950000003,114.10253900000043
67,886.9228520000006,1896.5385740000002,131.79492200000004,187.82031300000017,33.589844000000085,56.79492200000004,64.87158199999976,80.51269500000035,36.79492200000004,136.6665039999998,228.3334960000002,228.46142599999985,3499.871581999999,111.9228520000006
68,901.2822270000006,1912.94873,132.82031300000017,183.0771479999994,30.769043000000238,54.87158199999976,61.79492200000004,81.79492200000004,37.43603499999972,140.38476599999922,228.58984400000008,226.9228520000006,3501.2822269999997,111.15380900000036
69,922.8203130000002,1946.6665039999998,136.6665039999998,182.94873000000007,30.384765999999217,53.846190999999635,63.0771479999994,83.0771479999994,37.17968800000017,141.15380900000036,228.20507799999996,228.9741210000002,3502.05127,113.3334960000002
70,941.9228520000006,1982.94873,140.89746099999957,186.9228520000006,33.0771479999994,56.153809000000365,68.58984400000008,83.9741210000002,36.153809000000365,139.23095699999976,230.12841800000024,233.84619099999964,3501.6665040000007,113.46142599999985
71,949.4873049999997,2006.0258789999998,143.20507799999996,191.53857400000015,37.82031300000017,62.69238299999961,76.15380900000036,84.61523400000078,35.64111300000059,138.0771479999994,234.48730499999965,237.6923829999996,3502.8203129999993,109.23095699999976
72,944.3588869999994,2007.6923829999996,143.3334960000002,193.84619099999964,42.69238299999961,70.51269500000035,81.53857400000015,85.12841800000024,35.897460999999566,140.38476599999922,238.84619099999964,238.0771479999994,3505.384765999999,106.6665039999998
73,935.5126950000003,1988.8461909999996,142.43603499999972,192.17968800000017,45.76904300000024,73.7177729999994,81.53857400000015,85.64111300000059,36.53857400000015,144.7436520000001,240.12841800000024,235.76904300000024,3506.0258790000007,110.25634799999989
74,933.205078,1958.205078,141.79492200000004,187.56396500000028,47.05126999999993,68.84619099999964,76.15380900000036,85.89746099999957,36.2822270000006,147.05126999999993,237.6923829999996,233.46142599999985,3503.205078,115.38476599999922
75,938.9741210000002,1928.9741210000002,141.53857400000015,182.43603499999972,47.30761700000039,58.333496000000196,69.10253900000043,85.64111300000059,34.61523400000078,144.3588869999994,232.82031300000017,232.3076170000004,3502.1796879999993,115.89746099999957
76,945.8974609999996,1911.794922,141.0258789999998,179.48730499999965,46.2822270000006,48.46142599999985,62.94873000000007,83.9741210000002,31.282227000000603,136.41015599999992,226.9228520000006,230.51269500000035,3507.6923829999996,113.3334960000002
77,948.4614259999998,1908.9741210000002,138.9741210000002,179.7436520000001,43.0771479999994,45.25634799999989,58.7177729999994,79.87158199999976,26.538574000000153,125.89746099999957,220.51269500000035,225.51269500000035,3516.2822269999997,112.56396500000028
78,950.3847659999992,1913.4614259999998,135.89746099999957,182.82031300000017,39.23095699999976,49.87158199999976,56.153809000000365,73.46142599999985,21.538574000000153,117.56396500000028,214.87158199999976,217.56396500000028,3517.8203129999993,113.58984400000008
79,958.3334960000002,1914.743652,134.3588869999994,186.79492200000004,38.7177729999994,59.23095699999976,56.410155999999915,67.43603499999972,18.461425999999847,113.7177729999994,212.17968800000017,211.0258789999998,3508.589844,112.69238299999961
80,970.2563479999999,1905.7690430000002,136.53857400000015,189.10253900000043,42.82031300000017,67.05126999999993,60.64111300000059,65.25634799999989,19.358886999999413,113.0771479999994,212.6923829999996,210.12841800000024,3494.230956999999,111.53857400000015
81,974.2309569999998,1886.5385740000002,141.41015599999992,187.94873000000007,48.974121000000196,69.35888699999941,68.0771479999994,68.20507799999996,23.974121000000196,111.41015599999992,215.12841800000024,214.48730499999965,3480.384765999999,114.35888699999941
82,961.1538090000004,1863.7177729999994,144.61523400000078,183.84619099999964,53.7177729999994,67.69238299999961,75.64111300000059,74.48730499999965,30.0,107.69238299999961,217.6923829999996,219.10253900000043,3465.769043000001,118.46142599999985
83,934.2309569999998,1845.256348,143.7177729999994,179.23095699999976,57.17968800000017,66.9228520000006,80.64111300000059,81.2822270000006,35.0,105.64111300000059,218.58984400000008,219.23095699999976,3447.3076170000004,117.30761700000039
84,905.6411130000006,1834.3588869999994,139.7436520000001,176.15380900000036,61.410155999999915,69.87158199999976,81.53857400000015,85.76904300000024,37.17968800000017,108.84619099999964,214.87158199999976,213.3334960000002,3426.794922,110.76904300000024
85,885.5126950000003,1826.0258789999998,135.38476599999922,173.7177729999994,66.15380900000036,74.23095699999976,78.20507799999996,85.76904300000024,36.153809000000365,115.25634799999989,203.7177729999994,203.20507799999996,3404.4873049999997,106.79492200000004
86,875.7690430000002,1811.0258789999998,132.56396500000028,169.87158199999976,68.20507799999996,75.76904300000024,72.56396500000028,81.53857400000015,33.20507799999996,118.3334960000002,186.15380900000036,192.6923829999996,3372.1796879999993,108.84619099999964
87,871.2822270000006,1784.3588869999994,132.05126999999993,164.23095699999976,66.9228520000006,74.74365200000011,69.23095699999976,76.53857400000015,31.282227000000603,114.10253900000043,168.58984400000008,185.6411130000006,3322.6923829999996,112.05126999999993
88,864.1025390000004,1747.6923829999996,133.7177729999994,159.48730499999965,65.25634799999989,75.51269500000035,72.05126999999993,75.25634799999989,32.30761700000039,106.0258789999998,158.58984400000008,183.84619099999964,3258.589844,112.56396500000028
89,848.7177729999994,1705.7690430000002,135.6411130000006,157.43603499999972,64.61523400000078,80.25634799999989,78.84619099999964,77.82031300000017,35.0,100.76904300000024,158.7177729999994,184.48730499999965,3188.0771480000003,113.20507799999996
90,826.5385740000002,1661.0258789999998,134.23095699999976,157.82031300000017,62.17968800000017,85.76904300000024,80.76904300000024,79.35888699999941,35.51269500000035,101.15380900000036,166.15380900000036,181.41015599999992,3108.4614260000008,116.0258789999998
91,807.3076170000004,1613.9741210000002,127.56396500000028,158.84619099999964,54.61523400000078,86.2822270000006,70.64111300000059,75.0,31.282227000000603,103.9741210000002,176.2822270000006,171.79492200000004,3005.384765999999,116.53857400000015
92,799.8715819999998,1563.8461909999996,118.84619099999964,158.3334960000002,44.74365200000011,79.74365200000011,52.82031300000017,65.76904300000024,24.871581999999762,102.69238299999961,184.23095699999976,159.3588869999994,2868.589844,112.17968800000017
93,800.3847659999992,1510.1284180000002,114.48730499999965,155.0,41.53857400000015,71.41015599999992,42.69238299999961,59.35888699999941,22.56396500000028,94.87158199999976,184.87158199999976,151.79492200000004,2701.410156,107.69238299999961
94,794.3588869999994,1451.6665039999998,119.23095699999976,148.46142599999985,53.333496000000196,70.25634799999989,54.23095699999976,63.46142599999985,29.102539000000434,84.87158199999976,175.51269500000035,154.23095699999976,2513.974121,108.46142599999985
95,769.8715819999998,1385.3847659999992,131.41015599999992,140.12841800000024,79.35888699999941,82.30761700000039,87.05126999999993,78.9741210000002,44.48730499999965,81.79492200000004,159.48730499999965,165.2563479999999,2315.1284180000002,111.53857400000015
96,727.1796880000002,1305.8974609999996,143.84619099999964,132.17968800000017,107.43603499999972,103.3334960000002,122.17968800000017,97.69238299999961,62.56396500000028,90.25634799999989,145.12841800000024,176.41015599999992,2112.94873,111.53857400000015
97,676.1538090000004,1207.8203130000002,147.56396500000028,125.12841800000024,118.58984400000008,118.46142599999985,134.48730499999965,106.79492200000004,74.23095699999976,102.94873000000007,139.48730499999965,176.6665039999998,1917.4360349999997,109.74365200000011
98,626.9228520000006,1091.794922,137.05126999999993,117.56396500000028,100.12841800000024,113.20507799999996,111.15380900000036,97.56396500000028,72.82031300000017,105.0,142.82031300000017,159.3588869999994,1735.8974609999996,111.0258789999998
99,586.9228520000006,971.0258789999998,115.12841800000024,109.23095699999976,57.94873000000007,86.53857400000015,63.7177729999994,73.20507799999996,60.76904300000024,88.3334960000002,151.15380900000036,129.10253900000043,1568.8461909999996,113.84619099999964
100,561.9228520000006,865.7690430000002,93.7177729999994,102.94873000000007,16.538574000000153,55.25634799999989,21.794922000000042,49.23095699999976,49.35888699999941,61.9228520000006,161.2822270000006,101.9228520000006,1414.1025390000004,113.20507799999996
101,552.6923829999996,789.6152340000008,86.79492200000004,102.43603499999972,3.4614259999998467,41.025878999999804,11.794922000000042,42.43603499999972,50.25634799999989,45.64111300000059,170.51269500000035,94.74365200000011,1272.94873,110.12841800000024
102,551.1538090000004,738.7177729999994,99.48730499999965,107.69238299999961,28.461425999999847,53.846190999999635,38.0771479999994,58.589844000000085,66.79492200000004,53.20507799999996,175.2563479999999,112.05126999999993,1147.5639650000003,110.25634799999989
103,542.5639650000003,695.8974609999996,122.94873000000007,113.20507799999996,75.89746099999957,84.35888699999941,80.64111300000059,86.9228520000006,90.76904300000024,79.61523400000078,170.6411130000006,140.51269500000035,1033.9741210000002,113.46142599999985
104,514.4873049999997,644.4873049999997,140.89746099999957,112.17968800000017,116.6665039999998,112.30761700000039,110.76904300000024,109.23095699999976,109.23095699999976,106.15380900000036,154.10253900000043,159.3588869999994,920.2563479999999,113.20507799999996
105,467.3076170000004,579.2309569999998,142.17968800000017,101.41015599999992,129.10253900000043,122.05126999999993,111.41015599999992,112.94873000000007,113.9741210000002,114.61523400000078,128.20507799999996,154.7436520000001,795.8974609999996,107.82031300000017
106,414.48730499999965,508.9741210000002,128.20507799999996,85.38476599999922,113.46142599999985,112.30761700000039,88.58984400000008,99.35888699999941,106.15380900000036,99.61523400000078,100.38476599999922,130.0,660.6411130000006,103.9741210000002
107,375.12841800000024,450.12841800000024,110.76904300000024,72.69238299999961,89.87158199999976,95.76904300000024,64.87158199999976,81.6665039999998,95.25634799999989,71.41015599999992,79.87158199999976,101.9228520000006,527.1796880000002,105.76904300000024
108,363.46142599999985,416.2822270000006,103.58984400000008,70.38476599999922,82.05126999999993,88.9741210000002,61.79492200000004,75.0,92.43603499999972,49.23095699999976,75.12841800000024,89.10253900000043,412.94873000000007,108.9741210000002
109,380.6411130000006,409.87158199999976,112.43603499999972,79.61523400000078,101.0258789999998,100.25634799999989,84.23095699999976,85.38476599999922,102.94873000000007,48.974121000000196,90.12841800000024,99.35888699999941,328.84619099999964,109.10253900000043
110,413.84619099999964,420.3847659999992,132.43603499999972,94.74365200000011,137.3076170000004,122.82031300000017,118.46142599999985,106.15380900000036,122.43603499999972,72.05126999999993,119.23095699999976,125.38476599999922,271.0258789999998,108.7177729999994
111,442.6923829999996,429.23095699999976,149.87158199999976,106.2822270000006,169.23095699999976,140.89746099999957,143.9741210000002,123.58984400000008,139.87158199999976,105.0,146.6665039999998,148.7177729999994,222.05126999999993,110.64111300000059
112,450.51269500000035,419.7436520000001,152.56396500000028,106.15380900000036,177.82031300000017,141.2822270000006,146.53857400000015,126.2822270000006,145.12841800000024,127.82031300000017,154.7436520000001,152.43603499999972,161.53857400000015,111.41015599999992
113,434.23095699999976,386.6665039999998,138.7177729999994,93.9741210000002,159.87158199999976,123.7177729999994,126.6665039999998,113.0771479999994,136.41015599999992,127.56396500000028,138.46142599999985,132.56396500000028,80.0,107.82031300000017
114,407.3076170000004,339.10253900000043,117.94873000000007,77.17968800000017,129.10253900000043,99.10253900000043,97.17968800000017,93.0771479999994,120.64111300000059,106.0258789999998,111.0258789999998,100.89746099999957,-14.743652000000111,104.35888699999941
115,392.05126999999993,294.48730499999965,104.35888699999941,67.17968800000017,106.15380900000036,82.30761700000039,75.38476599999922,79.23095699999976,108.46142599999985,77.43603499999972,92.82031300000017,76.79492200000004,-103.33325200000036,106.53857400000015
116,403.7177729999994,268.3334960000002,105.38476599999922,70.12841800000024,105.76904300000024,82.05126999999993,72.94873000000007,79.61523400000078,107.69238299999961,58.974121000000196,95.89746099999957,72.94873000000007,-168.20507799999996,111.53857400000015
117,439.23095699999976,262.82031300000017,117.94873000000007,82.05126999999993,127.56396500000028,96.6665039999998,88.7177729999994,92.94873000000007,118.3334960000002,59.74365200000011,115.25634799999989,87.69238299999961,-206.41015600000037,112.05126999999993
118,478.5898440000001,265.51269500000035,131.41015599999992,93.0771479999994,156.0258789999998,115.12841800000024,110.0,109.35888699999941,132.82031300000017,75.38476599999922,134.61523400000078,106.15380900000036,-231.66674799999964,108.3334960000002
119,500.6411130000006,259.3588869999994,135.89746099999957,95.12841800000024,172.43603499999972,123.9741210000002,121.2822270000006,117.56396500000028,141.79492200000004,91.41015599999992,138.58984400000008,112.17968800000017,-263.46142599999985,106.9228520000006
120,498.20507799999996,236.9228520000006,128.9741210000002,87.69238299999961,168.46142599999985,118.0771479999994,116.41015599999992,114.23095699999976,141.41015599999992,94.61523400000078,123.9741210000002,100.12841800000024,-312.5642090000006,108.9741210000002
121,481.0258789999998,206.2822270000006,116.2822270000006,77.17968800000017,151.53857400000015,103.9741210000002,102.30761700000039,104.74365200000011,134.61523400000078,82.56396500000028,100.25634799999989,78.20507799999996,-373.076904,109.61523400000078
122,465.76904300000024,182.6923829999996,106.79492200000004,71.15380900000036,137.43603499999972,93.46142599999985,92.43603499999972,98.3334960000002,128.58984400000008,64.74365200000011,82.43603499999972,60.897460999999566,-429.8718259999996,107.69238299999961
123,463.0771479999994,174.23095699999976,105.12841800000024,72.17968800000017,136.9228520000006,94.23095699999976,94.48730499999965,100.25634799999989,128.3334960000002,53.589844000000085,79.61523400000078,57.56396500000028,-472.4357909999994,108.0771479999994
124,472.17968800000017,177.05126999999993,109.10253900000043,77.30761700000039,149.23095699999976,104.74365200000011,106.2822270000006,108.20507799999996,133.7177729999994,55.897460999999566,90.0,65.76904300000024,-502.6923829999996,111.79492200000004
125,485.0,179.7436520000001,112.94873000000007,81.41015599999992,164.87158199999976,117.43603499999972,118.9741210000002,116.0258789999998,140.89746099999957,68.46142599999985,104.10253900000043,75.12841800000024,-531.4101560000004,113.0771479999994
126,493.9741210000002,174.23095699999976,113.46142599999985,82.05126999999993,174.48730499999965,125.64111300000059,125.51269500000035,119.35888699999941,145.89746099999957,82.94873000000007,112.94873000000007,77.30761700000039,-568.076904,109.74365200000011
127,495.0,159.3588869999994,111.9228520000006,79.87158199999976,174.61523400000078,127.43603499999972,124.74365200000011,118.20507799999996,147.17968800000017,90.89746099999957,112.69238299999961,71.2822270000006,-613.974365,107.17968800000017
128,488.46142599999985,138.84619099999964,109.87158199999976,77.30761700000039,168.84619099999964,124.87158199999976,119.61523400000078,114.61523400000078,145.2563479999999,88.9741210000002,105.0,61.410155999999915,-663.205078,110.0
129,477.82031300000017,116.0258789999998,107.56396500000028,75.51269500000035,162.94873000000007,121.6665039999998,114.23095699999976,110.76904300000024,141.6665039999998,79.87158199999976,93.9741210000002,52.17968800000017,-708.974365,113.7177729999994
130,466.2822270000006,92.69238299999961,104.23095699999976,74.87158199999976,160.38476599999922,120.0,111.53857400000015,107.82031300000017,137.82031300000017,68.7177729999994,83.9741210000002,46.2822270000006,-748.5898440000001,113.0771479999994
131,455.51269500000035,69.23095699999976,100.25634799999989,74.74365200000011,160.6411130000006,120.0,111.41015599999992,105.76904300000024,134.61523400000078,59.48730499999965,77.05126999999993,43.846190999999635,-783.5898440000001,110.25634799999989
132,445.6411130000006,47.43603499999972,96.9228520000006,74.61523400000078,161.79492200000004,119.87158199999976,112.17968800000017,104.87158199999976,132.82031300000017,53.46142599999985,73.58984400000008,43.46142599999985,-816.923096,110.25634799999989
133,436.79492200000004,31.410155999999915,95.76904300000024,74.23095699999976,163.9741210000002,119.48730499999965,113.58984400000008,105.76904300000024,133.3334960000002,51.025878999999804,72.82031300000017,43.974121000000196,-848.974365,111.15380900000036
134,429.48730499999965,23.077147999999397,97.05126999999993,73.46142599999985,167.82031300000017,120.25634799999989,116.6665039999998,109.23095699999976,136.0258789999998,52.56396500000028,73.3334960000002,44.61523400000078,-877.6923829999996,109.35888699999941
135,422.05126999999993,18.589844000000085,100.0,72.69238299999961,171.2822270000006,123.46142599999985,121.41015599999992,113.9741210000002,139.7436520000001,57.82031300000017,72.30761700000039,43.846190999999635,-903.4614260000003,107.43603499999972
136,411.53857400000015,9.871581999999762,101.6665039999998,72.17968800000017,170.2563479999999,127.43603499999972,126.15380900000036,117.56396500000028,141.53857400000015,63.974121000000196,67.56396500000028,40.12841800000024,-930.2563479999999,111.0258789999998
137,396.4101559999999,-8.076904000000013,99.74365200000011,71.15380900000036,163.84619099999964,129.3588869999994,128.46142599999985,117.30761700000039,139.48730499999965,67.17968800000017,60.0,33.589844000000085,-961.6667480000001,117.56396500000028
138,379.48730499999965,-31.666747999999643,94.61523400000078,69.23095699999976,156.79492200000004,128.46142599999985,127.82031300000017,114.35888699999941,135.2563479999999,65.76904300000024,53.20507799999996,26.794922000000042,-995.7692870000001,118.7177729999994
139,365.76904300000024,-51.153809000000365,90.25634799999989,67.69238299999961,155.76904300000024,126.53857400000015,127.05126999999993,112.05126999999993,133.0771479999994,61.9228520000006,51.025878999999804,24.102539000000434,-1025.384521,113.0771479999994
140,358.46142599999985,-59.61547900000005,90.51269500000035,68.20507799999996,163.0771479999994,125.76904300000024,128.84619099999964,113.7177729999994,135.51269500000035,59.87158199999976,53.589844000000085,27.82031300000017,-1044.4870609999998,107.94873000000007
141,356.4101559999999,-57.30761700000039,95.25634799999989,71.79492200000004,174.3588869999994,127.05126999999993,133.58984400000008,119.10253900000043,141.79492200000004,62.94873000000007,57.43603499999972,35.897460999999566,-1053.974365,108.0771479999994
142,356.79492200000004,-51.53857400000015,101.0258789999998,77.17968800000017,182.6923829999996,130.38476599999922,139.61523400000078,125.0,148.46142599999985,71.0258789999998,59.23095699999976,43.0771479999994,-1060.769287,110.38476599999922
143,355.2563479999999,-50.51293900000019,104.61523400000078,81.41015599999992,183.20507799999996,133.9741210000002,143.58984400000008,127.69238299999961,151.9228520000006,80.0,57.56396500000028,45.51269500000035,-1073.333252,111.41015599999992
144,347.17968800000017,-59.61547900000005,104.48730499999965,81.79492200000004,175.0,135.89746099999957,142.94873000000007,126.15380900000036,150.12841800000024,83.46142599999985,52.43603499999972,42.05126999999993,-1097.05127,112.94873000000007
145,330.51269500000035,-77.43579099999943,101.15380900000036,77.17968800000017,162.43603499999972,134.61523400000078,137.43603499999972,121.2822270000006,143.84619099999964,77.69238299999961,45.25634799999989,33.974121000000196,-1129.615479,115.38476599999922
146,309.23095699999976,-96.53857400000015,95.89746099999957,70.0,152.82031300000017,131.15380900000036,129.7436520000001,116.15380900000036,136.53857400000015,65.76904300000024,38.974121000000196,24.74365200000011,-1161.923096,114.61523400000078
147,291.2822270000006,-108.71801800000003,91.53857400000015,65.25634799999989,152.56396500000028,129.10253900000043,124.61523400000078,113.84619099999964,131.9228520000006,56.025878999999804,36.53857400000015,18.717772999999397,-1184.3588870000003,108.9741210000002
148,282.3076170000004,-111.41015600000037,90.64111300000059,67.05126999999993,161.0258789999998,130.2563479999999,125.0,115.51269500000035,131.6665039999998,54.102539000000434,38.7177729999994,18.589844000000085,-1194.3588870000003,105.0
149,280.89746099999957,-109.23071300000038,93.0771479999994,74.87158199999976,171.15380900000036,133.3334960000002,129.87158199999976,118.84619099999964,133.9741210000002,57.94873000000007,43.846190999999635,23.077147999999397,-1198.4614260000003,108.20507799999996
150,281.4101559999999,-108.97436500000003,95.89746099999957,83.20507799999996,175.89746099999957,135.38476599999922,135.38476599999922,121.0258789999998,135.76904300000024,60.76904300000024,49.61523400000078,28.461425999999847,-1204.102539,113.9741210000002
151,279.6152340000008,-113.84619099999964,97.05126999999993,87.05126999999993,173.46142599999985,135.6411130000006,138.20507799999996,120.76904300000024,135.76904300000024,57.56396500000028,55.51269500000035,32.05126999999993,-1213.589844,114.61523400000078
152,273.9741210000002,-122.69238299999961,96.41015599999992,85.38476599999922,167.56396500000028,134.48730499999965,137.05126999999993,118.84619099999964,134.3588869999994,49.61523400000078,61.153809000000365,33.589844000000085,-1223.974365,111.2822270000006
153,265.0,-133.84619099999964,95.64111300000059,81.41015599999992,161.79492200000004,132.3076170000004,133.0771479999994,116.79492200000004,132.56396500000028,42.17968800000017,63.7177729999994,33.333496000000196,-1231.153809,110.76904300000024
154,254.23095699999976,-145.2563479999999,95.51269500000035,79.48730499999965,157.94873000000007,130.2563479999999,129.61523400000078,116.41015599999992,131.0258789999998,40.51269500000035,60.51269500000035,32.30761700000039,-1234.4870609999998,113.3334960000002
155,245.12841800000024,-154.35888699999987,96.15380900000036,81.79492200000004,157.05126999999993,129.87158199999976,129.61523400000078,118.0771479999994,130.2563479999999,46.2822270000006,51.79492200000004,31.922852000000603,-1236.153809,114.10253900000043
156,239.7436520000001,-159.4870609999998,97.94873000000007,86.79492200000004,158.9741210000002,132.17968800000017,133.84619099999964,121.0258789999998,130.6411130000006,56.53857400000015,42.69238299999961,33.974121000000196,-1239.4870609999998,112.30761700000039
157,237.43603499999972,-160.64111300000013,100.51269500000035,89.87158199999976,162.17968800000017,135.2563479999999,139.10253900000043,123.3334960000002,131.79492200000004,65.25634799999989,38.974121000000196,38.7177729999994,-1246.153809,112.43603499999972
158,235.38476599999922,-159.61547900000005,102.05126999999993,88.46142599999985,164.87158199999976,136.6665039999998,141.0258789999998,123.0771479999994,132.94873000000007,68.7177729999994,43.46142599999985,43.7177729999994,-1253.718018,114.74365200000011
159,232.05126999999993,-157.3076170000004,101.6665039999998,84.74365200000011,167.05126999999993,136.53857400000015,138.7177729999994,121.0258789999998,134.10253900000043,68.46142599999985,54.48730499999965,46.9228520000006,-1256.5385739999997,114.10253900000043
160,228.20507799999996,-155.0,100.51269500000035,83.7177729999994,170.12841800000024,137.56396500000028,134.87158199999976,119.23095699999976,135.38476599999922,69.35888699999941,66.15380900000036,48.46142599999985,-1251.025635,109.74365200000011
161,223.84619099999964,-155.1281740000004,100.51269500000035,87.56396500000028,173.9741210000002,140.89746099999957,133.20507799999996,119.35888699999941,136.6665039999998,73.20507799999996,72.05126999999993,49.48730499999965,-1241.410156,107.82031300000017
162,217.94873000000007,-160.5129390000002,101.9228520000006,93.84619099999964,176.41015599999992,144.87158199999976,134.87158199999976,121.0258789999998,137.3076170000004,77.56396500000028,70.38476599999922,50.38476599999922,-1235.897461,111.15380900000036
163,210.0,-170.89746100000002,103.84619099999964,97.82031300000017,175.51269500000035,146.6665039999998,139.10253900000043,123.3334960000002,137.17968800000017,79.35888699999941,66.0258789999998,51.666503999999804,-1239.615479,113.7177729999994
164,201.79492200000004,-182.3076170000004,105.12841800000024,97.17968800000017,170.6411130000006,145.6411130000006,143.20507799999996,125.51269500000035,136.79492200000004,77.94873000000007,65.89746099999957,54.35888699999941,-1250.6411129999997,111.41015599999992
165,194.7436520000001,-191.41015600000037,105.51269500000035,93.0771479999994,163.46142599999985,142.43603499999972,144.48730499999965,126.79492200000004,136.53857400000015,74.87158199999976,71.6665039999998,58.589844000000085,-1263.076904,108.84619099999964
166,188.58984400000008,-197.56420900000057,104.35888699999941,88.20507799999996,156.15380900000036,137.82031300000017,141.0258789999998,126.2822270000006,135.89746099999957,71.0258789999998,78.20507799999996,61.666503999999804,-1271.666748,110.76904300000024
167,182.56396500000028,-201.41015600000037,101.2822270000006,85.51269500000035,151.53857400000015,132.94873000000007,134.10253900000043,123.7177729999994,133.9741210000002,67.30761700000039,78.7177729999994,61.410155999999915,-1273.589844,113.9741210000002
168,177.43603499999972,-202.9487299999996,97.82031300000017,86.9228520000006,151.2822270000006,129.7436520000001,127.69238299999961,120.25634799999989,131.53857400000015,64.61523400000078,72.17968800000017,58.333496000000196,-1269.3588870000003,112.94873000000007
169,174.23095699999976,-202.6923829999996,96.9228520000006,91.41015599999992,154.61523400000078,129.3588869999994,125.89746099999957,117.82031300000017,130.38476599999922,63.7177729999994,63.589844000000085,56.025878999999804,-1263.205078,110.0
170,172.3076170000004,-202.820557,99.87158199999976,95.89746099999957,158.58984400000008,130.51269500000035,129.10253900000043,116.9228520000006,131.15380900000036,64.48730499999965,58.46142599999985,57.17968800000017,-1260.128174,110.76904300000024
171,169.7436520000001,-204.8718259999996,104.74365200000011,97.69238299999961,160.6411130000006,131.53857400000015,134.48730499999965,117.56396500000028,133.0771479999994,66.6665039999998,58.974121000000196,61.410155999999915,-1262.5642090000001,113.9741210000002
172,165.2563479999999,-207.9487299999996,108.58984400000008,96.79492200000004,160.6411130000006,132.17968800000017,138.46142599999985,119.10253900000043,134.87158199999976,70.64111300000059,63.333496000000196,65.89746099999957,-1267.179443,114.10253900000043
173,160.0,-209.4870609999998,109.87158199999976,95.25634799999989,160.0,132.94873000000007,139.10253900000043,121.2822270000006,135.38476599999922,76.9228520000006,67.30761700000039,68.7177729999994,-1268.205078,110.89746099999957
174,155.6411130000006,-207.9487299999996,109.48730499999965,95.0,159.7436520000001,133.84619099999964,136.9228520000006,123.0771479999994,135.0,84.23095699999976,69.61523400000078,69.74365200000011,-1262.6923829999996,109.74365200000011
175,153.20507799999996,-204.61547900000005,108.46142599999985,95.76904300000024,160.38476599999922,134.61523400000078,133.84619099999964,123.84619099999964,134.10253900000043,91.15380900000036,71.79492200000004,70.38476599999922,-1252.05127,111.41015599999992
176,152.43603499999972,-201.923096,107.94873000000007,96.6665039999998,161.79492200000004,135.2563479999999,132.3076170000004,124.10253900000043,134.10253900000043,96.53857400000015,76.6665039999998,71.79492200000004,-1241.5385739999997,111.15380900000036
177,151.2822270000006,-203.46142599999985,107.56396500000028,97.30761700000039,162.56396500000028,135.38476599999922,133.0771479999994,124.10253900000043,135.12841800000024,98.7177729999994,83.0771479999994,73.7177729999994,-1236.794922,108.20507799999996
178,146.15380900000036,-211.28198199999997,106.53857400000015,97.56396500000028,161.0258789999998,134.48730499999965,134.7436520000001,123.46142599999985,135.6411130000006,95.51269500000035,85.38476599999922,73.7177729999994,-1241.5385739999997,107.43603499999972
179,135.76904300000024,-223.20507799999996,103.58984400000008,97.56396500000028,156.9228520000006,132.94873000000007,134.87158199999976,121.15380900000036,133.84619099999964,87.17968800000017,79.61523400000078,70.25634799999989,-1254.3588870000003,110.51269500000035
180,123.20507799999996,-233.20507799999996,99.48730499999965,97.30761700000039,152.94873000000007,132.94873000000007,132.82031300000017,117.56396500000028,130.0,77.69238299999961,68.84619099999964,64.87158199999976,-1268.4614260000003,112.05126999999993
181,113.46142599999985,-235.89746100000002,97.30761700000039,97.17968800000017,152.6923829999996,135.76904300000024,130.51269500000035,115.0,127.17968800000017,73.0771479999994,62.05126999999993,61.666503999999804,-1276.410156,109.35888699999941
182,108.3334960000002,-232.43579099999943,98.46142599999985,97.30761700000039,156.53857400000015,139.87158199999976,129.87158199999976,115.64111300000059,127.43603499999972,75.12841800000024,64.23095699999976,62.56396500000028,-1275.897461,107.43603499999972
183,105.12841800000024,-229.61547900000005,101.41015599999992,97.17968800000017,161.15380900000036,141.9228520000006,131.0258789999998,118.84619099999964,130.2563479999999,80.64111300000059,72.05126999999993,65.51269500000035,-1271.410156,110.12841800000024
184,100.0,-233.076904,102.43603499999972,96.2822270000006,162.17968800000017,140.6411130000006,132.94873000000007,121.9228520000006,133.20507799999996,84.87158199999976,76.15380900000036,66.53857400000015,-1268.333252,113.3334960000002
185,91.41015599999992,-242.9487299999996,99.87158199999976,94.48730499999965,158.46142599999985,137.43603499999972,133.7177729999994,122.69238299999961,133.84619099999964,84.10253900000043,70.38476599999922,63.46142599999985,-1268.718018,112.05126999999993
186,79.61523400000078,-255.5129390000002,94.74365200000011,91.53857400000015,150.89746099999957,133.84619099999964,131.9228520000006,120.12841800000024,130.76904300000024,78.20507799999996,56.153809000000365,57.43603499999972,-1271.281982,108.84619099999964
187,66.41015599999992,-266.79492200000004,89.10253900000043,87.82031300000017,141.79492200000004,129.87158199999976,127.05126999999993,114.87158199999976,124.61523400000078,68.9741210000002,40.897460999999566,51.666503999999804,-1274.3588870000003,109.48730499999965
188,55.25634799999989,-273.84619099999964,85.64111300000059,84.61523400000078,133.9741210000002,125.76904300000024,121.53857400000015,109.74365200000011,118.46142599999985,61.2822270000006,33.20507799999996,49.35888699999941,-1275.5129390000002,112.82031300000017
189,50.12841800000024,-274.61547900000005,86.2822270000006,84.23095699999976,130.89746099999957,123.0771479999994,119.23095699999976,108.58984400000008,116.15380900000036,60.64111300000059,36.9228520000006,51.9228520000006,-1271.410156,113.7177729999994
190,52.30761700000039,-269.8718259999996,91.6665039999998,88.0771479999994,134.23095699999976,123.84619099999964,122.69238299999961,113.20507799999996,119.48730499999965,69.23095699999976,48.7177729999994,58.7177729999994,-1260.897461,112.82031300000017
191,58.7177729999994,-262.9487299999996,99.48730499999965,94.35888699999941,141.2822270000006,127.05126999999993,129.7436520000001,121.2822270000006,125.76904300000024,83.20507799999996,60.0,66.9228520000006,-1246.5385739999997,114.10253900000043
192,63.846190999999635,-258.84619099999964,105.89746099999957,99.48730499999965,147.56396500000028,130.38476599999922,135.12841800000024,127.30761700000039,130.12841800000024,94.61523400000078,64.35888699999941,72.82031300000017,-1233.333252,116.53857400000015
193,64.23095699999976,-259.2307130000004,107.56396500000028,100.38476599999922,150.6411130000006,131.79492200000004,135.0,127.17968800000017,129.7436520000001,97.69238299999961,62.94873000000007,74.74365200000011,-1225.128174,114.48730499999965
194,59.35888699999941,-263.20507799999996,104.74365200000011,96.79492200000004,150.6411130000006,130.76904300000024,129.10253900000043,121.6665039999998,125.38476599999922,92.43603499999972,62.30761700000039,73.58984400000008,-1221.666748,108.3334960000002
195,50.51269500000035,-268.84619099999964,99.87158199999976,91.2822270000006,148.3334960000002,127.17968800000017,120.64111300000059,115.12841800000024,119.74365200000011,83.46142599999985,65.76904300000024,70.76904300000024,-1220.769287,105.25634799999989
196,40.51269500000035,-274.7436520000001,94.87158199999976,87.69238299999961,143.20507799999996,122.30761700000039,112.94873000000007,111.0258789999998,115.64111300000059,76.15380900000036,69.23095699999976,66.53857400000015,-1219.615479,107.94873000000007
197,32.82031300000017,-279.2307130000004,91.41015599999992,88.7177729999994,136.41015599999992,119.10253900000043,109.23095699999976,110.51269500000035,114.48730499999965,73.46142599999985,66.0258789999998,61.410155999999915,-1215.897461,111.0258789999998
198,30.128418000000238,-280.0,91.15380900000036,93.3334960000002,131.2822270000006,120.38476599999922,110.38476599999922,112.30761700000039,115.89746099999957,74.35888699999941,55.25634799999989,57.69238299999961,-1208.333252,110.76904300000024
199,31.538574000000153,-276.15380900000036,94.61523400000078,98.0771479999994,130.51269500000035,125.25634799999989,114.87158199999976,114.61523400000078,118.20507799999996,76.41015599999992,43.333496000000196,58.333496000000196,-1198.205078,110.0
200,33.589844000000085,-269.7436520000001,99.61523400000078,99.23095699999976,134.48730499999965,129.87158199999976,119.87158199999976,115.76904300000024,119.74365200000011,77.82031300000017,38.46142599999985,63.589844000000085,-1188.205078,111.41015599999992
201,33.333496000000196,-263.71801800000003,102.69238299999961,96.6665039999998,140.76904300000024,131.15380900000036,123.20507799999996,115.64111300000059,120.38476599999922,78.84619099999964,43.589844000000085,70.89746099999957,-1179.615479,111.53857400000015
202,31.025878999999804,-260.5129390000002,102.82031300000017,93.58984400000008,146.9228520000006,129.7436520000001,124.61523400000078,115.12841800000024,121.15380900000036,81.53857400000015,55.0,76.9228520000006,-1172.05127,107.82031300000017
203,27.82031300000017,-260.5129390000002,101.79492200000004,92.56396500000028,150.12841800000024,127.69238299999961,125.0,115.38476599999922,122.56396500000028,86.79492200000004,64.87158199999976,79.74365200000011,-1165.128174,105.51269500000035
204,23.846190999999635,-263.97436500000003,101.2822270000006,93.58984400000008,148.20507799999996,126.41015599999992,124.23095699999976,115.89746099999957,123.58984400000008,92.69238299999961,67.30761700000039,79.23095699999976,-1159.871826,109.61523400000078
205,18.717772999999397,-270.2563479999999,101.15380900000036,93.9741210000002,141.41015599999992,125.76904300000024,121.9228520000006,115.38476599999922,123.20507799999996,95.64111300000059,62.43603499999972,76.6665039999998,-1157.05127,116.0258789999998
206,13.077147999999397,-277.4357909999994,100.64111300000059,92.69238299999961,132.43603499999972,125.38476599999922,118.20507799999996,113.58984400000008,121.15380900000036,94.48730499999965,55.51269500000035,74.48730499999965,-1155.128174,117.43603499999972
207,8.846190999999635,-282.3076170000004,99.74365200000011,90.64111300000059,125.38476599999922,124.74365200000011,114.48730499999965,111.6665039999998,118.58984400000008,92.05126999999993,51.79492200000004,74.74365200000011,-1151.025635,114.48730499999965
208,7.820313000000169,-282.6923829999996,99.35888699999941,90.12841800000024,123.0771479999994,124.10253900000043,112.69238299999961,111.2822270000006,116.9228520000006,91.2822270000006,52.69238299999961,77.94873000000007,-1143.205078,112.82031300000017
209,10.256347999999889,-277.5642090000006,99.48730499999965,92.69238299999961,126.53857400000015,124.35888699999941,114.23095699999976,113.20507799999996,117.30761700000039,93.46142599999985,56.53857400000015,82.43603499999972,-1132.05127,113.3334960000002
210,15.512695000000349,-268.46142599999985,100.12841800000024,97.69238299999961,135.12841800000024,126.6665039999998,119.23095699999976,116.6665039999998,120.12841800000024,97.56396500000028,61.666503999999804,86.41015599999992,-1120.0,112.17968800000017
211,20.769043000000238,-259.2307130000004,101.9228520000006,102.82031300000017,145.38476599999922,130.12841800000024,126.2822270000006,120.38476599999922,124.10253900000043,101.15380900000036,67.69238299999961,89.10253900000043,-1109.3588870000003,109.74365200000011
212,22.56396500000028,-254.35888699999987,104.87158199999976,105.38476599999922,151.9228520000006,131.9228520000006,132.56396500000028,122.82031300000017,127.05126999999993,102.82031300000017,73.46142599999985,90.64111300000059,-1102.4357909999999,111.0258789999998
213,19.358886999999413,-255.64111300000013,107.17968800000017,103.9741210000002,151.41015599999992,130.38476599999922,135.38476599999922,123.46142599999985,127.17968800000017,102.43603499999972,76.0258789999998,90.64111300000059,-1098.718018,115.25634799999989
214,13.205077999999958,-261.02563499999997,106.79492200000004,99.61523400000078,145.6411130000006,127.05126999999993,134.23095699999976,122.56396500000028,124.87158199999976,101.6665039999998,72.94873000000007,88.9741210000002,-1095.897461,116.41015599999992
215,6.922852000000603,-266.28198199999997,103.84619099999964,95.25634799999989,138.84619099999964,124.23095699999976,129.87158199999976,120.51269500000035,121.9228520000006,101.6665039999998,63.974121000000196,85.76904300000024,-1091.923096,112.82031300000017
216,2.3076170000003913,-269.35888699999987,100.12841800000024,92.82031300000017,134.61523400000078,122.69238299999961,123.84619099999964,117.43603499999972,119.87158199999976,101.0258789999998,52.43603499999972,81.2822270000006,-1087.3076170000004,110.25634799999989
217,-1.5385740000001533,-270.0,97.43603499999972,91.9228520000006,133.46142599999985,122.30761700000039,118.7177729999994,114.10253900000043,119.61523400000078,98.20507799999996,43.846190999999635,77.05126999999993,-1083.846191,112.17968800000017
218,-4.61547900000005,-269.2307130000004,96.6665039999998,91.41015599999992,135.38476599999922,123.46142599999985,117.05126999999993,112.17968800000017,121.15380900000036,95.12841800000024,42.82031300000017,75.12841800000024,-1082.05127,113.46142599999985
219,-6.538574000000153,-267.9487299999996,97.94873000000007,91.2822270000006,138.84619099999964,126.79492200000004,119.87158199999976,113.3334960000002,123.9741210000002,95.51269500000035,49.87158199999976,77.05126999999993,-1079.871826,110.38476599999922
220,-8.076904000000013,-267.5642090000006,100.64111300000059,92.30761700000039,141.0258789999998,130.89746099999957,124.74365200000011,117.05126999999993,126.53857400000015,101.0258789999998,60.0,81.41015599999992,-1076.666748,107.05126999999993
221,-10.38452099999995,-268.97436500000003,102.30761700000039,93.9741210000002,139.7436520000001,132.43603499999972,127.69238299999961,120.38476599999922,126.9228520000006,107.94873000000007,65.64111300000059,84.61523400000078,-1073.205078,108.0771479999994
222,-14.102538999999979,-270.64111300000013,101.15380900000036,94.87158199999976,135.38476599999922,130.38476599999922,126.41015599999992,120.89746099999957,124.48730499999965,111.53857400000015,62.94873000000007,84.23095699999976,-1069.871826,110.64111300000059
223,-18.076904000000013,-270.2563479999999,98.0771479999994,94.61523400000078,131.15380900000036,126.41015599999992,122.43603499999972,118.58984400000008,120.38476599999922,109.87158199999976,55.0,81.9228520000006,-1066.025635,109.74365200000011
224,-22.179442999999992,-267.9487299999996,95.38476599999922,94.23095699999976,129.10253900000043,122.43603499999972,118.7177729999994,115.0,116.9228520000006,104.23095699999976,48.46142599999985,80.64111300000059,-1061.153809,107.56396500000028
225,-27.435790999999426,-267.4357909999994,93.9741210000002,95.0,127.94873000000007,118.9741210000002,116.2822270000006,111.15380900000036,114.74365200000011,96.6665039999998,47.94873000000007,81.0258789999998,-1057.3076170000004,108.9741210000002
226,-33.46142599999985,-271.41015600000037,92.94873000000007,96.79492200000004,126.15380900000036,116.53857400000015,115.12841800000024,107.82031300000017,113.7177729999994,90.0,53.20507799999996,81.0258789999998,-1055.897461,112.17968800000017
227,-37.69238299999961,-277.179443,91.6665039999998,98.7177729999994,123.84619099999964,116.9228520000006,114.87158199999976,105.89746099999957,113.46142599999985,86.79492200000004,61.025878999999804,78.9741210000002,-1056.025635,111.53857400000015
228,-37.69238299999961,-279.61547900000005,91.2822270000006,100.25634799999989,121.9228520000006,120.89746099999957,115.51269500000035,106.79492200000004,114.10253900000043,88.9741210000002,66.9228520000006,76.15380900000036,-1054.3588870000003,107.69238299999961
229,-34.35888699999987,-276.02563499999997,92.82031300000017,100.76904300000024,120.89746099999957,125.51269500000035,116.53857400000015,110.0,115.38476599999922,95.0,67.05126999999993,74.61523400000078,-1048.718018,106.9228520000006
230,-30.38452099999995,-267.820557,95.38476599999922,99.87158199999976,120.25634799999989,126.6665039999998,117.94873000000007,113.46142599999985,116.53857400000015,101.6665039999998,61.153809000000365,75.25634799999989,-1039.3588870000003,110.12841800000024
231,-26.794922000000042,-257.820557,97.82031300000017,98.46142599999985,121.0258789999998,123.3334960000002,120.51269500000035,115.64111300000059,117.43603499999972,106.41015599999992,53.20507799999996,78.3334960000002,-1027.05127,112.05126999999993
232,-23.461425999999847,-248.46142599999985,99.74365200000011,98.20507799999996,125.25634799999989,119.48730499999965,124.61523400000078,117.30761700000039,118.9741210000002,109.10253900000043,49.87158199999976,83.9741210000002,-1013.4614260000003,110.89746099999957
233,-20.25634799999989,-241.66674799999964,101.9228520000006,100.38476599999922,133.20507799999996,119.61523400000078,128.84619099999964,119.10253900000043,121.0258789999998,110.89746099999957,55.0,91.15380900000036,-1001.4101559999999,110.76904300000024
234,-18.974365000000034,-239.10253899999998,103.58984400000008,104.10253900000043,141.9228520000006,124.23095699999976,131.0258789999998,120.51269500000035,122.69238299999961,112.82031300000017,66.41015599999992,96.2822270000006,-993.718018,112.94873000000007
235,-20.641113000000132,-240.5129390000002,103.0771479999994,106.15380900000036,146.0258789999998,129.87158199999976,128.9741210000002,120.25634799999989,122.94873000000007,114.74365200000011,76.2822270000006,95.89746099999957,-991.4101559999999,112.82031300000017
236,-25.1281740000004,-244.35888699999987,100.25634799999989,105.25634799999989,141.9228520000006,131.79492200000004,123.20507799999996,117.17968800000017,121.2822270000006,114.61523400000078,77.56396500000028,90.12841800000024,-992.6923829999996,108.46142599999985
237,-31.28198199999997,-248.71801800000003,96.79492200000004,102.43603499999972,130.6411130000006,127.82031300000017,116.41015599999992,111.79492200000004,118.3334960000002,109.74365200000011,69.74365200000011,82.56396500000028,-995.0,105.51269500000035
238,-38.07690400000001,-251.66674799999964,94.61523400000078,100.0,118.0771479999994,120.0,111.41015599999992,106.15380900000036,115.25634799999989,100.12841800000024,60.0,78.20507799999996,-996.1538089999999,108.58984400000008
239,-43.07690400000001,-251.53857400000015,94.48730499999965,99.35888699999941,111.15380900000036,113.9741210000002,110.51269500000035,103.7177729999994,113.7177729999994,90.76904300000024,57.30761700000039,79.48730499999965,-994.4870609999998,112.94873000000007
240,-43.846190999999635,-248.076904,96.0258789999998,100.12841800000024,114.23095699999976,115.0,113.9741210000002,106.41015599999992,114.48730499999965,88.20507799999996,64.10253900000043,85.38476599999922,-989.3588870000003,113.46142599999985
241,-40.51293900000019,-243.33325200000036,98.58984400000008,101.0258789999998,124.74365200000011,122.17968800000017,119.35888699999941,112.56396500000028,116.9228520000006,94.61523400000078,74.10253900000043,91.6665039999998,-981.923096,112.05126999999993
242,-36.92309599999999,-240.89746100000002,100.0,101.2822270000006,135.38476599999922,129.7436520000001,122.69238299999961,117.56396500000028,118.9741210000002,106.15380900000036,78.0771479999994,93.58984400000008,-974.871826,113.20507799999996
243,-36.025634999999966,-240.89746100000002,98.3334960000002,100.76904300000024,139.87158199999976,131.6665039999998,122.17968800000017,117.69238299999961,118.84619099999964,115.51269500000035,72.17968800000017,90.12841800000024,-969.7436520000001,114.87158199999976
244,-37.564209000000574,-239.8718259999996,94.10253900000043,100.25634799999989,137.43603499999972,126.9228520000006,118.58984400000008,113.46142599999985,117.17968800000017,117.69238299999961,60.64111300000059,84.10253900000043,-965.6411129999997,112.05126999999993
245,-38.846190999999635,-235.38452099999995,90.12841800000024,100.0,131.0258789999998,119.10253900000043,114.10253900000043,108.3334960000002,115.38476599999922,111.6665039999998,51.53857400000015,80.51269500000035,-961.5385739999997,106.79492200000004
246,-39.10253899999998,-229.35888699999987,88.58984400000008,99.61523400000078,123.46142599999985,112.17968800000017,109.61523400000078,105.38476599999922,114.48730499999965,100.76904300000024,49.35888699999941,81.2822270000006,-958.205078,106.15380900000036
247,-39.35888699999987,-225.89746100000002,89.23095699999976,99.10253900000043,117.05126999999993,108.20507799999996,105.38476599999922,105.38476599999922,114.61523400000078,91.0258789999998,53.333496000000196,84.61523400000078,-956.6667480000001,110.38476599999922
248,-40.1281740000004,-227.179443,90.25634799999989,99.23095699999976,113.3334960000002,107.82031300000017,102.94873000000007,107.56396500000028,115.64111300000059,87.94873000000007,59.35888699999941,87.05126999999993,-955.5129390000002,113.3334960000002
249,-41.41015600000037,-231.41015600000037,91.15380900000036,100.76904300000024,113.20507799999996,110.25634799999989,104.10253900000043,110.12841800000024,117.56396500000028,92.94873000000007,63.46142599999985,87.56396500000028,-952.3076170000004,112.30761700000039
250,-43.33325200000036,-236.02563499999997,92.30761700000039,102.94873000000007,115.51269500000035,113.58984400000008,108.7177729999994,112.05126999999993,118.9741210000002,101.9228520000006,63.846190999999635,86.6665039999998,-946.5385739999997,111.53857400000015
251,-45.76928699999962,-238.076904,93.7177729999994,103.3334960000002,118.7177729999994,116.53857400000015,113.58984400000008,112.69238299999961,118.9741210000002,108.7177729999994,61.666503999999804,86.15380900000036,-939.7436520000001,112.30761700000039
252,-48.46142599999985,-236.28198199999997,94.10253900000043,101.0258789999998,122.05126999999993,118.84619099999964,116.0258789999998,112.56396500000028,117.69238299999961,110.51269500000035,59.74365200000011,86.53857400000015,-933.5898440000001,110.64111300000059
253,-50.38452099999995,-231.28198199999997,92.56396500000028,97.05126999999993,125.0,120.64111300000059,114.74365200000011,111.6665039999998,116.2822270000006,108.0771479999994,60.64111300000059,87.17968800000017,-927.9487300000001,105.89746099999957
254,-51.53857400000015,-226.66674799999964,89.48730499999965,94.23095699999976,125.76904300000024,120.76904300000024,110.38476599999922,109.48730499999965,115.12841800000024,102.94873000000007,63.20507799999996,86.41015599999992,-923.076904,103.7177729999994
255,-52.435790999999426,-225.38452099999995,86.0258789999998,94.61523400000078,123.20507799999996,118.7177729999994,105.25634799999989,105.89746099999957,113.7177729999994,96.6665039999998,64.23095699999976,83.46142599999985,-918.5898440000001,107.17968800000017
256,-52.564209000000574,-226.28198199999997,84.10253900000043,97.82031300000017,119.23095699999976,115.76904300000024,101.9228520000006,102.69238299999961,112.30761700000039,91.79492200000004,61.79492200000004,80.25634799999989,-912.6923829999996,110.89746099999957
257,-50.64111300000013,-225.89746100000002,85.25634799999989,102.05126999999993,117.17968800000017,114.48730499999965,102.69238299999961,102.56396500000028,111.79492200000004,91.2822270000006,57.82031300000017,79.61523400000078,-903.718018,110.12841800000024
258,-47.435790999999426,-222.9487299999996,88.7177729999994,103.84619099999964,117.82031300000017,115.89746099999957,106.53857400000015,106.2822270000006,112.56396500000028,95.38476599999922,55.38476599999922,82.82031300000017,-893.3332519999999,107.82031300000017
259,-46.025634999999966,-220.38452099999995,91.79492200000004,101.41015599999992,118.3334960000002,117.69238299999961,110.12841800000024,111.2822270000006,113.9741210000002,100.38476599999922,55.38476599999922,87.17968800000017,-885.2563479999999,109.10253900000043
260,-48.07690400000001,-221.28198199999997,91.2822270000006,96.9228520000006,116.41015599999992,118.0771479999994,110.76904300000024,113.84619099999964,114.87158199999976,102.82031300000017,57.43603499999972,89.23095699999976,-881.5385739999997,111.53857400000015
261,-51.025634999999966,-224.10253899999998,87.94873000000007,94.87158199999976,114.23095699999976,117.82031300000017,110.0,112.94873000000007,115.51269500000035,103.46142599999985,60.897460999999566,88.20507799999996,-878.718018,110.38476599999922
262,-50.64111300000013,-223.46142599999985,86.2822270000006,98.3334960000002,115.89746099999957,118.58984400000008,110.51269500000035,111.41015599999992,117.05126999999993,105.76904300000024,65.89746099999957,87.30761700000039,-872.5642090000001,107.30761700000039
263,-45.38452099999995,-216.41015600000037,89.23095699999976,105.38476599999922,122.30761700000039,120.38476599999922,113.7177729999994,112.05126999999993,119.48730499999965,111.41015599999992,70.89746099999957,89.10253900000043,-861.923096,107.43603499999972
264,-37.82055700000001,-206.02563499999997,95.25634799999989,110.25634799999989,130.0,122.17968800000017,117.94873000000007,114.87158199999976,121.6665039999998,118.46142599999985,73.0771479999994,93.20507799999996,-849.2307129999999,109.48730499999965
265,-32.435790999999426,-198.076904,99.48730499999965,109.10253900000043,134.23095699999976,123.0771479999994,120.51269500000035,118.3334960000002,122.82031300000017,123.7177729999994,71.79492200000004,96.79492200000004,-837.6923829999996,108.7177729999994
266,-32.30761700000039,-197.179443,98.46142599999985,102.94873000000007,132.94873000000007,124.23095699999976,120.38476599999922,120.38476599999922,122.82031300000017,125.25634799999989,69.10253900000043,97.82031300000017,-828.974365,105.89746099999957
267,-38.20507799999996,-203.58984399999963,92.56396500000028,96.41015599999992,127.05126999999993,125.64111300000059,118.20507799999996,120.51269500000035,121.2822270000006,122.56396500000028,67.17968800000017,96.15380900000036,-824.615479,106.79492200000004
268,-47.564209000000574,-214.23071300000038,84.74365200000011,93.3334960000002,119.10253900000043,125.89746099999957,116.0258789999998,118.46142599999985,118.46142599999985,116.0258789999998,66.9228520000006,92.05126999999993,-824.871826,111.6665039999998
269,-55.89746100000002,-223.71801800000003,79.10253900000043,93.7177729999994,112.30761700000039,123.84619099999964,114.87158199999976,115.12841800000024,115.12841800000024,107.56396500000028,67.56396500000028,86.15380900000036,-828.205078,113.58984400000008
270,-59.8718259999996,-227.9487299999996,78.20507799999996,95.25634799999989,109.48730499999965,119.87158199999976,115.38476599999922,112.56396500000028,112.94873000000007,101.15380900000036,69.10253900000043,81.2822270000006,-830.384521,110.12841800000024
271,-58.974365000000034,-225.76928699999962,82.43603499999972,95.89746099999957,110.38476599999922,116.15380900000036,117.17968800000017,112.43603499999972,113.3334960000002,100.38476599999922,71.15380900000036,80.25634799999989,-827.820557,107.17968800000017
272,-55.25634799999989,-219.35888699999987,88.84619099999964,95.38476599999922,113.0771479999994,114.61523400000078,119.74365200000011,115.0,116.0258789999998,105.64111300000059,72.82031300000017,84.35888699999941,-819.102539,108.46142599999985
273,-51.41015600000037,-212.3076170000004,93.46142599999985,95.51269500000035,115.51269500000035,116.15380900000036,122.17968800000017,118.84619099999964,119.35888699999941,113.3334960000002,72.17968800000017,91.0258789999998,-805.897461,110.25634799999989
274,-48.974365000000034,-206.66674799999964,94.23095699999976,97.69238299999961,117.43603499999972,119.61523400000078,122.82031300000017,121.41015599999992,121.41015599999992,118.84619099999964,68.3334960000002,96.0258789999998,-791.794922,108.46142599999985
275,-49.48706099999981,-203.97436500000003,91.6665039999998,101.53857400000015,117.94873000000007,122.17968800000017,120.12841800000024,120.76904300000024,120.25634799999989,119.35888699999941,62.69238299999961,96.79492200000004,-781.1538089999999,106.6665039999998
276,-53.58984399999963,-204.61547900000005,87.43603499999972,104.74365200000011,115.64111300000059,121.15380900000036,113.84619099999964,116.2822270000006,115.64111300000059,114.35888699999941,57.82031300000017,93.20507799999996,-777.820557,108.7177729999994
277,-59.61547900000005,-207.3076170000004,83.58984400000008,105.25634799999989,110.38476599999922,116.53857400000015,106.41015599999992,109.61523400000078,109.61523400000078,105.76904300000024,56.53857400000015,87.94873000000007,-780.6411129999997,110.89746099999957
278,-63.46142599999985,-208.58984399999963,82.56396500000028,103.3334960000002,105.12841800000024,112.17968800000017,101.2822270000006,103.7177729999994,105.12841800000024,97.82031300000017,59.35888699999941,84.48730499999965,-784.102539,108.46142599999985
279,-62.435790999999426,-206.02563499999997,85.51269500000035,101.2822270000006,104.10253900000043,111.6665039999998,101.15380900000036,101.53857400000015,104.61523400000078,95.0,63.0771479999994,85.51269500000035,-781.6667480000001,104.74365200000011
280,-57.30761700000039,-200.5129390000002,91.0258789999998,100.25634799999989,108.7177729999994,115.12841800000024,105.25634799999989,103.3334960000002,108.0771479999994,98.84619099999964,63.974121000000196,89.87158199999976,-771.1538089999999,106.0258789999998
281,-51.53857400000015,-195.76928699999962,95.0,100.12841800000024,116.53857400000015,118.9741210000002,110.0,106.79492200000004,112.43603499999972,105.89746099999957,61.666503999999804,93.58984400000008,-756.1538089999999,110.51269500000035
282,-48.46142599999985,-194.61547900000005,95.0,100.12841800000024,122.69238299999961,120.64111300000059,111.6665039999998,108.9741210000002,114.61523400000078,110.51269500000035,60.38476599999922,93.9741210000002,-743.4614259999998,111.79492200000004
283,-49.35888699999987,-197.56420900000057,92.05126999999993,100.12841800000024,123.7177729999994,118.9741210000002,108.9741210000002,108.46142599999985,113.58984400000008,109.74365200000011,63.846190999999635,91.2822270000006,-737.9487299999996,109.10253900000043
284,-53.07690400000001,-202.820557,89.35888699999941,100.25634799999989,119.10253900000043,115.38476599999922,104.10253900000043,106.15380900000036,110.64111300000059,104.74365200000011,71.53857400000015,87.94873000000007,-739.102539,108.0771479999994
285,-56.41015600000037,-205.89746100000002,89.48730499999965,100.89746099999957,112.82031300000017,112.43603499999972,101.41015599999992,104.48730499999965,108.84619099999964,100.89746099999957,78.84619099999964,86.9228520000006,-741.025635,110.38476599999922
286,-55.89746100000002,-202.43579099999943,92.69238299999961,102.05126999999993,110.51269500000035,113.20507799999996,104.74365200000011,106.2822270000006,110.64111300000059,102.56396500000028,81.9228520000006,89.48730499999965,-735.7692869999996,111.2822270000006
287,-51.025634999999966,-192.3076170000004,97.43603499999972,103.58984400000008,113.84619099999964,118.20507799999996,113.20507799999996,111.79492200000004,115.76904300000024,109.74365200000011,79.61523400000078,94.74365200000011,-721.025635,109.35888699999941
288,-46.025634999999966,-182.3076170000004,100.25634799999989,103.9741210000002,118.46142599999985,123.3334960000002,120.76904300000024,117.69238299999961,120.64111300000059,116.6665039999998,73.0771479999994,99.48730499999965,-702.4357909999994,108.9741210000002
289,-45.89746100000002,-179.8718259999996,98.20507799999996,102.05126999999993,117.94873000000007,124.10253900000043,121.15380900000036,119.61523400000078,121.79492200000004,117.43603499999972,65.38476599999922,100.76904300000024,-689.7436520000001,112.05126999999993
290,-50.64111300000013,-185.1281740000004,92.30761700000039,99.23095699999976,112.17968800000017,120.51269500000035,114.35888699999941,116.6665039999998,118.58984400000008,111.6665039999998,61.025878999999804,98.20507799999996,-687.0512700000004,113.3334960000002
291,-55.0,-190.64111300000013,87.30761700000039,99.10253900000043,107.05126999999993,117.17968800000017,106.9228520000006,112.17968800000017,114.48730499999965,105.38476599999922,63.333496000000196,95.64111300000059,-690.5129390000002,110.25634799999989
292,-55.38452099999995,-190.0,87.69238299999961,102.94873000000007,107.82031300000017,117.82031300000017,105.12841800000024,111.0258789999998,113.20507799999996,104.23095699999976,70.0,95.64111300000059,-693.3332520000004,108.0771479999994
293,-53.33325200000036,-184.23071300000038,91.9228520000006,108.20507799999996,113.84619099999964,120.89746099999957,108.84619099999964,113.7177729999994,114.87158199999976,108.7177729999994,74.23095699999976,97.17968800000017,-691.923096,111.0258789999998
294,-52.82055700000001,-179.4870609999998,95.51269500000035,110.89746099999957,119.74365200000011,122.17968800000017,112.69238299999961,117.43603499999972,117.30761700000039,115.0,72.43603499999972,97.05126999999993,-686.5385740000002,115.12841800000024
295,-54.74365200000011,-179.7436520000001,95.25634799999989,109.23095699999976,121.41015599999992,118.84619099999964,112.17968800000017,118.7177729999994,118.20507799999996,118.7177729999994,68.58984400000008,94.74365200000011,-679.3588869999999,115.25634799999989
296,-57.30761700000039,-184.4870609999998,92.30761700000039,104.74365200000011,118.46142599999985,112.05126999999993,107.69238299999961,117.17968800000017,117.30761700000039,117.43603499999972,68.46142599999985,92.56396500000028,-672.6923829999996,113.7177729999994
297,-57.948729999999614,-189.7436520000001,89.61523400000078,99.87158199999976,113.3334960000002,106.15380900000036,103.3334960000002,114.35888699999941,115.25634799999989,111.41015599999992,72.82031300000017,92.30761700000039,-667.5642090000006,114.74365200000011
298,-56.025634999999966,-190.89746100000002,88.46142599999985,96.9228520000006,110.0,105.76904300000024,102.82031300000017,112.43603499999972,113.20507799999996,104.61523400000078,78.20507799999996,93.9741210000002,-663.205078,115.89746099999957
299,-52.564209000000574,-185.64111300000013,89.23095699999976,96.79492200000004,111.41015599999992,112.94873000000007,106.9228520000006,113.0771479999994,112.69238299999961,102.17968800000017,80.51269500000035,96.15380900000036,-657.0512700000004,112.69238299999961
300,-49.8718259999996,-176.28198199999997,91.53857400000015,99.10253900000043,115.89746099999957,123.58984400000008,112.56396500000028,115.0,113.9741210000002,105.25634799999989,78.58984400000008,98.0771479999994,-649.102539,107.30761700000039
301,-50.89746100000002,-169.10253899999998,93.58984400000008,101.41015599999992,118.58984400000008,129.87158199999976,114.74365200000011,115.12841800000024,115.0,109.48730499999965,72.56396500000028,97.94873000000007,-642.6923829999996,106.15380900000036
302,-56.025634999999966,-168.20507799999996,93.20507799999996,102.30761700000039,116.15380900000036,127.17968800000017,111.15380900000036,111.53857400000015,114.23095699999976,109.48730499999965,65.0,94.48730499999965,-640.6411130000001,109.10253900000043
303,-60.51293900000019,-171.15380900000036,90.64111300000059,102.56396500000028,111.41015599999992,118.84619099999964,104.87158199999976,106.2822270000006,112.17968800000017,105.76904300000024,60.38476599999922,89.48730499999965,-641.025635,109.87158199999976
304,-58.846190999999635,-170.64111300000013,88.9741210000002,104.35888699999941,110.25634799999989,113.20507799999996,101.79492200000004,104.23095699999976,111.79492200000004,103.84619099999964,63.333496000000196,86.9228520000006,-637.820557,107.17968800000017
305,-50.0,-162.820557,90.64111300000059,108.46142599999985,115.12841800000024,115.25634799999989,105.12841800000024,107.94873000000007,114.23095699999976,107.30761700000039,73.20507799999996,88.9741210000002,-628.4614259999998,106.2822270000006
306,-39.61547900000005,-150.89746100000002,94.10253900000043,112.43603499999972,122.82031300000017,122.82031300000017,111.79492200000004,114.74365200000011,118.20507799999996,114.10253900000043,82.69238299999961,93.46142599999985,-615.6411130000001,108.9741210000002
307,-34.61547900000005,-142.179443,96.2822270000006,112.94873000000007,127.82031300000017,130.0,116.2822270000006,119.87158199999976,120.76904300000024,119.23095699999976,84.74365200000011,96.0258789999998,-605.384521,110.51269500000035
308,-37.30761700000039,-142.179443,95.64111300000059,109.61523400000078,126.79492200000004,131.53857400000015,115.76904300000024,120.0,120.12841800000024,119.48730499999965,78.9741210000002,95.12841800000024,-600.384521,108.84619099999964
309,-44.48706099999981,-149.7436520000001,93.58984400000008,105.0,121.2822270000006,126.79492200000004,112.05126999999993,116.53857400000015,117.05126999999993,115.64111300000059,72.56396500000028,92.82031300000017,-600.0,108.46142599999985
310,-49.8718259999996,-158.20507799999996,92.17968800000017,102.56396500000028,115.76904300000024,118.9741210000002,109.23095699999976,112.69238299999961,113.7177729999994,111.15380900000036,73.20507799999996,92.05126999999993,-600.2563479999999,111.9228520000006
311,-48.846190999999635,-159.35888699999987,91.9228520000006,103.20507799999996,114.23095699999976,113.46142599999985,110.0,111.79492200000004,112.17968800000017,109.35888699999941,82.30761700000039,93.9741210000002,-596.923096,114.23095699999976
312,-42.30761700000039,-150.76928699999962,92.05126999999993,105.25634799999989,117.05126999999993,113.20507799999996,113.46142599999985,114.10253900000043,112.82031300000017,111.0258789999998,92.82031300000017,97.17968800000017,-588.8461909999996,111.41015599999992
313,-35.76928699999962,-138.33325200000036,91.9228520000006,106.0258789999998,121.0258789999998,116.15380900000036,115.38476599999922,116.79492200000004,113.9741210000002,113.3334960000002,95.25634799999989,99.10253900000043,-579.2307130000004,107.94873000000007
314,-34.74365200000011,-131.02563499999997,90.64111300000059,104.23095699999976,121.6665039999998,118.3334960000002,112.69238299999961,117.05126999999993,113.58984400000008,112.82031300000017,85.38476599999922,97.43603499999972,-572.6923829999996,109.48730499999965
315,-40.0,-132.6923829999996,88.46142599999985,101.41015599999992,118.0771479999994,117.56396500000028,106.15380900000036,114.61523400000078,111.15380900000036,109.74365200000011,69.10253900000043,92.94873000000007,-570.6411130000001,113.20507799999996
316,-46.41015600000037,-138.71801800000003,86.9228520000006,101.2822270000006,113.46142599999985,115.64111300000059,100.51269500000035,112.30761700000039,108.7177729999994,107.82031300000017,57.56396500000028,88.7177729999994,-569.4870609999998,113.0771479999994
317,-48.46142599999985,-141.79492200000004,88.0771479999994,105.51269500000035,111.41015599999992,115.0,99.48730499999965,112.69238299999961,108.20507799999996,110.0,58.0771479999994,88.20507799999996,-564.8718259999996,110.12841800000024
318,-45.38452099999995,-138.97436500000003,91.2822270000006,111.41015599999992,111.41015599999992,115.51269500000035,102.82031300000017,115.25634799999989,109.87158199999976,114.74365200000011,68.46142599999985,92.05126999999993,-556.281982,110.0
319,-41.153809000000365,-133.076904,93.58984400000008,113.9741210000002,110.64111300000059,116.0258789999998,107.17968800000017,117.69238299999961,112.30761700000039,117.17968800000017,78.9741210000002,96.9228520000006,-547.4357909999994,112.30761700000039
320,-40.0,-128.97436500000003,92.43603499999972,109.74365200000011,107.69238299999961,115.64111300000059,109.35888699999941,118.0771479999994,113.7177729999994,114.61523400000078,81.6665039999998,99.61523400000078,-542.6923829999996,112.05126999999993
321,-43.20507799999996,-130.0,88.9741210000002,100.89746099999957,103.84619099999964,115.12841800000024,108.7177729999994,116.6665039999998,113.46142599999985,109.10253900000043,76.15380900000036,98.58984400000008,-543.4614259999998,108.84619099999964
322,-48.46142599999985,-134.4870609999998,86.2822270000006,94.35888699999941,102.69238299999961,114.48730499999965,107.43603499999972,115.12841800000024,112.05126999999993,105.64111300000059,70.0,95.89746099999957,-547.179443,108.20507799999996
323,-51.41015600000037,-137.43579099999943,86.79492200000004,95.76904300000024,106.41015599999992,114.61523400000078,108.20507799999996,115.0,110.89746099999957,107.69238299999961,70.38476599999922,94.23095699999976,-548.5898439999996,111.41015599999992
324,-48.974365000000034,-134.10253899999998,89.61523400000078,104.87158199999976,113.7177729999994,116.0258789999998,112.05126999999993,116.41015599999992,111.53857400000015,114.10253900000043,77.43603499999972,95.12841800000024,-543.718018,113.0771479999994
325,-42.564209000000574,-125.76928699999962,91.79492200000004,114.87158199999976,118.9741210000002,117.69238299999961,115.64111300000059,118.0771479999994,113.46142599999985,119.87158199999976,84.23095699999976,97.30761700000039,-533.205078,111.79492200000004
326,-38.20507799999996,-118.84619099999964,90.89746099999957,117.30761700000039,116.53857400000015,117.05126999999993,114.48730499999965,118.0771479999994,114.10253900000043,118.9741210000002,83.9741210000002,97.69238299999961,-523.076904,112.05126999999993
327,-39.23071300000038,-118.97436500000003,87.05126999999993,109.74365200000011,107.30761700000039,112.94873000000007,107.94873000000007,115.51269500000035,112.17968800000017,110.51269500000035,77.17968800000017,95.51269500000035,-517.9487299999996,115.51269500000035
328,-43.33325200000036,-124.35888699999987,83.0771479999994,98.7177729999994,98.7177729999994,108.58984400000008,100.76904300000024,112.05126999999993,109.10253900000043,100.51269500000035,72.43603499999972,93.3334960000002,-516.4101560000004,116.6665039999998
329,-44.8718259999996,-128.84619099999964,82.69238299999961,93.3334960000002,97.82031300000017,108.7177729999994,98.46142599999985,110.51269500000035,107.56396500000028,97.30761700000039,76.53857400000015,94.61523400000078,-514.102539,112.05126999999993
330,-42.435790999999426,-128.97436500000003,86.79492200000004,97.94873000000007,103.20507799999996,113.46142599999985,101.79492200000004,111.79492200000004,108.58984400000008,103.58984400000008,86.9228520000006,99.74365200000011,-508.58984399999963,106.9228520000006
331,-39.61547900000005,-127.30761700000039,91.79492200000004,107.69238299999961,106.9228520000006,118.0771479999994,106.41015599999992,113.7177729999994,110.51269500000035,114.48730499999965,93.58984400000008,104.35888699999941,-502.4357909999994,107.56396500000028
332,-40.76928699999962,-127.56420900000057,93.0771479999994,114.10253900000043,103.0771479999994,118.0771479999994,108.0771479999994,113.9741210000002,111.0258789999998,122.82031300000017,89.35888699999941,104.48730499999965,-498.20507799999996,111.53857400000015
333,-45.0,-129.35888699999987,90.25634799999989,112.56396500000028,94.61523400000078,113.58984400000008,106.2822270000006,112.43603499999972,110.25634799999989,125.64111300000059,77.69238299999961,100.64111300000059,-495.0,112.82031300000017
334,-47.82055700000001,-128.71801800000003,87.17968800000017,106.2822270000006,90.76904300000024,109.23095699999976,103.84619099999964,111.0258789999998,110.0,125.0,68.84619099999964,98.0771479999994,-489.4870609999998,111.79492200000004
335,-45.25634799999989,-122.30761700000039,87.94873000000007,102.30761700000039,97.30761700000039,108.58984400000008,104.48730499999965,112.05126999999993,112.05126999999993,124.87158199999976,70.89746099999957,101.41015599999992,-479.61547900000005,112.17968800000017
336,-36.92309599999999,-110.38452099999995,93.20507799999996,105.0,111.6665039999998,112.69238299999961,109.23095699999976,115.64111300000059,116.0258789999998,127.94873000000007,83.46142599999985,111.15380900000036,-466.15380900000036,113.0771479999994
337,-26.538574000000153,-97.56420900000057,99.35888699999941,112.56396500000028,125.25634799999989,118.9741210000002,116.0258789999998,120.64111300000059,120.25634799999989,134.23095699999976,99.10253900000043,122.82031300000017,-452.4357909999994,110.38476599999922
338,-20.1281740000004,-90.25634799999989,102.69238299999961,118.46142599999985,129.48730499999965,123.84619099999964,120.64111300000059,124.48730499999965,122.69238299999961,140.76904300000024,108.7177729999994,130.0,-442.820557,106.2822270000006
339,-21.538574000000153,-91.66674799999964,101.41015599999992,117.43603499999972,122.30761700000039,124.35888699999941,120.25634799999989,125.51269500000035,122.30761700000039,143.9741210000002,107.56396500000028,128.3334960000002,-439.61547900000005,107.05126999999993
340,-29.487060999999812,-98.58984399999963,96.53857400000015,110.12841800000024,109.74365200000011,120.64111300000059,115.25634799999989,123.3334960000002,119.74365200000011,142.43603499999972,98.46142599999985,119.87158199999976,-440.64111300000013,112.43603499999972
341,-37.69238299999961,-105.0,91.6665039999998,102.17968800000017,100.51269500000035,115.51269500000035,109.48730499999965,120.0,117.30761700000039,137.94873000000007,88.46142599999985,111.0258789999998,-440.897461,115.25634799999989
342,-40.76928699999962,-106.92309599999999,90.25634799999989,98.7177729999994,98.9741210000002,111.53857400000015,106.0258789999998,117.82031300000017,116.53857400000015,132.6923829999996,83.7177729999994,108.0771479999994,-437.820557,113.0771479999994
343,-38.974365000000034,-106.66674799999964,92.69238299999961,100.64111300000059,101.9228520000006,108.46142599999985,105.25634799999989,117.43603499999972,117.30761700000039,127.43603499999972,85.25634799999989,111.6665039999998,-433.97436500000003,110.51269500000035
344,-37.051270000000386,-107.43579099999943,95.64111300000059,104.61523400000078,103.46142599999985,105.0,105.25634799999989,117.43603499999972,117.94873000000007,122.56396500000028,90.0,117.05126999999993,-433.71801800000003,110.76904300000024
345,-37.82055700000001,-109.48706099999981,95.89746099999957,106.6665039999998,101.79492200000004,101.6665039999998,105.89746099999957,116.53857400000015,117.05126999999993,119.87158199999976,94.87158199999976,119.61523400000078,-436.923096,110.0
346,-40.51293900000019,-109.61547900000005,93.20507799999996,106.0258789999998,100.25634799999989,101.41015599999992,107.94873000000007,115.12841800000024,115.25634799999989,121.79492200000004,99.10253900000043,118.20507799999996,-438.71801800000003,107.17968800000017
347,-42.435790999999426,-105.0,90.25634799999989,104.74365200000011,102.56396500000028,106.2822270000006,111.41015599999992,114.48730499999965,114.23095699999976,127.94873000000007,102.69238299999961,115.25634799999989,-433.97436500000003,107.30761700000039
348,-41.41015600000037,-96.41015600000037,89.35888699999941,105.51269500000035,108.20507799999996,114.61523400000078,115.0,115.64111300000059,114.48730499999965,134.7436520000001,105.0,113.58984400000008,-422.179443,113.20507799999996
349,-37.051270000000386,-87.17944299999999,90.89746099999957,109.48730499999965,114.10253900000043,122.43603499999972,117.69238299999961,118.46142599999985,116.0258789999998,138.7177729999994,105.76904300000024,114.10253900000043,-407.179443,118.84619099999964
350,-30.38452099999995,-80.64111300000013,94.10253900000043,114.48730499999965,117.56396500000028,126.53857400000015,119.87158199999976,122.17968800000017,118.3334960000002,139.10253900000043,105.12841800000024,116.15380900000036,-394.4870609999998,117.69238299999961
351,-25.0,-78.97436500000003,97.05126999999993,116.9228520000006,117.43603499999972,125.76904300000024,121.6665039999998,125.0,120.76904300000024,136.6665039999998,102.56396500000028,117.94873000000007,-387.4357909999994,112.43603499999972
352,-25.1281740000004,-83.20507799999996,97.69238299999961,114.35888699999941,114.23095699999976,121.0258789999998,121.2822270000006,124.87158199999976,121.41015599999992,133.3334960000002,97.05126999999993,116.9228520000006,-387.179443,109.48730499999965
353,-31.794922000000042,-90.38452099999995,95.0,108.20507799999996,110.0,115.12841800000024,117.17968800000017,121.0258789999998,119.48730499999965,130.51269500000035,89.10253900000043,112.56396500000028,-391.41015600000037,108.9741210000002
354,-40.89746100000002,-95.89746100000002,90.64111300000059,102.30761700000039,106.9228520000006,111.41015599999992,110.64111300000059,115.51269500000035,116.0258789999998,129.61523400000078,82.43603499999972,107.82031300000017,-395.38452099999995,107.30761700000039
355,-46.53857400000015,-96.53857400000015,88.0771479999994,100.25634799999989,105.64111300000059,111.79492200000004,105.76904300000024,111.6665039999998,113.3334960000002,130.0,80.76904300000024,106.9228520000006,-395.2563479999999,106.2822270000006
356,-45.89746100000002,-93.46142599999985,89.23095699999976,102.43603499999972,104.74365200000011,114.61523400000078,105.38476599999922,111.15380900000036,112.17968800000017,129.10253900000043,84.74365200000011,110.76904300000024,-390.64111300000013,110.12841800000024
357,-40.51293900000019,-89.8718259999996,92.94873000000007,106.9228520000006,103.46142599999985,116.79492200000004,108.58984400000008,113.20507799999996,112.56396500000028,125.64111300000059,92.05126999999993,116.79492200000004,-383.97436500000003,116.6665039999998
358,-33.58984399999963,-86.53857400000015,96.0258789999998,110.89746099999957,102.94873000000007,116.79492200000004,112.69238299999961,115.89746099999957,113.7177729999994,121.9228520000006,100.25634799999989,121.2822270000006,-376.66674799999964,118.3334960000002
359,-27.948729999999614,-82.17944299999999,96.79492200000004,112.43603499999972,104.48730499999965,115.51269500000035,114.74365200000011,117.43603499999972,115.25634799999989,121.79492200000004,107.30761700000039,122.94873000000007,-369.2307130000004,114.10253900000043
360,-25.512939000000188,-76.92309599999999,95.25634799999989,110.89746099999957,106.79492200000004,113.20507799999996,113.46142599999985,117.17968800000017,115.89746099999957,125.89746099999957,111.53857400000015,122.56396500000028,-362.9487299999996,110.38476599999922
361,-26.666747999999643,-73.20507799999996,92.69238299999961,107.43603499999972,107.30761700000039,110.89746099999957,109.35888699999941,114.87158199999976,114.87158199999976,130.89746099999957,111.15380900000036,120.76904300000024,-359.7436520000001,110.64111300000059
362,-29.230713000000378,-72.56420900000057,90.51269500000035,105.0,106.0258789999998,110.12841800000024,105.51269500000035,111.79492200000004,112.69238299999961,132.6923829999996,106.41015599999992,118.84619099999964,-359.7436520000001,111.15380900000036
363,-30.38452099999995,-74.48706099999981,90.64111300000059,106.0258789999998,104.61523400000078,112.43603499999972,104.61523400000078,109.74365200000011,111.15380900000036,130.38476599999922,98.46142599999985,117.56396500000028,-360.64111300000013,109.74365200000011
364,-30.0,-77.17944299999999,93.0771479999994,109.35888699999941,104.10253900000043,116.9228520000006,106.9228520000006,109.87158199999976,111.6665039999998,125.25634799999989,89.35888699999941,116.53857400000015,-360.5129390000002,110.12841800000024
365,-31.025634999999966,-79.8718259999996,95.64111300000059,111.15380900000036,103.58984400000008,120.12841800000024,110.25634799999989,111.6665039999998,113.3334960000002,120.12841800000024,81.53857400000015,114.48730499999965,-358.97436500000003,113.58984400000008
366,-35.0,-81.92309599999999,95.89746099999957,109.61523400000078,102.69238299999961,120.25634799999989,111.79492200000004,114.10253900000043,114.61523400000078,117.43603499999972,78.3334960000002,110.38476599999922,-356.53857400000015,114.35888699999941
367,-39.61547900000005,-82.05127000000039,93.84619099999964,106.41015599999992,102.56396500000028,118.58984400000008,111.53857400000015,116.6665039999998,115.12841800000024,118.9741210000002,82.43603499999972,106.2822270000006,-352.4357909999994,109.10253900000043
368,-42.051270000000386,-80.1281740000004,91.2822270000006,104.74365200000011,103.9741210000002,116.53857400000015,110.76904300000024,118.58984400000008,115.12841800000024,124.10253900000043,91.0258789999998,105.25634799999989,-346.28198199999997,103.3334960000002
369,-41.79492200000004,-77.82055700000001,89.74365200000011,105.38476599999922,105.64111300000059,115.12841800000024,111.15380900000036,119.35888699999941,115.38476599999922,129.61523400000078,97.43603499999972,108.46142599999985,-338.71801800000003,103.7177729999994
370,-39.74365200000011,-76.28198199999997,89.10253900000043,106.15380900000036,105.89746099999957,114.61523400000078,113.0771479999994,119.23095699999976,116.2822270000006,132.43603499999972,97.30761700000039,114.10253900000043,-331.41015600000037,107.94873000000007
371,-36.66674799999964,-74.10253899999998,89.48730499999965,105.76904300000024,103.9741210000002,115.25634799999989,116.15380900000036,119.23095699999976,118.3334960000002,131.9228520000006,93.46142599999985,119.74365200000011,-325.0,109.61523400000078
372,-32.564209000000574,-69.74365200000011,91.2822270000006,104.61523400000078,101.15380900000036,116.2822270000006,119.35888699999941,119.87158199999976,120.51269500000035,129.48730499999965,92.69238299999961,123.58984400000008,-320.2563479999999,108.9741210000002
373,-28.71801800000003,-64.48706099999981,94.10253900000043,103.7177729999994,97.82031300000017,115.38476599999922,120.12841800000024,120.25634799999989,120.76904300000024,126.15380900000036,97.30761700000039,124.48730499999965,-318.33325200000036,110.38476599999922
374,-27.435790999999426,-62.17944299999999,95.51269500000035,103.20507799999996,94.74365200000011,111.2822270000006,116.79492200000004,118.20507799999996,117.69238299999961,121.6665039999998,102.56396500000028,121.79492200000004,-318.71801800000003,113.0771479999994
375,-29.487060999999812,-65.25634799999989,93.7177729999994,102.94873000000007,93.20507799999996,105.64111300000059,109.74365200000011,113.20507799999996,111.53857400000015,116.0258789999998,101.6665039999998,116.15380900000036,-319.7436520000001,112.56396500000028
376,-33.58984399999963,-72.43579099999943,89.74365200000011,103.58984400000008,93.84619099999964,101.2822270000006,101.6665039999998,107.05126999999993,104.74365200000011,110.64111300000059,92.56396500000028,110.38476599999922,-319.8718259999996,109.61523400000078
377,-37.051270000000386,-78.97436500000003,86.6665039999998,105.51269500000035,96.15380900000036,100.0,96.41015599999992,102.82031300000017,100.38476599999922,108.20507799999996,80.76904300000024,107.69238299999961,-318.33325200000036,109.48730499999965
378,-37.30761700000039,-78.97436500000003,86.9228520000006,107.82031300000017,98.58984400000008,102.69238299999961,97.05126999999993,102.56396500000028,100.89746099999957,110.25634799999989,74.61523400000078,109.61523400000078,-314.35888699999987,112.43603499999972
379,-32.82055700000001,-70.25634799999989,90.51269500000035,108.9741210000002,100.38476599999922,108.58984400000008,103.3334960000002,106.79492200000004,106.0258789999998,116.15380900000036,78.84619099999964,115.25634799999989,-307.0512700000004,112.69238299999961
380,-24.487060999999812,-56.66674799999964,96.0258789999998,108.0771479999994,101.2822270000006,114.48730499999965,111.2822270000006,113.3334960000002,112.82031300000017,122.43603499999972,90.25634799999989,121.79492200000004,-296.41015600000037,108.9741210000002
381,-17.30761700000039,-47.051270000000386,100.51269500000035,105.76904300000024,100.38476599999922,115.89746099999957,114.87158199999976,118.0771479999994,116.79492200000004,124.61523400000078,99.74365200000011,125.12841800000024,-285.5129390000002,107.17968800000017
382,-15.897461000000021,-47.435790999999426,100.64111300000059,102.94873000000007,97.17968800000017,111.41015599999992,111.15380900000036,118.20507799999996,115.38476599999922,121.79492200000004,100.76904300000024,123.3334960000002,-278.84619099999964,110.38476599999922
383,-20.0,-54.8718259999996,96.0258789999998,101.79492200000004,93.7177729999994,104.61523400000078,103.3334960000002,114.74365200000011,110.51269500000035,117.30761700000039,94.61523400000078,118.58984400000008,-277.179443,113.20507799999996
