,EEG.AF3,EEG.F7,EEG.F3,EEG.FC5,EEG.T7,EEG.P7,EEG.O1,EEG.O2,EEG.P8,EEG.T8,EEG.FC6,EEG.F4,EEG.F8,EEG.AF4
0,22.94873000000007,-71.92309599999999,96.15380900000036,100.38476599999922,92.69238299999961,105.0,103.0771479999994,105.64111300000059,110.89746099999957,103.3334960000002,73.7177729999994,106.41015599999992,-272.820557,110.89746099999957
1,24.102539000000434,-68.97436500000003,94.87158199999976,101.79492200000004,94.74365200000011,102.94873000000007,102.17968800000017,103.20507799999996,107.56396500000028,105.64111300000059,81.0258789999998,106.9228520000006,-268.33325200000036,108.0771479999994
2,25.641113000000587,-60.38452099999995,94.74365200000011,102.56396500000028,100.12841800000024,101.15380900000036,103.58984400000008,100.89746099999957,106.41015599999992,110.25634799999989,89.74365200000011,106.53857400000015,-262.820557,110.38476599999922
3,27.30761700000039,-50.64111300000013,94.87158199999976,102.05126999999993,105.0,100.64111300000059,106.6665039999998,99.35888699999941,107.05126999999993,112.94873000000007,92.17968800000017,104.35888699999941,-258.20507799999996,113.7177729999994
4,28.589844000000085,-45.0,93.84619099999964,100.38476599999922,106.2822270000006,101.53857400000015,109.10253900000043,99.10253900000043,108.3334960000002,111.2822270000006,84.61523400000078,100.25634799999989,-256.02563499999997,112.94873000000007
5,28.333496000000196,-46.66674799999964,91.79492200000004,98.84619099999964,103.84619099999964,102.17968800000017,108.84619099999964,99.35888699999941,108.46142599999985,105.64111300000059,70.25634799999989,94.87158199999976,-257.5642090000006,110.12841800000024
6,25.384765999999217,-54.23071300000038,88.3334960000002,98.3334960000002,98.9741210000002,100.76904300000024,104.61523400000078,98.58984400000008,106.2822270000006,98.0771479999994,56.79492200000004,88.9741210000002,-263.076904,110.51269500000035
7,20.897460999999566,-62.435790999999426,83.7177729999994,98.46142599999985,94.23095699999976,98.20507799999996,98.9741210000002,96.53857400000015,102.82031300000017,91.79492200000004,51.025878999999804,83.46142599999985,-269.35888699999987,112.43603499999972
8,18.205077999999958,-64.35888699999987,79.23095699999976,98.3334960000002,93.20507799999996,97.94873000000007,96.41015599999992,94.74365200000011,100.38476599999922,90.25634799999989,54.48730499999965,80.12841800000024,-270.38452099999995,111.53857400000015
9,19.615234000000783,-58.07690400000001,77.69238299999961,97.94873000000007,96.2822270000006,101.41015599999992,99.74365200000011,95.38476599999922,101.15380900000036,93.3334960000002,63.7177729999994,80.64111300000059,-262.820557,109.35888699999941
10,24.615234000000783,-48.58984399999963,80.25634799999989,97.94873000000007,100.51269500000035,106.53857400000015,107.05126999999993,98.20507799999996,104.10253900000043,97.56396500000028,72.17968800000017,85.0,-249.8718259999996,110.89746099999957
11,30.641113000000587,-42.82055700000001,85.12841800000024,98.9741210000002,102.05126999999993,109.74365200000011,113.58984400000008,101.2822270000006,106.53857400000015,98.20507799999996,75.51269500000035,90.76904300000024,-238.46142599999985,114.48730499999965
12,35.76904300000024,-42.69238299999961,88.9741210000002,100.89746099999957,100.64111300000059,109.87158199999976,115.38476599999922,102.43603499999972,106.79492200000004,94.61523400000078,74.74365200000011,94.74365200000011,-234.23071300000038,113.7177729999994
13,38.589844000000085,-45.51293900000019,89.61523400000078,102.43603499999972,99.23095699999976,108.3334960000002,111.79492200000004,101.2822270000006,105.38476599999922,90.89746099999957,73.58984400000008,95.38476599999922,-237.179443,108.84619099999964
14,37.30761700000039,-47.69238299999961,87.17968800000017,102.30761700000039,99.61523400000078,107.05126999999993,105.76904300000024,98.7177729999994,103.46142599999985,90.64111300000059,74.61523400000078,93.0771479999994,-242.9487299999996,106.9228520000006
15,31.922852000000603,-48.33325200000036,82.94873000000007,100.12841800000024,101.2822270000006,106.9228520000006,101.0258789999998,96.41015599999992,101.9228520000006,94.35888699999941,77.05126999999993,89.23095699999976,-246.66674799999964,110.12841800000024
16,25.51269500000035,-48.20507799999996,78.7177729999994,97.17968800000017,102.43603499999972,108.0771479999994,100.0,95.76904300000024,101.41015599999992,99.23095699999976,78.84619099999964,85.51269500000035,-245.64111300000013,112.30761700000039
17,22.56396500000028,-47.435790999999426,76.53857400000015,94.87158199999976,101.79492200000004,109.23095699999976,102.17968800000017,96.9228520000006,101.79492200000004,101.9228520000006,78.7177729999994,83.84619099999964,-241.53857400000015,110.0
18,26.410155999999915,-45.51293900000019,77.30761700000039,94.74365200000011,99.87158199999976,109.23095699999976,105.38476599999922,98.0771479999994,102.17968800000017,100.51269500000035,76.15380900000036,85.12841800000024,-237.6923829999996,107.69238299999961
19,37.69238299999961,-42.69238299999961,80.51269500000035,97.82031300000017,98.0771479999994,107.82031300000017,107.17968800000017,97.69238299999961,102.43603499999972,95.89746099999957,71.9228520000006,88.84619099999964,-234.8718259999996,108.9741210000002
20,56.410155999999915,-38.46142599999985,84.61523400000078,103.3334960000002,98.7177729999994,107.30761700000039,107.05126999999993,95.89746099999957,102.69238299999961,91.9228520000006,68.58984400000008,94.23095699999976,-229.10253899999998,110.38476599999922
21,79.74365200000011,-32.17944299999999,88.9741210000002,109.23095699999976,102.30761700000039,109.61523400000078,105.89746099999957,94.61523400000078,103.46142599999985,91.79492200000004,69.74365200000011,100.89746099999957,-215.2563479999999,108.9741210000002
22,100.51269500000035,-24.230713000000378,93.46142599999985,113.0771479999994,106.6665039999998,112.82031300000017,104.74365200000011,95.25634799999989,103.9741210000002,95.0,76.41015599999992,108.3334960000002,-194.35888699999987,108.58984400000008
23,111.2822270000006,-16.794922000000042,97.30761700000039,113.58984400000008,108.46142599999985,113.20507799999996,103.84619099999964,96.6665039999998,102.82031300000017,98.0771479999994,85.76904300000024,114.10253900000043,-174.4870609999998,112.69238299999961
24,113.9741210000002,-10.641113000000132,99.74365200000011,112.43603499999972,106.79492200000004,109.35888699999941,102.82031300000017,96.79492200000004,100.25634799999989,99.10253900000043,93.7177729999994,117.30761700000039,-162.9487299999996,116.79492200000004
25,123.0771479999994,-2.9487300000000687,101.53857400000015,113.20507799999996,104.48730499999965,103.9741210000002,102.43603499999972,94.87158199999976,98.3334960000002,99.10253900000043,99.87158199999976,121.15380900000036,-158.46142599999985,114.74365200000011
26,154.61523400000078,10.0,104.74365200000011,117.82031300000017,103.58984400000008,100.25634799999989,102.69238299999961,91.6665039999998,98.58984400000008,100.0,106.9228520000006,130.51269500000035,-151.15380900000036,109.48730499999965
27,210.2563479999999,30.51269500000035,110.0,125.38476599999922,103.46142599999985,98.84619099999964,102.05126999999993,88.20507799999996,99.74365200000011,101.15380900000036,117.05126999999993,146.79492200000004,-130.64111300000013,108.9741210000002
28,273.0771479999994,58.846190999999635,115.89746099999957,133.20507799999996,102.05126999999993,97.82031300000017,98.9741210000002,85.38476599999922,99.10253900000043,100.25634799999989,128.58984400000008,164.61523400000078,-92.82055700000001,112.94873000000007
29,318.5898440000001,92.43603499999972,119.87158199999976,138.58984400000008,98.7177729999994,96.15380900000036,93.84619099999964,83.7177729999994,95.25634799999989,96.79492200000004,137.56396500000028,176.6665039999998,-40.38452099999995,114.48730499999965
30,332.6923829999996,123.46142599999985,121.15380900000036,140.51269500000035,93.7177729999994,93.58984400000008,88.58984400000008,83.20507799999996,89.61523400000078,92.17968800000017,141.0258789999998,178.9741210000002,21.410155999999915,111.9228520000006
31,321.53857400000015,142.05126999999993,120.51269500000035,139.10253900000043,88.0771479999994,90.12841800000024,85.64111300000059,82.69238299999961,84.87158199999976,88.20507799999996,138.9741210000002,173.7177729999994,89.10253900000043,110.64111300000059
32,307.05126999999993,145.2563479999999,119.48730499999965,136.79492200000004,83.0771479999994,86.6665039999998,86.0258789999998,81.6665039999998,83.0771479999994,86.53857400000015,134.3588869999994,167.94873000000007,166.0258789999998,112.30761700000039
33,312.6923829999996,142.05126999999993,119.87158199999976,137.56396500000028,81.2822270000006,85.51269500000035,88.9741210000002,81.15380900000036,83.9741210000002,88.0771479999994,132.56396500000028,168.46142599999985,262.05126999999993,112.30761700000039
34,349.48730499999965,146.53857400000015,123.7177729999994,144.48730499999965,83.7177729999994,87.69238299999961,92.56396500000028,82.17968800000017,85.38476599999922,92.05126999999993,136.2822270000006,178.46142599999985,387.05126999999993,109.23095699999976
35,410.0,164.7436520000001,130.76904300000024,156.6665039999998,87.56396500000028,91.0258789999998,94.10253900000043,83.9741210000002,84.23095699999976,95.51269500000035,143.9741210000002,194.87158199999976,543.205078,108.20507799999996
36,473.0771479999994,190.6411130000006,137.6923829999996,168.84619099999964,88.7177729999994,91.9228520000006,92.30761700000039,84.35888699999941,78.84619099999964,95.51269500000035,150.76904300000024,210.89746099999957,724.6152340000008,111.6665039999998
37,515.3847659999992,213.9741210000002,140.76904300000024,176.0258789999998,85.64111300000059,88.7177729999994,88.20507799999996,82.17968800000017,70.25634799999989,92.43603499999972,153.46142599999985,220.0,923.8461909999996,113.9741210000002
38,525.1284180000002,229.7436520000001,138.84619099999964,176.9228520000006,80.76904300000024,83.84619099999964,85.0,78.9741210000002,62.30761700000039,90.64111300000059,152.3076170000004,219.7436520000001,1136.2822270000006,111.15380900000036
39,507.94873000000007,240.38476599999922,133.7177729999994,173.84619099999964,76.9228520000006,80.0,84.10253900000043,77.05126999999993,57.56396500000028,93.0771479999994,149.61523400000078,212.56396500000028,1356.794922,108.0771479999994
40,484.6152340000008,252.56396500000028,128.7177729999994,171.41015599999992,74.74365200000011,78.0771479999994,84.48730499999965,76.79492200000004,55.897460999999566,98.46142599999985,146.0258789999998,203.46142599999985,1576.6665039999998,110.12841800000024
41,477.82031300000017,272.5639650000003,126.15380900000036,172.56396500000028,73.46142599999985,76.9228520000006,83.9741210000002,76.6665039999998,56.025878999999804,102.82031300000017,141.79492200000004,197.82031300000017,1785.8974609999996,114.10253900000043
42,497.05126999999993,299.48730499999965,127.30761700000039,177.94873000000007,72.17968800000017,75.89746099999957,82.17968800000017,75.64111300000059,56.79492200000004,103.3334960000002,138.0771479999994,198.3334960000002,1979.8715819999998,114.10253900000043
43,532.8203130000002,327.05126999999993,131.6665039999998,184.87158199999976,69.48730499999965,74.61523400000078,79.74365200000011,74.61523400000078,57.69238299999961,101.15380900000036,137.17968800000017,203.9741210000002,2162.05127,111.2822270000006
44,564.3588869999994,351.53857400000015,136.41015599999992,189.10253900000043,64.23095699999976,72.56396500000028,78.20507799999996,73.84619099999964,58.589844000000085,99.23095699999976,141.0258789999998,210.2563479999999,2340.384765999999,111.15380900000036
45,577.0512699999999,380.89746099999957,138.0771479999994,188.9741210000002,57.69238299999961,70.38476599999922,77.69238299999961,73.20507799999996,58.974121000000196,100.12841800000024,149.7436520000001,212.43603499999972,2518.7177729999994,112.56396500000028
46,573.9741210000002,431.0258789999998,135.89746099999957,187.05126999999993,53.589844000000085,69.87158199999976,78.46142599999985,72.56396500000028,58.7177729999994,103.84619099999964,160.89746099999957,210.0,2688.9741209999993,110.89746099999957
47,570.7690430000002,509.3588869999994,132.82031300000017,187.43603499999972,54.48730499999965,71.9228520000006,79.48730499999965,72.56396500000028,57.69238299999961,108.46142599999985,170.89746099999957,206.41015599999992,2833.4614260000008,107.30761700000039
48,581.2822270000006,605.2563479999999,132.43603499999972,191.79492200000004,58.333496000000196,75.51269500000035,79.61523400000078,73.46142599999985,56.410155999999915,111.53857400000015,177.82031300000017,206.2822270000006,2940.384765999999,108.0771479999994
49,604.1025390000004,696.4101559999999,135.2563479999999,197.43603499999972,61.410155999999915,77.69238299999961,79.10253900000043,75.0,55.25634799999989,112.56396500000028,181.79492200000004,210.38476599999922,3015.8974609999996,113.3334960000002
50,623.8461909999996,766.5385740000002,139.10253900000043,200.0,61.79492200000004,77.30761700000039,79.74365200000011,77.17968800000017,55.12841800000024,113.3334960000002,185.38476599999922,215.76904300000024,3077.5639650000003,116.0258789999998
51,625.5126950000003,814.6152340000008,141.15380900000036,197.82031300000017,59.61523400000078,75.25634799999989,82.94873000000007,79.87158199999976,55.64111300000059,116.15380900000036,189.48730499999965,218.0771479999994,3135.769043000001,113.9741210000002
52,608.205078,852.6923829999996,140.0,192.43603499999972,55.12841800000024,72.05126999999993,86.9228520000006,82.17968800000017,55.38476599999922,119.61523400000078,192.43603499999972,214.61523400000078,3186.2822269999997,112.17968800000017
53,587.4360349999997,895.7690430000002,135.6411130000006,187.17968800000017,48.333496000000196,67.56396500000028,87.30761700000039,81.9228520000006,52.69238299999961,120.12841800000024,191.53857400000015,206.9228520000006,3221.1538090000004,113.3334960000002
54,582.1796880000002,951.0258789999998,129.87158199999976,184.61523400000078,40.25634799999989,62.30761700000039,81.53857400000015,77.82031300000017,48.0771479999994,115.25634799999989,187.05126999999993,199.61523400000078,3239.3588870000003,113.3334960000002
55,596.4101559999999,1015.0,125.51269500000035,185.2563479999999,33.974121000000196,58.0771479999994,71.79492200000004,71.6665039999998,43.0771479999994,107.17968800000017,182.17968800000017,196.2822270000006,3246.410156,110.25634799999989
56,615.6411130000006,1076.1538090000004,124.35888699999941,187.94873000000007,31.410155999999915,56.79492200000004,63.0771479999994,66.79492200000004,39.35888699999941,100.38476599999922,180.12841800000024,196.9228520000006,3249.3588870000003,109.10253900000043
57,621.6665039999998,1123.205078,126.0258789999998,189.87158199999976,32.43603499999972,58.46142599999985,60.12841800000024,66.0258789999998,37.82031300000017,98.84619099999964,182.6923829999996,198.3334960000002,3253.8461909999996,112.94873000000007
58,611.794922,1153.0771479999994,128.58984400000008,189.61523400000078,36.53857400000015,62.69238299999961,63.974121000000196,69.35888699999941,39.23095699999976,104.10253900000043,189.23095699999976,198.9741210000002,3261.5385739999992,116.53857400000015
59,600.3847659999992,1172.8203130000002,130.89746099999957,187.3076170000004,42.94873000000007,68.20507799999996,72.30761700000039,75.12841800000024,43.0771479999994,114.35888699999941,198.0771479999994,200.51269500000035,3267.5639650000003,114.61523400000078
60,602.3076170000004,1194.6152340000008,132.94873000000007,184.61523400000078,49.23095699999976,72.94873000000007,79.87158199999976,80.76904300000024,47.43603499999972,125.0,206.41015599999992,204.7436520000001,3263.8461909999996,110.64111300000059
61,617.0512699999999,1225.8974609999996,133.84619099999964,182.82031300000017,52.17968800000017,74.87158199999976,82.17968800000017,83.84619099999964,49.61523400000078,131.9228520000006,211.6665039999998,209.87158199999976,3248.8461909999996,110.38476599999922
62,631.9228520000006,1264.8715819999998,132.82031300000017,182.3076170000004,51.025878999999804,73.7177729999994,78.58984400000008,84.61523400000078,48.20507799999996,133.58984400000008,213.20507799999996,211.9228520000006,3232.1796879999993,111.9228520000006
63,637.6923829999996,1301.9228520000006,131.0258789999998,183.20507799999996,48.846190999999635,72.17968800000017,73.58984400000008,84.35888699999941,45.38476599999922,132.94873000000007,213.58984400000008,210.0,3224.230956999999,110.25634799999989
64,637.3076170000004,1325.1284180000002,132.17968800000017,185.0,49.102539000000434,72.94873000000007,72.30761700000039,85.0,44.102539000000434,133.20507799999996,216.15380900000036,208.58984400000008,3225.384765999999,107.56396500000028
65,638.8461909999996,1330.1284180000002,137.6923829999996,186.15380900000036,52.30761700000039,76.0258789999998,75.76904300000024,86.2822270000006,45.64111300000059,135.51269500000035,222.17968800000017,212.3076170000004,3226.0258790000007,109.74365200000011
66,642.9487300000001,1323.9741210000002,144.87158199999976,184.7436520000001,56.153809000000365,79.35888699999941,81.15380900000036,87.43603499999972,48.7177729999994,138.9741210000002,229.48730499999965,220.12841800000024,3217.94873,115.0
67,641.5385740000002,1320.256348,148.46142599999985,180.38476599999922,58.974121000000196,81.6665039999998,84.35888699999941,87.94873000000007,50.897460999999566,142.17968800000017,234.61523400000078,225.89746099999957,3201.2822269999997,116.0258789999998
68,630.1284180000002,1327.05127,146.53857400000015,175.51269500000035,60.51269500000035,82.17968800000017,84.10253900000043,87.17968800000017,50.12841800000024,143.58984400000008,234.61523400000078,224.61523400000078,3181.1538090000004,111.53857400000015
69,616.0258789999998,1340.5126950000003,141.41015599999992,173.7177729999994,60.897460999999566,80.0,80.76904300000024,85.12841800000024,45.897460999999566,140.89746099999957,229.10253900000043,216.9228520000006,3159.615234000001,108.0771479999994
70,612.0512699999999,1350.1284180000002,137.56396500000028,176.2822270000006,60.12841800000024,75.51269500000035,76.15380900000036,82.30761700000039,39.74365200000011,134.10253900000043,221.9228520000006,209.48730499999965,3134.743651999999,108.9741210000002
71,622.8203130000002,1349.4873049999997,138.0771479999994,180.89746099999957,58.7177729999994,71.0258789999998,72.69238299999961,79.74365200000011,34.87158199999976,126.2822270000006,218.84619099999964,208.58984400000008,3105.8974609999996,110.38476599999922
72,637.5639650000003,1339.6152340000008,142.56396500000028,183.7177729999994,57.17968800000017,69.10253900000043,72.17968800000017,78.9741210000002,33.7177729999994,121.15380900000036,221.9228520000006,214.23095699999976,3075.6411129999997,109.87158199999976
73,639.8715819999998,1325.8974609999996,147.3076170000004,181.2822270000006,54.74365200000011,69.48730499999965,74.23095699999976,79.74365200000011,35.64111300000059,119.35888699999941,227.56396500000028,220.51269500000035,3045.6411129999997,111.2822270000006
74,624.7436520000001,1313.7177729999994,147.94873000000007,173.7177729999994,50.76904300000024,70.38476599999922,76.2822270000006,80.76904300000024,37.30761700000039,118.46142599999985,230.2563479999999,220.38476599999922,3014.1025390000004,115.38476599999922
75,603.205078,1306.794922,143.7177729999994,165.2563479999999,46.9228520000006,70.76904300000024,75.89746099999957,81.15380900000036,36.666503999999804,117.94873000000007,228.7177729999994,212.82031300000017,2981.2822269999997,116.41015599999992
76,591.5385740000002,1305.5126950000003,138.7177729999994,161.0258789999998,46.666503999999804,71.79492200000004,73.3334960000002,81.6665039999998,35.51269500000035,119.87158199999976,226.53857400000015,203.9741210000002,2953.205078,111.15380900000036
77,595.6411130000006,1307.6923829999996,138.20507799999996,163.0771479999994,52.43603499999972,74.23095699999976,71.41015599999992,83.20507799999996,37.17968800000017,126.15380900000036,227.94873000000007,200.51269500000035,2935.384765999999,106.2822270000006
78,607.5639650000003,1310.6411130000006,142.94873000000007,168.3334960000002,62.05126999999993,77.17968800000017,72.30761700000039,85.64111300000059,42.17968800000017,134.3588869999994,233.0771479999994,204.61523400000078,2922.1796879999993,108.0771479999994
79,614.2309569999998,1313.205078,149.23095699999976,172.43603499999972,70.51269500000035,78.7177729999994,75.76904300000024,87.43603499999972,47.69238299999961,139.61523400000078,238.7177729999994,212.05126999999993,2900.384765999999,113.3334960000002
80,608.4614259999998,1313.7177729999994,152.43603499999972,172.43603499999972,73.3334960000002,77.94873000000007,78.7177729999994,87.82031300000017,50.0,139.10253900000043,241.6665039999998,216.15380900000036,2864.230956999999,115.0
81,591.5385740000002,1309.1025390000004,150.38476599999922,168.3334960000002,68.84619099999964,75.0,78.7177729999994,86.53857400000015,47.69238299999961,133.84619099999964,239.61523400000078,213.0771479999994,2822.1796879999993,113.58984400000008
82,571.0258789999998,1296.410156,144.48730499999965,162.56396500000028,59.35888699999941,71.2822270000006,75.51269500000035,83.84619099999964,42.43603499999972,127.30761700000039,232.82031300000017,203.3334960000002,2788.589844,114.35888699999941
83,557.8203130000002,1277.94873,138.3334960000002,158.46142599999985,50.38476599999922,69.23095699999976,71.79492200000004,80.25634799999989,36.9228520000006,122.94873000000007,225.76904300000024,192.43603499999972,2770.384765999999,116.2822270000006
84,559.3588869999994,1263.3334960000002,136.15380900000036,159.23095699999976,47.30761700000039,71.0258789999998,70.76904300000024,77.30761700000039,34.102539000000434,122.82031300000017,225.2563479999999,187.56396500000028,2762.4360349999997,114.48730499999965
85,573.3334960000002,1262.1796880000002,139.23095699999976,164.7436520000001,52.17968800000017,76.41015599999992,73.58984400000008,76.41015599999992,35.38476599999922,125.89746099999957,234.61523400000078,191.79492200000004,2751.410156,110.0
86,586.794922,1273.9741210000002,144.7436520000001,170.89746099999957,61.153809000000365,81.53857400000015,77.82031300000017,77.82031300000017,39.35888699999941,128.3334960000002,247.82031300000017,200.76904300000024,2723.0771480000003,108.58984400000008
87,587.8203130000002,1286.2822270000006,147.56396500000028,172.43603499999972,68.46142599999985,82.69238299999961,79.48730499999965,80.12841800000024,42.82031300000017,126.79492200000004,253.7177729999994,205.76904300000024,2671.6665040000007,111.0258789999998
88,576.0258789999998,1283.9741210000002,145.2563479999999,167.82031300000017,70.64111300000059,80.0,77.05126999999993,81.79492200000004,43.7177729999994,122.69238299999961,247.3076170000004,202.43603499999972,2609.2309569999998,111.79492200000004
89,560.2563479999999,1261.6665039999998,140.51269500000035,160.12841800000024,68.20507799999996,76.79492200000004,72.56396500000028,82.56396500000028,43.20507799999996,120.89746099999957,233.7177729999994,193.7177729999994,2559.8715819999998,109.10253900000043
90,549.6152340000008,1229.3588869999994,137.6923829999996,154.3588869999994,64.61523400000078,75.89746099999957,70.12841800000024,83.46142599999985,43.7177729999994,125.51269500000035,223.58984400000008,186.9228520000006,2539.615234000001,107.82031300000017
91,548.0771479999994,1203.9741210000002,139.3588869999994,153.46142599999985,63.0771479999994,77.30761700000039,72.30761700000039,85.0,46.666503999999804,135.0,222.6923829999996,186.53857400000015,2540.1284180000002,110.38476599999922
92,555.3847659999992,1196.9228520000006,143.7177729999994,156.9228520000006,65.25634799999989,79.61523400000078,77.82031300000017,86.6665039999998,50.64111300000059,143.9741210000002,229.3588869999994,191.9228520000006,2536.538574,111.53857400000015
93,564.8715819999998,1206.0258789999998,147.43603499999972,161.2822270000006,69.48730499999965,81.15380900000036,82.17968800000017,87.56396500000028,53.846190999999635,147.6923829999996,237.3076170000004,198.0771479999994,2509.4873049999997,108.46142599999985
94,564.2309569999998,1217.3076170000004,147.3076170000004,161.9228520000006,72.30761700000039,80.51269500000035,80.89746099999957,86.79492200000004,54.61523400000078,144.61523400000078,240.51269500000035,199.3588869999994,2461.538574,106.15380900000036
95,544.1025390000004,1215.7690430000002,142.94873000000007,156.79492200000004,70.89746099999957,77.69238299999961,74.23095699999976,84.35888699999941,53.20507799999996,137.56396500000028,236.53857400000015,193.0771479999994,2411.666504,109.10253900000043
96,511.15380900000036,1197.05127,136.9228520000006,148.58984400000008,66.53857400000015,74.74365200000011,67.69238299999961,82.43603499999972,51.025878999999804,131.79492200000004,228.20507799999996,182.82031300000017,2376.794922,112.94873000000007
97,486.9228520000006,1171.410156,134.61523400000078,144.23095699999976,64.35888699999941,74.48730499999965,66.9228520000006,83.46142599999985,50.64111300000059,131.53857400000015,223.0771479999994,177.43603499999972,2358.7177729999994,112.17968800000017
98,490.12841800000024,1155.3847659999992,139.61523400000078,147.94873000000007,68.3334960000002,77.94873000000007,73.20507799999996,88.20507799999996,52.82031300000017,137.3076170000004,226.53857400000015,183.20507799999996,2345.8974609999996,109.23095699999976
99,518.205078,1157.8203130000002,149.87158199999976,157.43603499999972,76.79492200000004,83.3334960000002,81.9228520000006,95.0,56.410155999999915,145.12841800000024,238.20507799999996,198.0771479999994,2326.025879,110.12841800000024
100,550.0,1171.794922,159.3588869999994,165.2563479999999,84.87158199999976,87.69238299999961,88.0771479999994,100.64111300000059,59.61523400000078,150.6411130000006,250.89746099999957,212.43603499999972,2294.615234000001,113.3334960000002
101,564.7436520000001,1180.7690430000002,163.0771479999994,165.38476599999922,87.94873000000007,90.12841800000024,89.23095699999976,103.3334960000002,60.76904300000024,151.53857400000015,257.05126999999993,218.20507799999996,2255.0,113.58984400000008
102,556.4101559999999,1172.3076170000004,161.15380900000036,158.3334960000002,84.35888699999941,90.51269500000035,85.89746099999957,102.69238299999961,59.102539000000434,148.46142599999985,253.9741210000002,214.10253900000043,2213.0771479999994,111.41015599999992
103,533.205078,1148.0771479999994,156.79492200000004,149.10253900000043,76.15380900000036,89.23095699999976,80.64111300000059,99.35888699999941,55.51269500000035,143.20507799999996,245.2563479999999,205.38476599999922,2173.333496,112.05126999999993
104,507.05126999999993,1122.1796880000002,153.0771479999994,143.3334960000002,68.7177729999994,87.43603499999972,77.82031300000017,95.12841800000024,52.56396500000028,139.10253900000043,236.41015599999992,197.56396500000028,2138.0771479999994,115.0
105,486.2822270000006,1108.9741210000002,151.2822270000006,142.6923829999996,68.3334960000002,88.3334960000002,81.15380900000036,93.20507799999996,53.333496000000196,138.9741210000002,231.2822270000006,193.84619099999964,2108.0771479999994,114.61523400000078
106,473.9741210000002,1109.743652,152.05126999999993,146.0258789999998,75.89746099999957,93.46142599999985,90.64111300000059,95.38476599999922,57.69238299999961,142.3076170000004,229.7436520000001,193.84619099999964,2081.2822270000006,110.64111300000059
107,468.7177729999994,1112.3076170000004,154.23095699999976,149.61523400000078,85.38476599999922,100.38476599999922,100.64111300000059,100.0,62.17968800000017,145.6411130000006,228.9741210000002,194.87158199999976,2054.8715819999998,109.35888699999941
108,466.9228520000006,1104.6152340000008,155.51269500000035,150.2563479999999,89.10253900000043,104.10253900000043,104.35888699999941,102.82031300000017,62.94873000000007,145.89746099999957,226.53857400000015,193.7177729999994,2026.410156,112.69238299999961
109,465.6411130000006,1085.3847659999992,153.7177729999994,147.56396500000028,84.35888699999941,101.53857400000015,99.48730499999965,101.41015599999992,60.0,144.23095699999976,222.6923829999996,189.3588869999994,1995.5126950000003,114.61523400000078
110,463.84619099999964,1064.3588869999994,149.61523400000078,143.7177729999994,75.38476599999922,94.23095699999976,89.61523400000078,97.05126999999993,56.666503999999804,144.10253900000043,219.7436520000001,184.3588869999994,1962.4360349999997,111.41015599999992
111,461.15380900000036,1050.5126950000003,147.05126999999993,141.79492200000004,68.84619099999964,86.15380900000036,81.41015599999992,93.0771479999994,56.153809000000365,146.79492200000004,219.48730499999965,182.56396500000028,1927.5639650000003,108.46142599999985
112,457.17968800000017,1044.4873049999997,148.7177729999994,142.82031300000017,68.46142599999985,81.79492200000004,79.48730499999965,92.17968800000017,58.846190999999635,149.61523400000078,223.0771479999994,186.15380900000036,1892.6923829999996,110.12841800000024
113,451.4101559999999,1040.1284180000002,153.58984400000008,145.0,73.7177729999994,83.84619099999964,83.9741210000002,94.74365200000011,63.20507799999996,149.87158199999976,229.7436520000001,193.0771479999994,1859.2309569999998,112.82031300000017
114,443.3334960000002,1030.5126950000003,157.94873000000007,146.0258789999998,79.61523400000078,90.38476599999922,90.12841800000024,98.9741210000002,66.2822270000006,146.9228520000006,236.2822270000006,197.6923829999996,1825.1284180000002,111.79492200000004
115,432.5639650000003,1012.5639650000003,158.0771479999994,143.9741210000002,80.25634799999989,96.0258789999998,91.79492200000004,101.6665039999998,65.89746099999957,141.6665039999998,237.94873000000007,194.7436520000001,1783.589844,109.87158199999976
116,419.7436520000001,987.9487300000001,152.94873000000007,139.10253900000043,74.23095699999976,96.15380900000036,85.89746099999957,100.76904300000024,61.9228520000006,136.0258789999998,231.41015599999992,184.10253900000043,1730.0,111.41015599999992
117,407.4360349999997,962.9487300000001,145.89746099999957,133.0771479999994,67.30761700000039,92.30761700000039,76.15380900000036,96.79492200000004,57.56396500000028,132.56396500000028,219.87158199999976,171.79492200000004,1666.410156,113.9741210000002
118,397.82031300000017,942.6923829999996,142.05126999999993,128.7177729999994,67.94873000000007,90.64111300000059,70.89746099999957,93.46142599999985,56.9228520000006,133.58984400000008,210.89746099999957,165.89746099999957,1599.6152340000008,112.56396500000028
119,389.87158199999976,924.3588869999994,145.12841800000024,127.69238299999961,78.84619099999964,95.38476599999922,75.76904300000024,93.9741210000002,61.025878999999804,138.7177729999994,210.51269500000035,170.2563479999999,1531.1538090000004,109.61523400000078
120,379.7436520000001,898.5898440000001,153.3334960000002,128.9741210000002,93.3334960000002,103.84619099999964,88.20507799999996,97.94873000000007,67.05126999999993,143.46142599999985,217.17968800000017,180.38476599999922,1451.794922,110.89746099999957
121,363.5898440000001,856.794922,160.0,129.61523400000078,101.41015599999992,109.35888699999941,100.0,102.05126999999993,70.76904300000024,142.94873000000007,223.3334960000002,187.82031300000017,1347.8203130000002,115.25634799999989
122,341.53857400000015,798.4614259999998,159.48730499999965,126.6665039999998,97.43603499999972,107.56396500000028,103.58984400000008,102.82031300000017,71.0258789999998,136.79492200000004,222.56396500000028,186.9228520000006,1214.4873049999997,115.51269500000035
123,318.0771479999994,730.5126950000003,152.05126999999993,119.48730499999965,84.48730499999965,100.0,98.58984400000008,100.12841800000024,70.0,129.7436520000001,214.87158199999976,179.23095699999976,1061.2822270000006,111.2822270000006
124,298.84619099999964,660.8974609999996,143.84619099999964,110.76904300000024,71.6665039999998,92.56396500000028,90.51269500000035,96.9228520000006,70.89746099999957,127.56396500000028,206.41015599999992,171.2822270000006,907.1796880000002,108.7177729999994
125,289.3588869999994,595.6411130000006,141.15380900000036,104.48730499999965,67.69238299999961,91.15380900000036,86.6665039999998,96.79492200000004,75.25634799999989,132.17968800000017,204.7436520000001,169.61523400000078,768.4614259999998,110.25634799999989
126,291.2822270000006,538.0771479999994,145.76904300000024,103.58984400000008,75.51269500000035,98.58984400000008,89.74365200000011,101.0258789999998,82.30761700000039,140.6411130000006,212.05126999999993,175.2563479999999,651.5385740000002,111.2822270000006
127,299.87158199999976,488.9741210000002,154.23095699999976,106.2822270000006,89.87158199999976,110.51269500000035,96.41015599999992,106.79492200000004,90.38476599999922,146.0258789999998,222.43603499999972,183.46142599999985,551.794922,109.61523400000078
128,305.3847659999992,446.4101559999999,159.61523400000078,107.30761700000039,100.38476599999922,118.7177729999994,99.35888699999941,109.48730499999965,96.2822270000006,142.6923829999996,224.3588869999994,186.6665039999998,457.3076170000004,109.74365200000011
129,299.23095699999976,407.6923829999996,156.6665039999998,102.43603499999972,99.35888699999941,117.05126999999993,93.84619099999964,105.76904300000024,98.46142599999985,129.87158199999976,210.51269500000035,179.87158199999976,358.9741210000002,113.20507799999996
130,280.51269500000035,372.6923829999996,146.2822270000006,92.05126999999993,88.7177729999994,107.43603499999972,81.79492200000004,96.6665039999998,97.82031300000017,113.46142599999985,185.0,165.12841800000024,257.4360349999997,115.12841800000024
131,256.79492200000004,343.20507799999996,135.6411130000006,82.17968800000017,78.7177729999994,98.3334960000002,71.2822270000006,88.0771479999994,97.69238299999961,102.17968800000017,161.53857400000015,150.51269500000035,162.56396500000028,112.05126999999993
132,238.0771479999994,320.2563479999999,132.43603499999972,78.46142599999985,79.61523400000078,96.6665039999998,69.87158199999976,85.64111300000059,101.53857400000015,101.15380900000036,152.6923829999996,144.23095699999976,84.10253900000043,109.10253900000043
133,229.3588869999994,301.4101559999999,138.58984400000008,81.2822270000006,92.43603499999972,102.56396500000028,78.7177729999994,91.2822270000006,109.74365200000011,108.20507799999996,158.9741210000002,147.56396500000028,22.69238299999961,111.53857400000015
134,228.58984400000008,283.20507799999996,148.46142599999985,85.76904300000024,109.87158199999976,110.89746099999957,92.05126999999993,101.6665039999998,119.48730499999965,116.15380900000036,169.7436520000001,155.38476599999922,-29.358886999999868,115.51269500000035
135,230.51269500000035,263.84619099999964,155.38476599999922,86.2822270000006,122.82031300000017,116.79492200000004,102.43603499999972,111.41015599999992,127.82031300000017,118.84619099999964,172.94873000000007,160.51269500000035,-80.89746100000002,115.51269500000035
136,229.87158199999976,244.3588869999994,155.6411130000006,81.0258789999998,126.6665039999998,119.10253900000043,105.89746099999957,116.6665039999998,132.94873000000007,115.64111300000059,164.3588869999994,158.7177729999994,-134.8718259999996,113.84619099999964
137,224.61523400000078,225.76904300000024,150.38476599999922,73.0771479999994,123.58984400000008,118.3334960000002,103.58984400000008,116.9228520000006,135.0,110.12841800000024,150.0,150.6411130000006,-188.33325200000036,115.38476599999922
138,216.6665039999998,208.3334960000002,142.94873000000007,67.30761700000039,119.10253900000043,116.0258789999998,99.74365200000011,115.0,135.0,106.0258789999998,139.7436520000001,140.0,-235.64111300000013,118.20507799999996
139,209.61523400000078,191.41015599999992,137.3076170000004,66.6665039999998,119.10253900000043,114.23095699999976,98.58984400000008,114.48730499999965,134.87158199999976,104.61523400000078,138.9741210000002,131.6665039999998,-273.58984399999963,116.41015599999992
140,205.6411130000006,174.61523400000078,135.89746099999957,70.38476599999922,125.0,114.10253900000043,101.15380900000036,116.6665039999998,135.76904300000024,103.46142599999985,144.61523400000078,128.58984400000008,-303.84619099999964,111.0258789999998
141,202.3076170000004,157.82031300000017,137.43603499999972,73.9741210000002,132.6923829999996,115.12841800000024,104.61523400000078,118.84619099999964,136.9228520000006,99.35888699999941,147.94873000000007,128.7177729999994,-331.66674799999964,109.48730499999965
142,196.0258789999998,141.79492200000004,137.43603499999972,73.0771479999994,136.2822270000006,116.15380900000036,105.12841800000024,116.79492200000004,136.2822270000006,91.53857400000015,142.94873000000007,126.79492200000004,-361.02563499999997,112.69238299999961
143,186.15380900000036,128.58984400000008,133.58984400000008,67.56396500000028,134.3588869999994,116.9228520000006,101.79492200000004,109.74365200000011,133.0771479999994,82.82031300000017,132.6923829999996,119.35888699999941,-390.5129390000002,114.48730499999965
144,176.2822270000006,119.61523400000078,128.0771479999994,62.05126999999993,130.76904300000024,118.84619099999964,97.30761700000039,101.2822270000006,129.10253900000043,77.17968800000017,125.25634799999989,108.84619099999964,-415.2563479999999,112.69238299999961
145,169.10253900000043,113.3334960000002,125.12841800000024,60.897460999999566,129.48730499999965,121.53857400000015,95.12841800000024,96.53857400000015,126.79492200000004,76.0258789999998,126.41015599999992,101.0258789999998,-433.076904,111.9228520000006
146,164.23095699999976,106.53857400000015,126.15380900000036,64.61523400000078,131.15380900000036,123.20507799999996,96.41015599999992,97.05126999999993,128.0771479999994,78.9741210000002,134.10253900000043,99.48730499999965,-445.897461,114.35888699999941
147,160.38476599999922,97.82031300000017,129.7436520000001,70.38476599999922,135.0,123.0771479999994,99.61523400000078,101.15380900000036,133.0771479999994,85.25634799999989,142.94873000000007,103.58984400000008,-455.897461,115.0
148,157.17968800000017,89.10253900000043,133.7177729999994,75.51269500000035,140.89746099999957,122.43603499999972,102.82031300000017,106.2822270000006,140.76904300000024,93.0771479999994,148.0771479999994,110.89746099999957,-463.46142599999985,111.53857400000015
149,154.23095699999976,81.79492200000004,137.43603499999972,78.58984400000008,148.3334960000002,123.0771479999994,104.61523400000078,110.64111300000059,148.7177729999994,98.9741210000002,148.0771479999994,118.0771479999994,-468.97436500000003,109.35888699999941
150,150.0,74.23095699999976,139.61523400000078,78.7177729999994,155.0,124.74365200000011,104.61523400000078,113.3334960000002,154.10253900000043,98.46142599999985,142.56396500000028,121.6665039999998,-475.0,112.56396500000028
151,142.94873000000007,63.46142599999985,138.9741210000002,76.15380900000036,158.58984400000008,125.0,103.0771479999994,114.48730499999965,155.12841800000024,90.89746099999957,133.46142599999985,119.74365200000011,-484.8718259999996,116.2822270000006
152,133.46142599999985,47.82031300000017,135.38476599999922,72.30761700000039,158.46142599999985,123.0771479999994,101.41015599999992,114.87158199999976,153.3334960000002,81.6665039999998,124.23095699999976,112.82031300000017,-499.61547900000005,114.74365200000011
153,123.0771479999994,28.461425999999847,131.15380900000036,69.87158199999976,155.38476599999922,119.48730499999965,100.12841800000024,115.51269500000035,152.05126999999993,77.56396500000028,118.0771479999994,104.23095699999976,-517.6923829999996,110.89746099999957
154,112.82031300000017,7.948730000000069,128.20507799999996,70.25634799999989,151.0258789999998,116.15380900000036,99.74365200000011,115.89746099999957,153.0771479999994,80.89746099999957,115.64111300000059,97.05126999999993,-536.923096,110.64111300000059
155,103.46142599999985,-10.769286999999622,127.05126999999993,72.82031300000017,147.82031300000017,115.38476599999922,100.12841800000024,115.76904300000024,155.76904300000024,88.58984400000008,116.6665039999998,92.56396500000028,-555.5129390000002,112.69238299999961
156,96.15380900000036,-26.153809000000365,127.17968800000017,75.64111300000059,148.58984400000008,118.9741210000002,102.43603499999972,115.51269500000035,158.58984400000008,94.48730499999965,120.51269500000035,90.76904300000024,-572.3076170000004,111.79492200000004
157,90.12841800000024,-39.35888699999987,127.82031300000017,75.76904300000024,152.82031300000017,126.15380900000036,106.79492200000004,116.41015599999992,159.61523400000078,94.74365200000011,125.89746099999957,90.25634799999989,-588.076904,109.23095699999976
158,82.69238299999961,-54.74365200000011,126.9228520000006,71.6665039999998,156.79492200000004,132.56396500000028,111.53857400000015,117.82031300000017,157.94873000000007,88.58984400000008,128.7177729999994,88.46142599999985,-605.384521,110.38476599999922
159,71.0258789999998,-75.1281740000004,122.94873000000007,64.10253900000043,156.15380900000036,133.58984400000008,114.23095699999976,117.94873000000007,154.3588869999994,78.9741210000002,124.74365200000011,82.82031300000017,-625.384521,114.10253900000043
160,56.666503999999804,-98.20507799999996,116.0258789999998,56.79492200000004,151.2822270000006,129.10253900000043,114.74365200000011,115.89746099999957,150.76904300000024,70.89746099999957,114.48730499999965,73.9741210000002,-646.1538090000004,114.10253900000043
161,43.974121000000196,-118.71801800000003,109.87158199999976,53.7177729999994,145.6411130000006,122.56396500000028,115.0,113.0771479999994,149.10253900000043,68.9741210000002,102.94873000000007,66.0258789999998,-664.2307130000004,109.74365200000011
162,36.153809000000365,-133.84619099999964,108.0771479999994,55.76904300000024,142.94873000000007,118.0771479999994,117.05126999999993,111.6665039999998,149.23095699999976,73.0771479999994,95.51269500000035,62.82031300000017,-678.4614259999998,107.56396500000028
163,33.0771479999994,-143.58984399999963,110.89746099999957,60.897460999999566,143.9741210000002,117.69238299999961,121.0258789999998,113.0771479999994,150.12841800000024,79.23095699999976,94.35888699999941,65.0,-691.1538090000004,110.0
164,32.94873000000007,-149.7436520000001,115.64111300000059,65.89746099999957,148.3334960000002,121.41015599999992,125.89746099999957,117.17968800000017,151.15380900000036,83.7177729999994,97.43603499999972,70.0,-704.3588869999999,111.79492200000004
165,33.0771479999994,-154.10253899999998,119.87158199999976,69.35888699999941,153.7177729999994,127.30761700000039,129.87158199999976,122.56396500000028,152.6923829999996,85.76904300000024,100.76904300000024,74.61523400000078,-718.8461909999996,110.0
166,30.769043000000238,-159.23071300000038,121.9228520000006,71.0258789999998,157.43603499999972,131.41015599999992,131.2822270000006,126.2822270000006,154.61523400000078,85.76904300000024,101.15380900000036,77.17968800000017,-734.7436520000001,109.23095699999976
167,24.230956999999762,-167.179443,121.79492200000004,71.53857400000015,157.3076170000004,131.53857400000015,130.0,126.79492200000004,155.89746099999957,84.23095699999976,97.69238299999961,77.05126999999993,-750.897461,112.82031300000017
168,15.641113000000587,-176.28198199999997,120.25634799999989,71.53857400000015,155.12841800000024,129.23095699999976,128.20507799999996,125.0,155.6411130000006,82.05126999999993,92.69238299999961,75.89746099999957,-765.7692870000001,116.2822270000006
169,8.589844000000085,-183.84619099999964,119.23095699999976,71.79492200000004,154.7436520000001,128.7177729999994,129.10253900000043,123.84619099999964,153.9741210000002,81.0258789999998,90.51269500000035,76.15380900000036,-777.5642090000001,115.12841800000024
170,4.487304999999651,-188.84619099999964,119.87158199999976,72.56396500000028,157.82031300000017,131.2822270000006,132.3076170000004,124.87158199999976,151.0258789999998,82.05126999999993,92.69238299999961,78.84619099999964,-787.6923829999996,112.94873000000007
171,0.8974609999995664,-194.23071300000038,121.53857400000015,74.35888699999941,162.05126999999993,133.9741210000002,134.10253900000043,126.53857400000015,147.56396500000028,83.58984400000008,97.43603499999972,81.9228520000006,-799.3588870000003,114.35888699999941
172,-3.9741210000001956,-202.0512700000004,122.69238299999961,77.94873000000007,165.12841800000024,134.10253900000043,131.41015599999992,126.41015599999992,144.48730499999965,83.84619099999964,100.89746099999957,83.0771479999994,-813.3332519999999,116.53857400000015
173,-9.358886999999868,-210.2563479999999,123.0771479999994,83.46142599999985,166.2822270000006,131.79492200000004,125.25634799999989,124.61523400000078,143.58984400000008,83.84619099999964,100.64111300000059,82.69238299999961,-826.923096,114.48730499999965
174,-12.307617000000391,-216.02563499999997,123.7177729999994,88.46142599999985,166.15380900000036,129.10253900000043,120.64111300000059,123.0771479999994,145.12841800000024,85.64111300000059,97.05126999999993,82.94873000000007,-837.9487300000001,110.76904300000024
175,-12.435790999999426,-219.10253899999998,125.12841800000024,89.74365200000011,164.7436520000001,126.6665039999998,120.89746099999957,123.84619099999964,147.94873000000007,90.0,92.43603499999972,85.38476599999922,-848.4614260000003,111.53857400000015
176,-11.538574000000153,-221.41015600000037,126.2822270000006,85.89746099999957,161.6665039999998,124.48730499999965,125.51269500000035,126.9228520000006,150.0,94.74365200000011,89.87158199999976,88.58984400000008,-862.3076170000004,115.38476599999922
177,-11.538574000000153,-224.7436520000001,126.0258789999998,79.35888699999941,157.82031300000017,123.3334960000002,130.6411130000006,130.6411130000006,150.38476599999922,96.9228520000006,91.41015599999992,90.38476599999922,-881.4101559999999,115.64111300000059
178,-13.974365000000034,-230.0,124.74365200000011,74.48730499999965,154.48730499999965,123.46142599999985,132.94873000000007,132.94873000000007,148.84619099999964,94.61523400000078,95.38476599999922,89.48730499999965,-903.5898440000001,111.53857400000015
179,-20.1281740000004,-237.56420900000057,122.94873000000007,73.84619099999964,152.17968800000017,124.10253900000043,130.89746099999957,132.6923829999996,145.89746099999957,87.43603499999972,97.82031300000017,85.64111300000059,-925.128174,109.48730499999965
180,-29.487060999999812,-246.79492200000004,120.0,76.53857400000015,151.0258789999998,124.61523400000078,126.6665039999998,130.12841800000024,142.6923829999996,78.46142599999985,95.0,79.48730499999965,-942.179443,111.6665039999998
181,-39.74365200000011,-255.38452099999995,116.0258789999998,79.35888699999941,151.0258789999998,125.64111300000059,124.61523400000078,127.30761700000039,140.76904300000024,72.69238299999961,87.30761700000039,72.30761700000039,-953.205078,112.94873000000007
182,-48.33325200000036,-261.41015600000037,112.05126999999993,79.23095699999976,151.9228520000006,127.82031300000017,127.30761700000039,126.15380900000036,141.15380900000036,72.94873000000007,78.46142599999985,66.41015599999992,-959.7436520000001,110.76904300000024
183,-55.0,-265.64111300000013,109.35888699999941,75.89746099999957,151.6665039999998,130.0,132.56396500000028,126.6665039999998,142.56396500000028,76.9228520000006,71.53857400000015,63.20507799999996,-967.0512699999999,109.23095699999976
184,-60.64111300000013,-270.38452099999995,107.69238299999961,71.41015599999992,148.0771479999994,129.7436520000001,135.51269500000035,126.15380900000036,142.82031300000017,78.84619099999964,68.58984400000008,62.43603499999972,-978.718018,111.41015599999992
185,-65.1281740000004,-276.66674799999964,106.2822270000006,69.48730499999965,142.3076170000004,127.17968800000017,134.10253900000043,122.94873000000007,140.38476599999922,75.51269500000035,69.61523400000078,62.56396500000028,-993.205078,112.82031300000017
186,-66.92309599999999,-282.5642090000006,105.38476599999922,72.17968800000017,138.20507799999996,125.12841800000024,130.6411130000006,118.7177729999994,136.53857400000015,69.23095699999976,73.58984400000008,62.94873000000007,-1004.7436520000001,110.76904300000024
187,-66.41015600000037,-286.53857400000015,105.89746099999957,77.56396500000028,138.58984400000008,125.89746099999957,128.9741210000002,116.41015599999992,133.20507799999996,64.10253900000043,76.79492200000004,62.82031300000017,-1010.2563479999999,109.61523400000078
188,-66.53857400000015,-289.102539,106.9228520000006,81.41015599999992,142.05126999999993,128.84619099999964,129.87158199999976,117.43603499999972,131.15380900000036,62.30761700000039,75.0,61.153809000000365,-1012.820557,113.46142599999985
189,-69.8718259999996,-292.0512700000004,107.43603499999972,81.0258789999998,145.51269500000035,131.6665039999998,131.79492200000004,120.51269500000035,130.38476599999922,62.94873000000007,68.20507799999996,57.56396500000028,-1017.6923829999996,117.56396500000028
190,-75.38452099999995,-295.7692869999996,106.9228520000006,77.82031300000017,147.43603499999972,133.20507799999996,133.3334960000002,123.58984400000008,131.15380900000036,65.51269500000035,62.43603499999972,54.35888699999941,-1025.897461,116.15380900000036
191,-79.61547900000005,-298.97436500000003,107.17968800000017,75.64111300000059,147.82031300000017,134.10253900000043,135.12841800000024,125.64111300000059,134.10253900000043,69.87158199999976,64.10253900000043,55.12841800000024,-1034.102539,111.6665039999998
192,-80.51293900000019,-301.41015600000037,108.84619099999964,76.9228520000006,146.79492200000004,134.7436520000001,137.82031300000017,127.05126999999993,138.58984400000008,75.12841800000024,72.82031300000017,60.25634799999989,-1038.718018,111.53857400000015
193,-79.35888699999987,-303.58984399999963,110.64111300000059,80.12841800000024,143.9741210000002,134.7436520000001,141.41015599999992,127.82031300000017,142.6923829999996,78.7177729999994,81.53857400000015,66.41015599999992,-1038.718018,115.25634799999989
194,-79.10253899999998,-306.53857400000015,110.89746099999957,82.30761700000039,140.2563479999999,134.10253900000043,144.3588869999994,128.46142599999985,144.10253900000043,78.58984400000008,82.30761700000039,68.9741210000002,-1036.153809,116.41015599999992
195,-81.79492200000004,-310.0,109.48730499999965,81.53857400000015,138.3334960000002,133.20507799999996,145.0,128.84619099999964,142.56396500000028,75.25634799999989,72.94873000000007,66.53857400000015,-1033.974365,113.7177729999994
196,-87.43579099999943,-313.58984399999963,107.82031300000017,78.0771479999994,139.87158199999976,132.56396500000028,142.6923829999996,128.9741210000002,138.9741210000002,71.79492200000004,58.0771479999994,61.53857400000015,-1035.256348,112.17968800000017
197,-93.84619099999964,-316.41015600000037,106.6665039999998,74.23095699999976,143.84619099999964,132.43603499999972,138.7177729999994,128.9741210000002,135.76904300000024,71.53857400000015,45.76904300000024,57.94873000000007,-1040.769287,112.82031300000017
198,-97.94872999999961,-317.9487299999996,106.41015599999992,72.17968800000017,147.43603499999972,133.58984400000008,135.89746099999957,129.23095699999976,134.87158199999976,76.0258789999998,42.43603499999972,58.20507799999996,-1048.718018,111.9228520000006
199,-98.33325200000036,-318.84619099999964,107.05126999999993,73.20507799999996,148.20507799999996,135.51269500000035,136.0258789999998,129.87158199999976,136.9228520000006,83.46142599999985,48.846190999999635,61.666503999999804,-1056.281982,108.7177729999994
200,-97.30761700000039,-321.28198199999997,108.58984400000008,76.15380900000036,145.0,136.2822270000006,137.56396500000028,130.0,139.87158199999976,89.74365200000011,59.23095699999976,65.25634799999989,-1062.05127,108.0771479999994
201,-98.84619099999964,-326.53857400000015,110.0,78.3334960000002,138.7177729999994,133.3334960000002,137.17968800000017,128.58984400000008,140.76904300000024,90.51269500000035,65.25634799999989,65.12841800000024,-1067.05127,111.41015599999992
202,-103.58984399999963,-332.820557,109.61523400000078,78.46142599999985,132.43603499999972,127.30761700000039,132.82031300000017,126.0258789999998,138.0771479999994,84.61523400000078,63.20507799999996,60.76904300000024,-1072.05127,112.94873000000007
203,-108.97436500000003,-335.897461,107.17968800000017,77.05126999999993,129.3588869999994,121.41015599999992,126.0258789999998,123.84619099999964,133.20507799999996,74.61523400000078,55.76904300000024,55.0,-1076.666748,109.87158199999976
204,-111.66674799999964,-334.35888699999987,104.48730499999965,76.15380900000036,130.51269500000035,119.10253900000043,121.0258789999998,123.46142599999985,129.3588869999994,65.76904300000024,48.846190999999635,51.666503999999804,-1079.615479,107.69238299999961
205,-110.51293900000019,-329.8718259999996,102.82031300000017,77.17968800000017,133.9741210000002,121.15380900000036,120.76904300000024,125.25634799999989,128.84619099999964,63.0771479999994,46.410155999999915,52.17968800000017,-1080.256348,110.64111300000059
206,-106.53857400000015,-325.2563479999999,102.56396500000028,79.87158199999976,137.6923829999996,126.6665039999998,125.51269500000035,128.0771479999994,131.79492200000004,68.20507799999996,48.846190999999635,55.25634799999989,-1078.333252,114.74365200000011
207,-101.41015600000037,-322.0512700000004,103.7177729999994,83.46142599999985,141.9228520000006,133.3334960000002,132.05126999999993,130.51269500000035,135.89746099999957,78.46142599999985,54.87158199999976,59.23095699999976,-1074.615479,113.9741210000002
208,-97.82055700000001,-321.15380900000036,106.15380900000036,86.53857400000015,146.15380900000036,137.6923829999996,136.15380900000036,131.0258789999998,137.82031300000017,87.30761700000039,62.56396500000028,62.69238299999961,-1071.923096,111.0258789999998
209,-99.10253899999998,-323.58984399999963,107.94873000000007,86.6665039999998,148.9741210000002,137.05126999999993,135.0,129.10253900000043,135.76904300000024,88.3334960000002,68.84619099999964,63.846190999999635,-1073.718018,111.2822270000006
210,-106.66674799999964,-329.8718259999996,106.0258789999998,82.43603499999972,147.56396500000028,131.79492200000004,128.58984400000008,124.74365200000011,130.51269500000035,80.51269500000035,70.12841800000024,60.897460999999566,-1080.5129390000002,113.9741210000002
211,-117.69238299999961,-337.9487299999996,99.87158199999976,75.64111300000059,141.41015599999992,125.76904300000024,120.76904300000024,119.87158199999976,125.51269500000035,69.48730499999965,64.23095699999976,53.7177729999994,-1088.846191,114.35888699999941
212,-127.69238299999961,-345.5129390000002,92.82031300000017,71.0258789999998,132.94873000000007,122.82031300000017,115.64111300000059,116.15380900000036,123.3334960000002,63.20507799999996,51.666503999999804,45.51269500000035,-1093.333252,113.0771479999994
213,-132.9487299999996,-350.0,89.23095699999976,71.9228520000006,126.2822270000006,123.7177729999994,115.76904300000024,115.38476599999922,124.61523400000078,65.89746099999957,37.30761700000039,40.25634799999989,-1091.153809,114.23095699999976
214,-132.0512700000004,-349.8718259999996,90.76904300000024,77.82031300000017,125.38476599999922,126.79492200000004,120.89746099999957,117.56396500000028,128.0771479999994,76.15380900000036,28.077147999999397,41.153809000000365,-1083.718018,116.2822270000006
215,-125.89746100000002,-344.102539,96.0258789999998,84.74365200000011,131.2822270000006,130.6411130000006,128.0771479999994,122.17968800000017,131.41015599999992,88.46142599999985,29.102539000000434,47.43603499999972,-1074.615479,113.9741210000002
216,-116.79492200000004,-334.102539,102.17968800000017,88.9741210000002,141.15380900000036,134.61523400000078,133.58984400000008,127.30761700000039,133.7177729999994,96.79492200000004,40.12841800000024,56.2822270000006,-1067.179443,108.46142599999985
217,-108.20507799999996,-324.102539,106.79492200000004,89.35888699999941,149.48730499999965,137.56396500000028,135.0,131.0258789999998,133.9741210000002,97.94873000000007,54.87158199999976,63.846190999999635,-1063.205078,106.9228520000006
218,-103.20507799999996,-318.71801800000003,108.3334960000002,87.05126999999993,152.3076170000004,138.20507799999996,133.0771479999994,131.79492200000004,133.0771479999994,94.23095699999976,65.38476599999922,68.3334960000002,-1061.410156,110.89746099999957
219,-101.79492200000004,-319.4870609999998,107.43603499999972,84.23095699999976,150.2563479999999,136.0258789999998,130.76904300000024,130.38476599999922,132.43603499999972,91.41015599999992,68.0771479999994,70.0,-1058.4614260000003,113.58984400000008
220,-102.56420900000057,-324.35888699999987,106.0258789999998,83.0771479999994,146.6665039999998,132.3076170000004,130.51269500000035,128.58984400000008,132.94873000000007,93.46142599999985,65.12841800000024,70.89746099999957,-1052.820557,111.15380900000036
221,-105.38452099999995,-330.38452099999995,105.76904300000024,83.46142599999985,143.58984400000008,128.3334960000002,132.3076170000004,127.69238299999961,133.84619099999964,98.0771479999994,61.153809000000365,71.79492200000004,-1047.5642090000001,108.46142599999985
222,-110.38452099999995,-335.38452099999995,105.25634799999989,83.46142599999985,140.51269500000035,125.25634799999989,133.9741210000002,127.43603499999972,133.20507799999996,99.61523400000078,58.846190999999635,71.41015599999992,-1047.4357909999999,109.87158199999976
223,-115.64111300000013,-337.3076170000004,102.94873000000007,82.17968800000017,137.56396500000028,124.87158199999976,133.84619099999964,127.30761700000039,130.51269500000035,95.12841800000024,59.23095699999976,68.20507799999996,-1052.6923829999996,111.6665039999998
224,-117.94872999999961,-335.5129390000002,99.35888699999941,80.89746099999957,135.51269500000035,127.94873000000007,132.05126999999993,127.43603499999972,127.94873000000007,88.0771479999994,61.53857400000015,63.46142599999985,-1058.076904,110.12841800000024
225,-116.15380900000036,-332.3076170000004,96.41015599999992,81.79492200000004,134.48730499999965,132.94873000000007,130.12841800000024,127.94873000000007,127.05126999999993,83.84619099999964,64.23095699999976,59.87158199999976,-1058.205078,108.0771479999994
226,-113.20507799999996,-332.4357909999994,95.25634799999989,85.12841800000024,133.0771479999994,135.38476599999922,127.82031300000017,128.20507799999996,127.30761700000039,84.35888699999941,64.35888699999941,59.102539000000434,-1052.6923829999996,110.0
227,-113.33325200000036,-338.20507799999996,94.87158199999976,88.20507799999996,130.38476599999922,132.17968800000017,124.48730499999965,127.05126999999993,127.17968800000017,87.05126999999993,60.38476599999922,60.12841800000024,-1045.769287,112.82031300000017
228,-117.17944299999999,-346.923096,93.84619099999964,88.46142599999985,127.05126999999993,124.35888699999941,120.12841800000024,124.74365200000011,126.0258789999998,89.35888699999941,53.846190999999635,61.2822270000006,-1040.5129390000002,112.05126999999993
229,-121.79492200000004,-353.076904,92.69238299999961,85.51269500000035,124.61523400000078,116.53857400000015,116.15380900000036,122.56396500000028,124.61523400000078,91.15380900000036,48.333496000000196,61.2822270000006,-1037.3076170000004,110.12841800000024
230,-123.58984399999963,-352.9487299999996,92.17968800000017,81.6665039999998,123.7177729999994,112.43603499999972,114.35888699999941,121.0258789999998,123.9741210000002,93.7177729999994,46.79492200000004,60.38476599999922,-1034.3588870000003,112.69238299999961
231,-121.15380900000036,-346.79492200000004,92.30761700000039,79.48730499999965,124.35888699999941,113.9741210000002,115.38476599999922,120.51269500000035,124.23095699999976,97.69238299999961,49.23095699999976,59.48730499999965,-1030.384521,117.43603499999972
232,-115.38452099999995,-337.820557,93.20507799999996,80.64111300000059,127.05126999999993,120.25634799999989,118.20507799999996,120.64111300000059,125.76904300000024,103.0771479999994,53.46142599999985,59.61523400000078,-1024.743652,117.17968800000017
233,-108.58984399999963,-329.61547900000005,95.64111300000059,85.0,132.56396500000028,128.3334960000002,121.6665039999998,121.41015599999992,128.20507799999996,108.84619099999964,56.9228520000006,61.9228520000006,-1017.4357909999999,111.41015599999992
234,-103.46142599999985,-324.8718259999996,99.74365200000011,91.2822270000006,139.7436520000001,133.7177729999994,124.48730499999965,122.17968800000017,130.6411130000006,113.46142599999985,58.0771479999994,66.41015599999992,-1010.0,107.82031300000017
235,-100.64111300000013,-323.58984399999963,104.23095699999976,97.17968800000017,145.6411130000006,133.7177729999994,126.15380900000036,122.43603499999972,131.9228520000006,115.89746099999957,57.94873000000007,71.6665039999998,-1003.076904,109.35888699999941
236,-98.33325200000036,-322.9487299999996,107.56396500000028,100.64111300000059,147.43603499999972,129.48730499999965,126.9228520000006,122.17968800000017,132.05126999999993,116.41015599999992,60.64111300000059,77.17968800000017,-996.5385739999997,111.6665039999998
237,-94.8718259999996,-320.38452099999995,109.10253900000043,100.89746099999957,143.9741210000002,123.46142599999985,127.17968800000017,122.17968800000017,132.05126999999993,116.15380900000036,68.58984400000008,81.9228520000006,-989.871826,111.2822270000006
238,-92.56420900000057,-317.9487299999996,108.20507799999996,98.0771479999994,135.6411130000006,117.82031300000017,125.64111300000059,122.30761700000039,132.05126999999993,115.38476599999922,78.0771479999994,84.35888699999941,-984.4870609999998,111.53857400000015
239,-94.74365200000011,-319.35888699999987,104.35888699999941,92.82031300000017,125.0,113.9741210000002,121.0258789999998,122.05126999999993,131.6665039999998,113.84619099999964,81.0258789999998,82.17968800000017,-982.3076170000004,113.9741210000002
240,-101.92309599999999,-324.8718259999996,98.3334960000002,87.30761700000039,117.05126999999993,113.58984400000008,114.87158199999976,121.6665039999998,131.0258789999998,112.56396500000028,73.3334960000002,75.64111300000059,-982.6923829999996,113.7177729999994
241,-109.61547900000005,-330.5129390000002,92.69238299999961,83.84619099999964,116.53857400000015,117.94873000000007,111.0258789999998,121.9228520000006,131.0258789999998,113.0771479999994,59.23095699999976,68.3334960000002,-982.820557,108.58984400000008
242,-113.33325200000036,-332.4357909999994,90.51269500000035,83.58984400000008,123.3334960000002,124.35888699999941,112.05126999999993,123.3334960000002,131.41015599999992,114.35888699999941,47.82031300000017,64.48730499999965,-980.5129390000002,104.61523400000078
243,-112.43579099999943,-330.897461,92.17968800000017,85.64111300000059,131.41015599999992,128.20507799999996,116.9228520000006,124.74365200000011,130.89746099999957,113.58984400000008,45.12841800000024,64.74365200000011,-976.6667480000001,107.43603499999972
244,-109.61547900000005,-328.58984399999963,95.0,87.82031300000017,134.87158199999976,126.9228520000006,121.2822270000006,124.35888699999941,128.3334960000002,108.46142599999985,50.897460999999566,66.41015599999992,-972.9487300000001,112.94873000000007
245,-107.43579099999943,-327.0512700000004,96.2822270000006,88.46142599999985,132.56396500000028,122.56396500000028,122.30761700000039,122.05126999999993,124.61523400000078,101.6665039999998,59.48730499999965,67.17968800000017,-970.2563479999999,114.35888699999941
246,-106.79492200000004,-326.02563499999997,95.76904300000024,88.20507799999996,127.56396500000028,118.9741210000002,119.48730499999965,120.12841800000024,122.17968800000017,98.3334960000002,64.87158199999976,67.05126999999993,-968.205078,112.56396500000028
247,-106.79492200000004,-324.35888699999987,95.0,88.0771479999994,124.23095699999976,118.9741210000002,115.38476599999922,120.64111300000059,122.56396500000028,101.6665039999998,64.48730499999965,67.69238299999961,-965.2563479999999,112.43603499999972
248,-105.1281740000004,-320.64111300000013,95.64111300000059,90.12841800000024,125.64111300000059,122.94873000000007,113.84619099999964,123.84619099999964,125.76904300000024,111.53857400000015,61.025878999999804,70.76904300000024,-958.974365,113.7177729999994
249,-99.74365200000011,-313.71801800000003,98.46142599999985,94.74365200000011,132.3076170000004,130.0,117.94873000000007,128.46142599999985,130.76904300000024,124.61523400000078,59.23095699999976,76.79492200000004,-947.4357909999999,111.79492200000004
250,-91.66674799999964,-305.0,102.69238299999961,100.51269500000035,141.2822270000006,136.9228520000006,126.0258789999998,132.94873000000007,135.76904300000024,135.76904300000024,61.53857400000015,84.35888699999941,-932.179443,108.46142599999985
251,-85.64111300000013,-298.84619099999964,105.89746099999957,103.58984400000008,146.53857400000015,138.9741210000002,132.82031300000017,135.2563479999999,138.20507799999996,140.2563479999999,65.25634799999989,90.38476599999922,-919.3588870000003,109.87158199999976
252,-85.51293900000019,-299.35888699999987,105.64111300000059,101.15380900000036,143.7177729999994,133.58984400000008,133.20507799999996,134.10253900000043,136.6665039999998,136.6665039999998,67.05126999999993,91.6665039999998,-914.615479,115.38476599999922
253,-90.64111300000013,-305.2563479999999,102.05126999999993,93.7177729999994,134.61523400000078,123.46142599999985,127.17968800000017,130.0,132.6923829999996,127.82031300000017,66.15380900000036,87.69238299999961,-917.820557,117.82031300000017
254,-97.17944299999999,-312.3076170000004,97.69238299999961,85.25634799999989,124.61523400000078,114.23095699999976,118.58984400000008,124.74365200000011,128.58984400000008,118.46142599999985,64.74365200000011,81.41015599999992,-923.8461910000001,115.0
255,-101.41015600000037,-317.179443,94.87158199999976,79.48730499999965,117.56396500000028,109.48730499999965,111.6665039999998,120.64111300000059,126.0258789999998,110.64111300000059,64.48730499999965,75.76904300000024,-927.820557,112.43603499999972
256,-102.69238299999961,-318.46142599999985,93.9741210000002,77.94873000000007,114.87158199999976,108.9741210000002,109.10253900000043,118.84619099999964,125.0,105.38476599999922,64.61523400000078,72.56396500000028,-928.076904,113.3334960000002
257,-100.76928699999962,-315.897461,94.10253900000043,80.64111300000059,116.53857400000015,111.41015599999992,111.0258789999998,119.87158199999976,125.25634799999989,104.48730499999965,63.974121000000196,72.43603499999972,-924.2307129999999,113.0771479999994
258,-95.76928699999962,-309.61547900000005,95.12841800000024,86.2822270000006,121.53857400000015,115.12841800000024,115.76904300000024,122.94873000000007,126.53857400000015,109.61523400000078,62.30761700000039,75.51269500000035,-916.5385739999997,108.7177729999994
259,-90.1281740000004,-302.4357909999994,96.79492200000004,92.05126999999993,127.05126999999993,118.3334960000002,119.87158199999976,125.76904300000024,128.3334960000002,118.58984400000008,59.48730499999965,80.0,-907.4357909999999,105.64111300000059
260,-87.17944299999999,-298.46142599999985,98.0771479999994,95.38476599999922,128.7177729999994,118.84619099999964,120.64111300000059,125.51269500000035,128.84619099999964,125.25634799999989,55.25634799999989,82.43603499999972,-900.128174,108.46142599999985
261,-88.33325200000036,-299.61547900000005,97.56396500000028,95.0,125.89746099999957,116.53857400000015,118.46142599999985,121.6665039999998,127.43603499999972,124.35888699999941,51.2822270000006,80.89746099999957,-895.6411129999997,113.20507799999996
262,-90.25634799999989,-302.5642090000006,96.0258789999998,93.20507799999996,122.94873000000007,114.23095699999976,117.30761700000039,117.05126999999993,125.51269500000035,118.0771479999994,50.38476599999922,77.17968800000017,-891.1538089999999,113.84619099999964
263,-89.23071300000038,-301.53857400000015,95.76904300000024,92.43603499999972,124.61523400000078,115.12841800000024,120.12841800000024,115.64111300000059,124.61523400000078,112.82031300000017,53.846190999999635,75.25634799999989,-883.718018,112.17968800000017
264,-84.10253899999998,-294.4870609999998,97.94873000000007,93.58984400000008,131.15380900000036,119.87158199999976,126.53857400000015,118.46142599999985,125.0,113.58984400000008,59.48730499999965,77.43603499999972,-873.8461910000001,112.69238299999961
265,-76.92309599999999,-283.46142599999985,101.2822270000006,95.89746099999957,138.84619099999964,126.41015599999992,132.82031300000017,123.9741210000002,125.89746099999957,119.74365200000011,64.61523400000078,82.69238299999961,-864.615479,114.48730499999965
266,-70.38452099999995,-272.9487299999996,103.9741210000002,98.84619099999964,143.3334960000002,131.9228520000006,136.15380900000036,128.84619099999964,126.6665039999998,127.82031300000017,68.58984400000008,88.46142599999985,-857.9487300000001,113.20507799999996
267,-67.17944299999999,-267.9487299999996,105.76904300000024,101.79492200000004,142.82031300000017,133.9741210000002,135.6411130000006,131.0258789999998,127.69238299999961,133.3334960000002,72.94873000000007,92.17968800000017,-853.4614260000003,110.89746099999957
268,-68.84619099999964,-271.41015600000037,105.76904300000024,102.82031300000017,137.56396500000028,131.53857400000015,132.43603499999972,129.7436520000001,128.7177729999994,134.23095699999976,77.69238299999961,92.43603499999972,-849.871826,112.69238299999961
269,-74.48706099999981,-280.897461,103.46142599999985,100.89746099999957,130.76904300000024,126.53857400000015,128.7177729999994,126.41015599999992,129.61523400000078,131.41015599999992,81.0258789999998,89.48730499999965,-845.5129390000002,116.9228520000006
270,-79.35888699999987,-289.102539,99.87158199999976,97.43603499999972,126.79492200000004,122.30761700000039,127.05126999999993,123.3334960000002,130.2563479999999,128.58984400000008,82.43603499999972,85.89746099999957,-838.4614260000003,116.41015599999992
271,-78.58984399999963,-288.33325200000036,97.56396500000028,95.38476599999922,128.0771479999994,121.2822270000006,128.0771479999994,122.56396500000028,130.6411130000006,129.10253900000043,81.79492200000004,84.87158199999976,-828.076904,110.12841800000024
272,-72.94872999999961,-279.2307130000004,98.0771479999994,95.89746099999957,132.05126999999993,122.82031300000017,130.12841800000024,124.23095699999976,130.76904300000024,132.05126999999993,78.9741210000002,86.41015599999992,-817.4357909999999,105.76904300000024
273,-67.94872999999961,-270.1281740000004,99.35888699999941,96.9228520000006,133.84619099999964,124.23095699999976,130.76904300000024,126.53857400000015,130.12841800000024,133.3334960000002,73.0771479999994,87.94873000000007,-811.794922,107.43603499999972
274,-69.10253899999998,-270.2563479999999,98.7177729999994,95.51269500000035,131.41015599999992,123.58984400000008,129.3588869999994,128.0771479999994,128.9741210000002,130.51269500000035,65.25634799999989,86.9228520000006,-813.718018,110.76904300000024
275,-76.15380900000036,-280.5129390000002,96.2822270000006,91.6665039999998,127.17968800000017,121.53857400000015,127.94873000000007,129.48730499999965,128.46142599999985,125.76904300000024,59.87158199999976,84.23095699999976,-819.7436520000001,111.53857400000015
276,-83.46142599999985,-293.33325200000036,95.0,87.69238299999961,125.25634799999989,120.0,128.58984400000008,131.6665039999998,129.23095699999976,123.58984400000008,60.64111300000059,82.94873000000007,-823.3332519999999,111.9228520000006
277,-85.0,-297.4357909999994,96.9228520000006,86.53857400000015,127.94873000000007,119.87158199999976,131.15380900000036,134.10253900000043,130.6411130000006,126.79492200000004,66.79492200000004,85.12841800000024,-819.2307129999999,113.58984400000008
278,-79.10253899999998,-286.66674799999964,100.76904300000024,89.35888699999941,133.84619099999964,121.41015599999992,134.10253900000043,135.2563479999999,131.6665039999998,133.3334960000002,72.94873000000007,88.84619099999964,-807.9487300000001,113.0771479999994
279,-69.61547900000005,-265.2563479999999,103.58984400000008,95.0,139.87158199999976,123.84619099999964,135.38476599999922,134.48730499999965,131.0258789999998,137.94873000000007,75.12841800000024,90.76904300000024,-795.6411129999997,108.0771479999994
280,-64.61547900000005,-245.38452099999995,103.20507799999996,99.87158199999976,142.05126999999993,125.25634799999989,133.3334960000002,131.9228520000006,128.7177729999994,136.53857400000015,72.43603499999972,88.9741210000002,-790.0,103.84619099999964
281,-69.61547900000005,-238.97436500000003,98.9741210000002,101.15380900000036,138.58984400000008,123.58984400000008,128.0771479999994,127.82031300000017,125.12841800000024,128.58984400000008,67.56396500000028,83.7177729999994,-794.871826,106.0258789999998
282,-82.30761700000039,-247.43579099999943,92.69238299999961,98.46142599999985,131.9228520000006,120.0,121.53857400000015,123.0771479999994,121.41015599999992,118.0771479999994,62.94873000000007,77.43603499999972,-806.1538089999999,111.0258789999998
283,-94.35888699999987,-261.15380900000036,87.69238299999961,94.35888699999941,127.56396500000028,117.43603499999972,117.43603499999972,119.35888699999941,118.9741210000002,111.15380900000036,59.61523400000078,73.0771479999994,-813.8461910000001,112.43603499999972
284,-98.84619099999964,-268.58984399999963,86.79492200000004,91.79492200000004,128.84619099999964,118.20507799999996,117.30761700000039,118.0771479999994,118.46142599999985,110.89746099999957,56.2822270000006,72.69238299999961,-811.923096,111.0258789999998
285,-96.41015600000037,-266.15380900000036,89.74365200000011,91.15380900000036,133.46142599999985,120.25634799999989,119.74365200000011,118.3334960000002,118.84619099999964,114.87158199999976,51.666503999999804,74.74365200000011,-802.6923829999996,112.05126999999993
286,-92.94872999999961,-258.71801800000003,92.94873000000007,91.0258789999998,136.2822270000006,120.38476599999922,121.6665039999998,118.3334960000002,118.58984400000008,117.69238299999961,45.38476599999922,76.2822270000006,-793.5898440000001,114.61523400000078
287,-93.46142599999985,-253.84619099999964,92.94873000000007,90.12841800000024,133.84619099999964,117.69238299999961,121.53857400000015,117.05126999999993,117.56396500000028,115.89746099999957,39.35888699999941,75.38476599999922,-789.615479,113.58984400000008
288,-98.07690400000001,-255.1281740000004,90.0,88.7177729999994,127.43603499999972,114.61523400000078,119.61523400000078,115.38476599999922,117.05126999999993,110.64111300000059,35.897460999999566,72.56396500000028,-790.2563479999999,109.35888699999941
289,-103.97436500000003,-261.15380900000036,86.15380900000036,87.82031300000017,121.0258789999998,112.69238299999961,117.43603499999972,114.48730499999965,117.43603499999972,105.25634799999989,35.25634799999989,69.61523400000078,-792.179443,108.3334960000002
290,-107.56420900000057,-266.79492200000004,83.58984400000008,88.3334960000002,118.20507799999996,111.6665039999998,116.0258789999998,114.23095699999976,118.0771479999994,103.46142599999985,36.666503999999804,66.9228520000006,-792.3076170000004,111.41015599999992
291,-106.66674799999964,-267.4357909999994,82.94873000000007,90.0,120.38476599999922,111.15380900000036,116.2822270000006,114.48730499999965,118.46142599999985,106.79492200000004,39.74365200000011,64.74365200000011,-788.718018,112.69238299999961
292,-101.79492200000004,-262.6923829999996,84.35888699999941,91.6665039999998,125.38476599999922,111.41015599999992,118.46142599999985,115.51269500000035,118.46142599999985,113.84619099999964,43.46142599999985,63.846190999999635,-781.4101559999999,109.87158199999976
293,-96.41015600000037,-256.28198199999997,86.9228520000006,92.69238299999961,128.84619099999964,112.43603499999972,121.53857400000015,117.30761700000039,118.3334960000002,120.64111300000059,46.79492200000004,64.74365200000011,-772.179443,108.58984400000008
294,-93.46142599999985,-252.0512700000004,88.9741210000002,92.69238299999961,127.43603499999972,113.46142599999985,123.20507799999996,118.9741210000002,118.0771479999994,123.7177729999994,48.846190999999635,66.53857400000015,-763.205078,111.6665039999998
295,-92.56420900000057,-249.7436520000001,89.23095699999976,92.43603499999972,123.0771479999994,114.48730499999965,122.05126999999993,119.61523400000078,118.0771479999994,123.46142599999985,50.51269500000035,68.20507799999996,-755.384521,113.7177729999994
296,-91.02563499999997,-246.79492200000004,88.58984400000008,92.94873000000007,120.51269500000035,116.41015599999992,119.10253900000043,119.74365200000011,118.84619099999964,122.69238299999961,53.20507799999996,70.0,-748.4614260000003,110.89746099999957
297,-87.56420900000057,-242.6923829999996,88.84619099999964,94.87158199999976,123.0771479999994,118.46142599999985,116.6665039999998,119.74365200000011,120.0,123.20507799999996,57.05126999999993,73.0771479999994,-742.6923829999996,107.56396500000028
298,-83.71801800000003,-239.7436520000001,90.51269500000035,97.17968800000017,128.58984400000008,118.7177729999994,116.41015599999992,119.87158199999976,120.0,123.7177729999994,60.25634799999989,77.17968800000017,-739.102539,108.9741210000002
299,-80.64111300000013,-239.10253899999998,92.43603499999972,98.58984400000008,133.46142599999985,117.05126999999993,118.3334960000002,120.25634799999989,118.46142599999985,122.56396500000028,62.17968800000017,81.0258789999998,-736.5385740000002,112.43603499999972
300,-77.05127000000039,-238.20507799999996,94.48730499999965,98.9741210000002,135.2563479999999,116.15380900000036,122.17968800000017,121.53857400000015,117.05126999999993,120.76904300000024,63.333496000000196,84.35888699999941,-731.281982,112.30761700000039
301,-71.41015600000037,-233.97436500000003,97.30761700000039,99.48730499999965,134.3588869999994,118.58984400000008,127.17968800000017,124.35888699999941,118.20507799999996,120.51269500000035,64.10253900000043,87.56396500000028,-720.6411130000001,110.38476599999922
302,-64.61547900000005,-226.28198199999997,100.76904300000024,101.41015599999992,132.6923829999996,123.3334960000002,131.15380900000036,128.20507799999996,121.9228520000006,122.56396500000028,63.333496000000196,90.51269500000035,-707.179443,111.0258789999998
303,-59.35888699999987,-218.46142599999985,102.94873000000007,104.35888699999941,131.79492200000004,126.6665039999998,132.56396500000028,131.15380900000036,126.15380900000036,125.12841800000024,61.153809000000365,92.43603499999972,-695.384521,112.94873000000007
304,-57.051270000000386,-214.23071300000038,102.43603499999972,106.0258789999998,132.05126999999993,125.89746099999957,130.89746099999957,131.41015599999992,128.0771479999994,125.89746099999957,58.846190999999635,92.94873000000007,-688.718018,110.89746099999957
305,-57.82055700000001,-215.5129390000002,99.87158199999976,104.10253900000043,131.9228520000006,121.15380900000036,127.43603499999972,128.58984400000008,126.2822270000006,123.0771479999994,58.589844000000085,92.30761700000039,-687.179443,106.79492200000004
306,-60.76928699999962,-220.89746100000002,96.79492200000004,98.46142599999985,129.7436520000001,115.0,123.84619099999964,123.58984400000008,121.79492200000004,116.9228520000006,60.12841800000024,90.64111300000059,-688.4614259999998,107.17968800000017
307,-64.35888699999987,-226.28198199999997,94.23095699999976,91.9228520000006,125.64111300000059,110.25634799999989,121.41015599999992,118.46142599999985,117.30761700000039,110.25634799999989,61.53857400000015,88.3334960000002,-689.3588869999999,112.17968800000017
308,-66.41015600000037,-227.179443,93.20507799999996,88.0771479999994,122.69238299999961,109.35888699999941,121.15380900000036,115.89746099999957,115.76904300000024,107.30761700000039,60.76904300000024,86.0258789999998,-686.6667479999996,114.48730499999965
309,-65.76928699999962,-222.43579099999943,93.9741210000002,88.84619099999964,123.46142599999985,111.6665039999998,123.20507799999996,117.43603499999972,117.82031300000017,110.89746099999957,58.0771479999994,85.51269500000035,-679.615479,111.41015599999992
310,-63.974365000000034,-215.89746100000002,95.51269500000035,92.69238299999961,126.9228520000006,114.61523400000078,126.2822270000006,121.53857400000015,121.6665039999998,119.23095699999976,55.51269500000035,86.9228520000006,-671.025635,109.23095699999976
311,-63.46142599999985,-212.6923829999996,95.89746099999957,96.0258789999998,130.0,115.64111300000059,128.84619099999964,125.51269500000035,124.10253900000043,127.30761700000039,56.025878999999804,88.84619099999964,-664.4870609999998,111.41015599999992
312,-64.48706099999981,-214.23071300000038,94.10253900000043,96.9228520000006,131.41015599999992,116.0258789999998,130.51269500000035,127.43603499999972,123.84619099999964,131.41015599999992,61.153809000000365,89.87158199999976,-661.025635,113.46142599999985
313,-65.38452099999995,-217.179443,91.41015599999992,96.15380900000036,132.05126999999993,118.20507799999996,131.53857400000015,127.69238299999961,122.05126999999993,131.9228520000006,69.35888699999941,89.74365200000011,-658.718018,111.6665039999998
314,-64.61547900000005,-218.076904,89.87158199999976,95.12841800000024,132.17968800000017,121.9228520000006,132.6923829999996,127.30761700000039,120.51269500000035,130.2563479999999,76.15380900000036,89.48730499999965,-655.384521,109.87158199999976
315,-62.564209000000574,-216.41015600000037,90.12841800000024,94.61523400000078,130.6411130000006,124.10253900000043,133.58984400000008,126.53857400000015,120.0,127.82031300000017,76.79492200000004,89.74365200000011,-650.6411130000001,111.79492200000004
316,-60.0,-213.20507799999996,91.15380900000036,95.12841800000024,126.79492200000004,122.82031300000017,133.7177729999994,125.89746099999957,120.25634799999989,125.64111300000059,70.25634799999989,89.74365200000011,-644.4870609999998,114.10253900000043
317,-57.435790999999426,-209.8718259999996,91.9228520000006,96.9228520000006,121.9228520000006,119.48730499999965,132.94873000000007,125.51269500000035,120.64111300000059,124.48730499999965,60.25634799999989,88.9741210000002,-637.0512700000004,113.0771479999994
318,-56.025634999999966,-207.9487299999996,92.30761700000039,98.7177729999994,118.20507799999996,116.79492200000004,131.0258789999998,125.38476599999922,120.89746099999957,124.10253900000043,52.05126999999993,86.79492200000004,-629.8718259999996,111.79492200000004
319,-57.30761700000039,-207.6923829999996,91.6665039999998,98.3334960000002,117.05126999999993,116.15380900000036,128.0771479999994,124.48730499999965,120.25634799999989,123.58984400000008,48.7177729999994,83.20507799999996,-626.025635,114.48730499999965
320,-61.025634999999966,-207.56420900000057,89.48730499999965,95.12841800000024,118.7177729999994,117.82031300000017,125.25634799999989,122.56396500000028,118.9741210000002,123.0771479999994,50.0,78.9741210000002,-626.025635,117.17968800000017
321,-64.35888699999987,-204.7436520000001,86.41015599999992,91.41015599999992,123.0771479999994,121.0258789999998,125.0,120.89746099999957,118.20507799999996,123.58984400000008,53.0771479999994,76.2822270000006,-625.897461,114.23095699999976
322,-64.61547900000005,-198.84619099999964,84.61523400000078,90.51269500000035,128.3334960000002,124.23095699999976,128.20507799999996,120.25634799999989,118.58984400000008,125.51269500000035,55.38476599999922,76.0258789999998,-621.794922,108.0771479999994
323,-62.30761700000039,-193.076904,85.25634799999989,93.84619099999964,131.6665039999998,125.51269500000035,132.82031300000017,120.64111300000059,119.87158199999976,126.79492200000004,55.64111300000059,77.43603499999972,-613.8461909999996,106.41015599999992
324,-59.61547900000005,-191.02563499999997,87.05126999999993,99.35888699999941,131.2822270000006,124.35888699999941,135.2563479999999,121.41015599999992,120.51269500000035,125.25634799999989,55.38476599999922,78.20507799999996,-605.6411130000001,109.74365200000011
325,-58.974365000000034,-193.33325200000036,87.82031300000017,102.56396500000028,127.43603499999972,122.43603499999972,133.20507799999996,121.6665039999998,119.74365200000011,121.2822270000006,56.79492200000004,77.05126999999993,-600.5129390000002,111.2822270000006
326,-60.64111300000013,-197.6923829999996,86.2822270000006,100.76904300000024,122.17968800000017,121.0258789999998,127.30761700000039,120.89746099999957,118.0771479999994,117.30761700000039,59.87158199999976,74.35888699999941,-599.7436520000001,108.84619099999964
327,-64.23071300000038,-201.923096,83.0771479999994,94.35888699999941,116.79492200000004,119.61523400000078,120.12841800000024,118.7177729999994,116.2822270000006,115.64111300000059,61.410155999999915,71.6665039999998,-601.794922,107.56396500000028
328,-67.82055700000001,-204.61547900000005,79.87158199999976,87.05126999999993,112.17968800000017,117.17968800000017,115.25634799999989,115.89746099999957,115.12841800000024,116.53857400000015,58.7177729999994,70.12841800000024,-603.4614259999998,110.0
329,-68.33325200000036,-204.8718259999996,78.46142599999985,83.58984400000008,109.87158199999976,115.12841800000024,115.38476599999922,114.74365200000011,115.51269500000035,119.74365200000011,53.333496000000196,70.38476599999922,-600.384521,112.17968800000017
330,-64.10253899999998,-201.923096,80.38476599999922,86.79492200000004,111.6665039999998,115.76904300000024,120.76904300000024,117.43603499999972,117.43603499999972,123.84619099999964,49.48730499999965,73.20507799999996,-591.281982,111.79492200000004
331,-57.69238299999961,-197.3076170000004,85.0,94.23095699999976,115.76904300000024,118.7177729999994,127.82031300000017,123.0771479999994,119.48730499999965,126.2822270000006,49.61523400000078,77.30761700000039,-580.1281740000004,112.17968800000017
332,-54.10253899999998,-193.33325200000036,89.10253900000043,100.12841800000024,118.58984400000008,121.0258789999998,130.6411130000006,127.94873000000007,120.0,124.10253900000043,52.69238299999961,80.25634799999989,-573.5898439999996,115.0
333,-55.25634799999989,-191.02563499999997,89.35888699999941,99.87158199999976,117.94873000000007,120.51269500000035,126.15380900000036,127.94873000000007,118.3334960000002,118.0771479999994,56.025878999999804,80.12841800000024,-573.974365,115.51269500000035
334,-58.07690400000001,-188.20507799999996,86.2822270000006,94.87158199999976,116.2822270000006,118.9741210000002,117.43603499999972,123.20507799999996,116.53857400000015,113.0771479999994,58.333496000000196,78.20507799999996,-576.281982,110.89746099999957
335,-57.435790999999426,-182.820557,83.58984400000008,90.89746099999957,117.43603499999972,119.74365200000011,110.89746099999957,118.46142599999985,116.9228520000006,113.84619099999964,60.0,77.43603499999972,-572.4357909999994,107.30761700000039
336,-51.153809000000365,-175.0,84.74365200000011,92.56396500000028,122.94873000000007,123.84619099999964,111.79492200000004,118.3334960000002,120.0,120.76904300000024,61.153809000000365,79.87158199999976,-559.102539,110.25634799999989
337,-42.30761700000039,-167.43579099999943,88.9741210000002,98.7177729999994,130.0,128.7177729999994,119.61523400000078,123.3334960000002,123.84619099999964,128.84619099999964,62.17968800000017,83.84619099999964,-541.025635,115.51269500000035
338,-35.89746100000002,-162.9487299999996,92.43603499999972,104.23095699999976,133.3334960000002,130.76904300000024,128.9741210000002,129.7436520000001,125.51269500000035,132.6923829999996,63.20507799999996,86.41015599999992,-527.0512700000004,116.15380900000036
339,-36.153809000000365,-163.076904,92.05126999999993,104.87158199999976,129.7436520000001,127.94873000000007,132.6923829999996,132.6923829999996,123.7177729999994,129.61523400000078,63.333496000000196,85.0,-523.974365,112.82031300000017
340,-42.948729999999614,-167.43579099999943,87.43603499999972,100.76904300000024,120.76904300000024,122.05126999999993,127.94873000000007,129.3588869999994,119.35888699999941,122.43603499999972,61.79492200000004,79.48730499999965,-530.384521,111.53857400000015
341,-50.89746100000002,-172.3076170000004,81.0258789999998,95.38476599999922,112.82031300000017,117.56396500000028,118.20507799999996,121.9228520000006,115.25634799999989,117.17968800000017,58.846190999999635,72.56396500000028,-537.3076170000004,112.30761700000039
342,-52.948729999999614,-172.820557,76.9228520000006,92.69238299999961,113.3334960000002,119.10253900000043,111.6665039999998,115.64111300000059,114.23095699999976,118.9741210000002,57.69238299999961,68.84619099999964,-534.8718259999996,110.76904300000024
343,-46.41015600000037,-166.923096,77.82031300000017,94.35888699999941,123.20507799999996,126.53857400000015,113.7177729999994,114.74365200000011,116.9228520000006,126.9228520000006,61.410155999999915,72.17968800000017,-520.5129390000002,107.30761700000039
344,-36.28198199999997,-158.20507799999996,82.69238299999961,98.20507799999996,134.61523400000078,133.9741210000002,122.43603499999972,118.46142599999985,120.51269500000035,134.3588869999994,68.58984400000008,80.89746099999957,-501.923096,107.17968800000017
345,-30.89746100000002,-153.20507799999996,86.9228520000006,100.89746099999957,137.43603499999972,135.12841800000024,130.0,121.6665039999998,121.2822270000006,133.58984400000008,73.46142599999985,88.20507799999996,-490.64111300000013,110.76904300000024
346,-34.35888699999987,-155.38452099999995,86.41015599999992,100.51269500000035,128.84619099999964,128.9741210000002,130.76904300000024,120.25634799999989,118.46142599999985,123.58984400000008,72.43603499999972,87.82031300000017,-492.4357909999994,111.79492200000004
347,-43.71801800000003,-162.43579099999943,81.79492200000004,98.7177729999994,115.51269500000035,120.76904300000024,124.74365200000011,115.38476599999922,114.35888699999941,110.89746099999957,67.05126999999993,79.48730499999965,-502.820557,108.46142599999985
348,-52.564209000000574,-168.71801800000003,76.6665039999998,97.17968800000017,106.9228520000006,116.41015599999992,117.17968800000017,111.2822270000006,111.2822270000006,104.23095699999976,61.2822270000006,68.9741210000002,-511.28198199999997,106.41015599999992
349,-56.28198199999997,-170.2563479999999,74.35888699999941,96.15380900000036,107.56396500000028,117.82031300000017,113.20507799999996,111.0258789999998,110.38476599999922,106.6665039999998,57.17968800000017,62.56396500000028,-510.0,108.7177729999994
350,-53.07690400000001,-165.5129390000002,74.87158199999976,95.38476599999922,115.25634799999989,122.17968800000017,114.61523400000078,113.84619099999964,111.41015599999992,115.25634799999989,55.12841800000024,63.589844000000085,-498.33325200000036,110.38476599999922
351,-44.61547900000005,-155.89746100000002,77.43603499999972,95.12841800000024,123.58984400000008,125.64111300000059,119.48730499999965,116.9228520000006,113.46142599999985,123.0771479999994,56.153809000000365,70.76904300000024,-482.5642090000006,108.20507799999996
352,-34.74365200000011,-146.41015600000037,81.15380900000036,96.41015599999992,126.41015599999992,125.64111300000059,123.58984400000008,118.20507799999996,114.87158199999976,124.61523400000078,60.51269500000035,80.12841800000024,-471.41015600000037,106.6665039999998
353,-28.333252000000357,-141.66674799999964,84.74365200000011,99.10253900000043,122.30761700000039,122.05126999999993,124.35888699999941,116.9228520000006,114.35888699999941,118.58984400000008,66.9228520000006,86.41015599999992,-469.7436520000001,109.48730499999965
354,-26.666747999999643,-142.6923829999996,86.9228520000006,102.17968800000017,116.2822270000006,117.94873000000007,121.79492200000004,114.48730499999965,112.30761700000039,110.25634799999989,72.56396500000028,87.82031300000017,-474.35888699999987,112.69238299999961
355,-27.051270000000386,-144.7436520000001,87.56396500000028,104.48730499999965,114.74365200000011,116.9228520000006,118.58984400000008,113.3334960000002,111.15380900000036,107.05126999999993,74.87158199999976,86.0258789999998,-477.179443,110.76904300000024
356,-27.051270000000386,-143.84619099999964,86.9228520000006,105.38476599999922,119.87158199999976,118.84619099999964,116.9228520000006,114.61523400000078,112.43603499999972,112.17968800000017,72.94873000000007,84.23095699999976,-472.9487299999996,107.17968800000017
357,-26.666747999999643,-139.61547900000005,85.12841800000024,104.74365200000011,127.05126999999993,120.89746099999957,116.6665039999998,117.17968800000017,115.0,121.9228520000006,66.41015599999992,83.58984400000008,-463.71801800000003,108.58984400000008
358,-26.666747999999643,-134.8718259999996,82.05126999999993,103.3334960000002,130.6411130000006,120.64111300000059,116.2822270000006,118.58984400000008,116.41015599999992,128.9741210000002,57.30761700000039,83.20507799999996,-454.4870609999998,113.3334960000002
359,-26.923095999999987,-131.53857400000015,78.58984400000008,102.69238299999961,128.9741210000002,119.48730499999965,115.76904300000024,117.56396500000028,115.89746099999957,129.48730499999965,50.897460999999566,81.9228520000006,-448.20507799999996,114.74365200000011
360,-26.41015600000037,-130.1281740000004,77.17968800000017,103.46142599999985,124.48730499999965,119.23095699999976,115.64111300000059,115.38476599999922,114.48730499999965,124.61523400000078,51.53857400000015,81.0258789999998,-444.61547900000005,112.17968800000017
361,-25.38452099999995,-130.1281740000004,79.23095699999976,103.84619099999964,119.48730499999965,119.74365200000011,115.76904300000024,113.7177729999994,113.20507799999996,118.20507799999996,58.333496000000196,81.53857400000015,-442.6923829999996,110.89746099999957
362,-25.0,-131.15380900000036,82.94873000000007,101.6665039999998,115.12841800000024,119.48730499999965,115.0,113.20507799999996,112.56396500000028,113.46142599999985,65.25634799999989,83.0771479999994,-441.66674799999964,112.43603499999972
363,-25.0,-131.41015600000037,85.89746099999957,97.05126999999993,113.0771479999994,118.7177729999994,113.46142599999985,113.58984400000008,112.82031300000017,111.9228520000006,67.82031300000017,84.74365200000011,-439.61547900000005,111.9228520000006
364,-24.230713000000378,-129.7436520000001,87.17968800000017,93.0771479999994,114.48730499999965,118.9741210000002,112.69238299999961,114.10253900000043,113.84619099999964,114.23095699999976,66.41015599999992,86.53857400000015,-435.0,108.7177729999994
365,-21.666747999999643,-126.79492200000004,87.69238299999961,92.94873000000007,118.84619099999964,120.51269500000035,114.35888699999941,114.61523400000078,115.38476599999922,118.9741210000002,65.25634799999989,88.7177729999994,-428.46142599999985,108.0771479999994
366,-18.71801800000003,-124.23071300000038,87.82031300000017,96.6665039999998,123.0771479999994,122.17968800000017,118.0771479999994,115.12841800000024,116.41015599999992,123.3334960000002,66.6665039999998,91.2822270000006,-422.820557,111.53857400000015
367,-16.794922000000042,-123.46142599999985,87.69238299999961,101.15380900000036,124.48730499999965,122.69238299999961,121.9228520000006,115.89746099999957,116.41015599999992,124.48730499999965,68.84619099999964,93.9741210000002,-419.61547900000005,113.0771479999994
368,-16.794922000000042,-124.35888699999987,87.17968800000017,103.20507799999996,122.30761700000039,122.17968800000017,123.7177729999994,117.17968800000017,115.51269500000035,121.79492200000004,67.56396500000028,95.25634799999989,-418.71801800000003,109.23095699999976
369,-19.358886999999868,-126.66674799999964,86.53857400000015,101.41015599999992,117.56396500000028,120.25634799999989,122.43603499999972,117.94873000000007,114.35888699999941,116.41015599999992,61.025878999999804,93.7177729999994,-418.33325200000036,106.15380900000036
370,-23.846190999999635,-129.23071300000038,85.12841800000024,96.9228520000006,112.30761700000039,117.05126999999993,118.7177729999994,117.05126999999993,113.0771479999994,110.64111300000059,52.05126999999993,88.7177729999994,-417.179443,108.84619099999964
371,-27.69238299999961,-129.8718259999996,82.17968800000017,92.43603499999972,109.48730499999965,114.10253900000043,114.87158199999976,114.74365200000011,112.30761700000039,107.56396500000028,47.43603499999972,81.9228520000006,-413.84619099999964,113.7177729999994
372,-27.179442999999992,-126.41015600000037,79.10253900000043,90.89746099999957,110.51269500000035,114.23095699999976,113.3334960000002,112.82031300000017,112.56396500000028,109.23095699999976,52.05126999999993,77.69238299999961,-406.923096,114.74365200000011
373,-21.41015600000037,-119.61547900000005,77.94873000000007,93.3334960000002,113.84619099999964,117.56396500000028,114.35888699999941,112.94873000000007,113.46142599999985,114.87158199999976,63.846190999999635,78.84619099999964,-397.179443,113.46142599999985
374,-13.076904000000013,-112.82055700000001,79.10253900000043,98.20507799999996,115.38476599999922,120.76904300000024,115.64111300000059,114.61523400000078,113.9741210000002,120.25634799999989,75.0,83.84619099999964,-387.5642090000006,114.35888699999941
375,-6.538574000000153,-109.61547900000005,81.0258789999998,102.82031300000017,113.20507799999996,120.12841800000024,115.76904300000024,116.2822270000006,112.94873000000007,121.6665039999998,78.46142599999985,88.3334960000002,-381.15380900000036,115.51269500000035
376,-3.717772999999397,-109.61547900000005,82.69238299999961,105.64111300000059,109.61523400000078,116.41015599999992,115.89746099999957,117.17968800000017,111.0258789999998,118.7177729999994,73.9741210000002,89.35888699999941,-377.3076170000004,112.69238299999961
377,-4.358886999999868,-110.0,84.23095699999976,106.15380900000036,108.9741210000002,113.3334960000002,117.43603499999972,117.56396500000028,109.87158199999976,114.87158199999976,66.6665039999998,88.3334960000002,-373.58984399999963,108.20507799999996
378,-6.794922000000042,-108.97436500000003,85.76904300000024,104.48730499999965,112.43603499999972,113.84619099999964,119.87158199999976,117.56396500000028,110.25634799999989,112.30761700000039,61.53857400000015,87.56396500000028,-369.2307130000004,108.3334960000002
379,-9.102538999999979,-106.41015600000037,86.0258789999998,101.2822270000006,117.05126999999993,117.17968800000017,120.38476599999922,116.9228520000006,111.6665039999998,111.41015599999992,60.12841800000024,87.94873000000007,-366.02563499999997,112.30761700000039
380,-8.974365000000034,-102.94872999999961,84.35888699999941,97.82031300000017,119.35888699999941,120.89746099999957,118.0771479999994,115.89746099999957,112.43603499999972,111.6665039999998,61.9228520000006,88.84619099999964,-365.2563479999999,113.46142599999985
381,-5.769286999999622,-99.35888699999987,82.56396500000028,96.6665039999998,118.20507799999996,122.82031300000017,114.87158199999976,115.38476599999922,112.05126999999993,112.56396500000028,65.76904300000024,90.12841800000024,-365.38452099999995,110.76904300000024
382,-0.512695000000349,-96.41015600000037,82.69238299999961,98.9741210000002,115.51269500000035,122.56396500000028,114.10253900000043,115.76904300000024,111.0258789999998,113.84619099999964,71.0258789999998,92.17968800000017,-363.97436500000003,110.0
383,4.871581999999762,-93.97436500000003,85.0,103.46142599999985,114.35888699999941,121.53857400000015,117.17968800000017,116.6665039999998,111.0258789999998,114.87158199999976,77.30761700000039,95.0,-359.2307130000004,113.3334960000002
