,EEG.AF3,EEG.F7,EEG.F3,EEG.FC5,EEG.T7,EEG.P7,EEG.O1,EEG.O2,EEG.P8,EEG.T8,EEG.FC6,EEG.F4,EEG.F8,EEG.AF4
0,174.10253900000043,109.10253900000043,105.0,-131.41015600000037,212.82031300000017,125.12841800000024,80.64111300000059,96.79492200000004,58.7177729999994,61.153809000000365,539.7436520000001,176.0258789999998,230.76904300000024,97.82031300000017
1,170.2563479999999,109.61523400000078,102.43603499999972,-138.84619099999964,217.82031300000017,132.3076170000004,99.35888699999941,96.41015599999992,34.102539000000434,30.25634799999989,561.4101559999999,169.10253900000043,220.76904300000024,99.74365200000011
2,178.0771479999994,116.0258789999998,107.69238299999961,-139.61547900000005,218.9741210000002,125.89746099999957,103.84619099999964,109.35888699999941,45.25634799999989,45.64111300000059,596.794922,174.48730499999965,239.7436520000001,101.41015599999992
3,194.3588869999994,126.2822270000006,117.17968800000017,-135.2563479999999,220.76904300000024,111.79492200000004,96.2822270000006,128.20507799999996,78.3334960000002,90.25634799999989,631.0258789999998,189.23095699999976,278.9741210000002,98.9741210000002
4,209.7436520000001,134.23095699999976,124.23095699999976,-130.89746100000002,224.7436520000001,100.0,87.30761700000039,142.43603499999972,108.20507799999996,131.41015599999992,650.7690430000002,204.61523400000078,319.7436520000001,98.0771479999994
5,216.0258789999998,134.10253900000043,125.25634799999989,-130.64111300000013,228.7177729999994,97.30761700000039,86.79492200000004,146.9228520000006,118.84619099999964,147.05126999999993,653.0771479999994,212.56396500000028,346.6665039999998,101.9228520000006
6,213.58984400000008,126.6665039999998,121.2822270000006,-133.71801800000003,231.41015599999992,104.61523400000078,96.9228520000006,145.12841800000024,113.20507799999996,138.7177729999994,643.205078,211.41015599999992,356.2822270000006,104.61523400000078
7,208.3334960000002,116.79492200000004,116.0258789999998,-135.89746100000002,233.58984400000008,116.2822270000006,111.9228520000006,143.3334960000002,105.12841800000024,123.46142599999985,624.7436520000001,205.6411130000006,355.76904300000024,102.17968800000017
8,205.0,107.43603499999972,112.82031300000017,-134.35888699999987,234.23095699999976,123.3334960000002,121.9228520000006,145.12841800000024,105.51269500000035,117.05126999999993,593.205078,200.6411130000006,352.5639650000003,101.2822270000006
9,202.56396500000028,97.17968800000017,112.05126999999993,-129.35888699999987,230.38476599999922,120.25634799999989,122.05126999999993,148.7177729999994,115.12841800000024,122.94873000000007,541.1538090000004,197.82031300000017,348.46142599999985,107.94873000000007
10,199.10253900000043,85.25634799999989,112.94873000000007,-121.66674799999964,220.6411130000006,110.64111300000059,116.79492200000004,151.9228520000006,128.9741210000002,135.0,470.12841800000024,196.2822270000006,342.17968800000017,116.9228520000006
11,196.0258789999998,74.61523400000078,114.23095699999976,-111.53857400000015,207.82031300000017,104.35888699999941,116.53857400000015,154.61523400000078,142.05126999999993,146.2822270000006,394.87158199999976,196.53857400000015,334.87158199999976,122.05126999999993
12,196.41015599999992,69.23095699999976,115.64111300000059,-98.20507799999996,196.0258789999998,106.6665039999998,126.2822270000006,157.94873000000007,153.7177729999994,154.7436520000001,332.94873000000007,199.7436520000001,329.23095699999976,127.43603499999972
13,200.38476599999922,67.69238299999961,116.53857400000015,-81.92309599999999,186.15380900000036,113.58984400000008,141.15380900000036,161.15380900000036,166.0258789999998,162.05126999999993,290.89746099999957,203.84619099999964,324.87158199999976,137.94873000000007
14,204.61523400000078,64.87158199999976,115.64111300000059,-62.82055700000001,176.79492200000004,117.56396500000028,152.17968800000017,162.05126999999993,180.89746099999957,170.6411130000006,260.3847659999992,205.12841800000024,317.17968800000017,146.79492200000004
15,204.61523400000078,56.410155999999915,112.05126999999993,-41.025634999999966,166.0258789999998,117.05126999999993,155.89746099999957,160.51269500000035,196.6665039999998,181.53857400000015,227.6923829999996,201.0258789999998,301.4101559999999,146.53857400000015
16,198.7177729999994,42.43603499999972,106.15380900000036,-15.769286999999622,152.43603499999972,116.0258789999998,156.15380900000036,157.3076170000004,207.43603499999972,193.0771479999994,185.6411130000006,192.56396500000028,277.05126999999993,144.23095699999976
17,189.10253900000043,26.794922000000042,99.61523400000078,14.487304999999651,133.0771479999994,117.82031300000017,158.7177729999994,152.17968800000017,206.41015599999992,201.79492200000004,136.79492200000004,182.6923829999996,248.9741210000002,151.6665039999998
18,182.56396500000028,15.128418000000238,95.0,52.17968800000017,105.76904300000024,121.2822270000006,164.48730499999965,144.87158199999976,192.94873000000007,207.05126999999993,90.38476599999922,175.2563479999999,225.76904300000024,166.2822270000006
19,187.05126999999993,12.82031300000017,94.10253900000043,100.38476599999922,71.6665039999998,123.58984400000008,171.0258789999998,138.46142599999985,177.05126999999993,214.3588869999994,56.025878999999804,173.84619099999964,214.61523400000078,175.2563479999999
20,206.15380900000036,21.025878999999804,97.56396500000028,159.7436520000001,33.0771479999994,122.94873000000007,175.51269500000035,137.94873000000007,172.94873000000007,232.43603499999972,35.897460999999566,180.2563479999999,217.43603499999972,177.05126999999993
21,233.7177729999994,33.46142599999985,103.84619099999964,226.41015599999992,-8.846190999999635,118.20507799999996,177.17968800000017,144.61523400000078,186.9228520000006,264.48730499999965,21.282227000000603,190.76904300000024,226.79492200000004,180.38476599999922
22,258.9741210000002,40.76904300000024,109.48730499999965,295.6411130000006,-54.35888699999987,110.64111300000059,177.17968800000017,153.7177729999994,213.3334960000002,305.0,0.512695000000349,197.3076170000004,231.79492200000004,185.0
23,276.0258789999998,40.0,111.41015599999992,365.76904300000024,-102.05127000000039,104.74365200000011,178.0771479999994,159.61523400000078,240.38476599999922,346.4101559999999,-30.641113000000132,194.61523400000078,226.79492200000004,179.7436520000001
24,288.0771479999994,35.0,108.9741210000002,439.7436520000001,-150.64111300000013,104.87158199999976,181.79492200000004,159.48730499999965,258.3334960000002,383.3334960000002,-65.89746100000002,185.2563479999999,213.58984400000008,162.43603499999972
25,300.89746099999957,30.384765999999217,103.58984400000008,520.2563479999999,-205.1281740000004,110.38476599999922,187.3076170000004,152.82031300000017,260.76904300000024,411.4101559999999,-98.71801800000003,174.48730499999965,194.87158199999976,145.6411130000006
26,316.79492200000004,26.153809000000365,96.6665039999998,607.0512699999999,-275.7692869999996,114.48730499999965,191.6665039999998,139.61523400000078,245.6411130000006,426.4101559999999,-129.35888699999987,164.48730499999965,171.41015599999992,136.41015599999992
27,336.53857400000015,22.82031300000017,90.0,696.794922,-368.20507799999996,111.2822270000006,192.3076170000004,123.84619099999964,220.12841800000024,431.6665039999998,-160.1281740000004,155.38476599999922,145.51269500000035,125.38476599999922
28,361.9228520000006,23.846190999999635,86.15380900000036,785.2563479999999,-473.58984399999963,101.2822270000006,190.12841800000024,113.84619099999964,200.89746099999957,443.5898440000001,-189.23071300000038,149.10253900000043,124.10253900000043,105.64111300000059
29,392.6923829999996,31.410155999999915,86.79492200000004,866.5385740000002,-571.4101560000004,89.87158199999976,186.41015599999992,114.87158199999976,201.79492200000004,478.20507799999996,-213.46142599999985,147.43603499999972,110.89746099999957,86.6665039999998
30,423.46142599999985,41.2822270000006,89.74365200000011,935.0,-642.6923829999996,81.79492200000004,181.9228520000006,123.3334960000002,220.76904300000024,533.9741210000002,-235.1281740000004,147.94873000000007,100.38476599999922,80.0
31,448.7177729999994,45.38476599999922,90.76904300000024,988.3334960000002,-679.8718259999996,79.35888699999941,177.05126999999993,129.48730499999965,240.89746099999957,589.7436520000001,-259.8718259999996,145.0,82.69238299999961,81.53857400000015
32,467.94873000000007,40.25634799999989,88.0771479999994,1028.7177729999994,-689.102539,82.43603499999972,173.46142599999985,128.20507799999996,246.53857400000015,624.2309569999998,-289.2307130000004,137.56396500000028,54.102539000000434,79.87158199999976
33,484.87158199999976,29.358886999999413,83.84619099999964,1059.1025390000004,-686.025635,88.7177729999994,172.56396500000028,122.43603499999972,235.6411130000006,633.8461909999996,-318.46142599999985,130.12841800000024,20.769043000000238,75.12841800000024
34,501.4101559999999,18.461425999999847,81.6665039999998,1079.3588869999994,-686.1538090000004,92.82031300000017,172.94873000000007,117.56396500000028,217.56396500000028,631.6665039999998,-343.46142599999985,126.6665039999998,-8.974365000000034,75.51269500000035
35,515.7690430000002,11.153809000000365,81.53857400000015,1086.9228520000006,-695.2563479999999,91.0258789999998,171.6665039999998,116.2822270000006,203.3334960000002,632.8203130000002,-363.97436500000003,125.89746099999957,-30.38452099999995,80.12841800000024
36,526.2822270000006,9.871581999999762,81.0258789999998,1080.3847659999992,-706.281982,85.25634799999989,167.56396500000028,117.43603499999972,196.79492200000004,643.0771479999994,-381.53857400000015,125.0,-42.948729999999614,79.35888699999941
37,532.8203130000002,14.487304999999651,79.10253900000043,1061.410156,-707.820557,80.51269500000035,161.9228520000006,118.9741210000002,196.0258789999998,658.205078,-396.53857400000015,122.69238299999961,-48.846190999999635,72.94873000000007
38,535.7690430000002,22.56396500000028,76.9228520000006,1032.1796880000002,-696.5385740000002,79.10253900000043,155.76904300000024,119.23095699999976,196.79492200000004,669.4873049999997,-408.97436500000003,120.0,-52.82055700000001,72.30761700000039
39,535.1284180000002,31.153809000000365,75.76904300000024,995.0,-678.3332520000004,78.84619099999964,149.10253900000043,118.58984400000008,197.3076170000004,671.2822270000006,-418.71801800000003,117.82031300000017,-58.71801800000003,81.79492200000004
40,532.1796880000002,40.51269500000035,76.79492200000004,951.2822270000006,-658.718018,77.94873000000007,141.9228520000006,119.61523400000078,198.84619099999964,664.1025390000004,-426.28198199999997,116.9228520000006,-66.92309599999999,91.15380900000036
41,528.205078,52.30761700000039,79.48730499999965,901.9228520000006,-638.4614259999998,77.05126999999993,135.89746099999957,124.23095699999976,202.05126999999993,650.6411130000006,-432.4357909999994,117.30761700000039,-74.8718259999996,91.2822270000006
42,521.9228520000006,65.89746099999957,83.20507799999996,846.1538090000004,-616.5385740000002,77.82031300000017,132.82031300000017,130.6411130000006,203.46142599999985,630.6411130000006,-439.2307130000004,118.0771479999994,-80.64111300000013,87.94873000000007
43,511.6665039999998,79.61523400000078,86.41015599999992,782.4360349999997,-594.102539,79.48730499999965,132.56396500000028,135.0,198.46142599999985,600.7690430000002,-446.28198199999997,117.43603499999972,-82.69238299999961,91.6665039999998
44,499.3588869999994,93.7177729999994,89.48730499999965,712.3076170000004,-570.5129390000002,80.64111300000059,134.23095699999976,136.53857400000015,187.05126999999993,560.2563479999999,-448.20507799999996,116.6665039999998,-78.20507799999996,100.76904300000024
45,489.6152340000008,111.2822270000006,94.48730499999965,638.3334960000002,-538.205078,81.15380900000036,136.41015599999992,138.7177729999994,175.12841800000024,513.3334960000002,-436.79492200000004,119.35888699999941,-63.20507799999996,107.05126999999993
46,483.46142599999985,133.3334960000002,103.0771479999994,562.1796880000002,-486.28198199999997,81.6665039999998,138.46142599999985,145.0,168.58984400000008,466.4101559999999,-408.58984399999963,127.17968800000017,-36.79492200000004,110.0
47,476.53857400000015,157.94873000000007,113.3334960000002,482.5639650000003,-407.4357909999994,82.69238299999961,140.38476599999922,154.87158199999976,168.58984400000008,423.0771479999994,-369.35888699999987,137.05126999999993,-3.077147999999397,116.2822270000006
48,463.84619099999964,183.20507799999996,121.79492200000004,398.5898440000001,-302.820557,85.38476599999922,142.94873000000007,164.48730499999965,170.38476599999922,382.17968800000017,-328.71801800000003,143.84619099999964,32.56396500000028,125.38476599999922
49,443.46142599999985,208.84619099999964,125.89746099999957,312.05126999999993,-183.076904,90.76904300000024,147.17968800000017,169.7436520000001,167.43603499999972,338.7177729999994,-292.820557,145.12841800000024,66.9228520000006,129.87158199999976
50,416.79492200000004,233.7177729999994,126.2822270000006,227.05126999999993,-66.41015600000037,98.46142599999985,152.56396500000028,168.20507799999996,155.38476599999922,287.5639650000003,-258.84619099999964,141.79492200000004,98.7177729999994,129.61523400000078
51,386.4101559999999,254.61523400000078,125.0,147.05126999999993,28.589844000000085,105.25634799999989,156.9228520000006,161.2822270000006,137.3076170000004,229.87158199999976,-215.64111300000013,136.79492200000004,129.3588869999994,132.82031300000017
52,356.4101559999999,268.9741210000002,124.10253900000043,74.10253900000043,92.94873000000007,109.48730499999965,158.9741210000002,154.48730499999965,122.94873000000007,176.9228520000006,-149.7436520000001,133.9741210000002,163.20507799999996,141.2822270000006
53,330.51269500000035,276.0258789999998,123.9741210000002,8.717772999999397,131.0258789999998,111.53857400000015,160.38476599999922,154.10253900000043,121.0258789999998,142.94873000000007,-55.64111300000013,135.38476599999922,204.3588869999994,143.84619099999964
54,309.10253900000043,276.15380900000036,124.23095699999976,-49.48706099999981,154.3588869999994,112.94873000000007,163.3334960000002,161.0258789999998,131.53857400000015,131.79492200000004,58.0771479999994,138.46142599999985,251.15380900000036,131.53857400000015
55,289.23095699999976,270.12841800000024,123.84619099999964,-100.25634799999989,171.6665039999998,113.58984400000008,167.6923829999996,169.87158199999976,143.84619099999964,132.6923829999996,171.41015599999992,138.58984400000008,295.12841800000024,108.84619099999964
56,268.5898440000001,260.2563479999999,122.56396500000028,-140.2563479999999,186.9228520000006,112.69238299999961,171.15380900000036,174.10253900000043,146.79492200000004,129.61523400000078,266.79492200000004,133.84619099999964,329.10253900000043,85.64111300000059
57,249.10253900000043,251.41015599999992,121.0258789999998,-164.8718259999996,201.0258789999998,111.15380900000036,173.0771479999994,172.05126999999993,137.56396500000028,115.25634799999989,338.46142599999985,127.56396500000028,353.9741210000002,64.23095699999976
58,234.3588869999994,246.41015599999992,121.2822270000006,-171.53857400000015,214.61523400000078,110.38476599999922,173.9741210000002,167.17968800000017,122.94873000000007,93.7177729999994,390.3847659999992,124.74365200000011,377.82031300000017,43.0771479999994
59,225.0,242.56396500000028,123.84619099999964,-164.10253899999998,226.53857400000015,109.61523400000078,174.87158199999976,163.7177729999994,111.9228520000006,74.74365200000011,427.82031300000017,126.9228520000006,405.51269500000035,26.153809000000365
60,217.6923829999996,234.3588869999994,127.17968800000017,-150.76928699999962,235.12841800000024,107.94873000000007,176.15380900000036,163.3334960000002,109.61523400000078,65.89746099999957,453.84619099999964,131.0258789999998,435.89746099999957,18.717772999999397
61,210.0,220.2563479999999,128.9741210000002,-139.23071300000038,239.10253900000043,105.76904300000024,178.46142599999985,166.0258789999998,116.2822270000006,70.0,469.23095699999976,134.3588869999994,463.0771479999994,18.589844000000085
62,201.15380900000036,203.20507799999996,128.7177729999994,-132.0512700000004,238.20507799999996,104.35888699999941,181.53857400000015,170.2563479999999,127.69238299999961,83.0771479999994,475.2563479999999,135.89746099999957,480.6411130000006,21.282227000000603
63,190.89746099999957,186.9228520000006,127.30761700000039,-127.30761700000039,232.43603499999972,102.69238299999961,184.10253900000043,172.82031300000017,136.6665039999998,95.12841800000024,472.4360349999997,135.38476599999922,483.46142599999985,30.0
64,178.84619099999964,173.3334960000002,125.25634799999989,-120.89746100000002,223.7177729999994,100.12841800000024,184.3588869999994,169.61523400000078,137.17968800000017,95.76904300000024,460.3847659999992,132.17968800000017,470.6411130000006,52.30761700000039
65,166.2822270000006,163.9741210000002,122.56396500000028,-110.0,217.17968800000017,98.58984400000008,183.58984400000008,160.89746099999957,128.20507799999996,81.79492200000004,440.6411130000006,127.17968800000017,447.3076170000004,84.35888699999941
66,156.2822270000006,159.7436520000001,120.0,-94.48706099999981,217.17968800000017,101.2822270000006,185.38476599999922,151.53857400000015,115.51269500000035,60.76904300000024,415.89746099999957,122.94873000000007,423.5898440000001,112.17968800000017
67,150.2563479999999,159.7436520000001,119.10253900000043,-78.33325200000036,221.79492200000004,107.56396500000028,191.15380900000036,147.05126999999993,107.69238299999961,45.38476599999922,389.48730499999965,121.0258789999998,405.89746099999957,127.56396500000028
68,146.79492200000004,160.0,120.64111300000059,-66.53857400000015,224.61523400000078,112.82031300000017,198.20507799999996,148.9741210000002,109.23095699999976,44.48730499999965,363.46142599999985,121.2822270000006,393.20507799999996,134.61523400000078
69,143.7177729999994,157.82031300000017,123.46142599999985,-61.53857400000015,221.0258789999998,113.46142599999985,202.56396500000028,155.0,118.20507799999996,57.30761700000039,340.2563479999999,123.0771479999994,381.0258789999998,138.3334960000002
70,141.15380900000036,153.46142599999985,125.64111300000059,-60.51293900000019,211.15380900000036,110.0,202.17968800000017,160.51269500000035,128.20507799999996,74.48730499999965,322.3076170000004,126.0258789999998,367.05126999999993,138.58984400000008
71,139.10253900000043,148.7177729999994,126.2822270000006,-59.10253899999998,198.0771479999994,105.0,197.43603499999972,161.15380900000036,132.56396500000028,85.0,308.3334960000002,129.3588869999994,352.05126999999993,136.6665039999998
72,136.79492200000004,143.84619099999964,125.89746099999957,-54.48706099999981,184.10253900000043,99.87158199999976,190.2563479999999,155.12841800000024,128.46142599999985,82.94873000000007,293.0771479999994,131.2822270000006,337.3076170000004,138.9741210000002
73,133.46142599999985,139.23095699999976,125.25634799999989,-46.41015600000037,172.05126999999993,96.41015599999992,183.7177729999994,145.51269500000035,119.35888699999941,71.9228520000006,272.17968800000017,130.89746099999957,324.10253900000043,147.17968800000017
74,130.6411130000006,136.2822270000006,126.0258789999998,-36.025634999999966,164.3588869999994,97.30761700000039,181.2822270000006,138.9741210000002,112.17968800000017,61.79492200000004,247.3076170000004,129.87158199999976,313.9741210000002,154.10253900000043
75,129.7436520000001,135.76904300000024,129.3588869999994,-25.38452099999995,160.89746099999957,103.3334960000002,184.23095699999976,139.61523400000078,112.43603499999972,61.2822270000006,224.7436520000001,130.76904300000024,307.3076170000004,154.87158199999976
76,130.6411130000006,136.0258789999998,134.23095699999976,-16.28198199999997,157.82031300000017,110.89746099999957,190.38476599999922,145.89746099999957,119.61523400000078,71.15380900000036,209.23095699999976,134.23095699999976,302.05126999999993,153.84619099999964
77,131.53857400000015,134.7436520000001,138.3334960000002,-9.487060999999812,150.89746099999957,115.12841800000024,195.12841800000024,152.05126999999993,128.7177729999994,85.0,200.89746099999957,138.3334960000002,295.3847659999992,156.41015599999992
78,131.9228520000006,132.17968800000017,139.61523400000078,-3.4614259999998467,140.2563479999999,116.0258789999998,196.53857400000015,154.10253900000043,135.38476599999922,95.25634799999989,195.2563479999999,141.15380900000036,286.4101559999999,158.3334960000002
79,132.3076170000004,130.12841800000024,138.9741210000002,3.717772999999397,128.3334960000002,116.41015599999992,194.87158199999976,152.05126999999993,137.94873000000007,97.82031300000017,186.2822270000006,142.3076170000004,275.89746099999957,153.84619099999964
80,131.6665039999998,128.3334960000002,137.6923829999996,12.307617000000391,116.15380900000036,116.9228520000006,191.2822270000006,147.82031300000017,136.9228520000006,93.84619099999964,169.48730499999965,141.9228520000006,263.7177729999994,146.41015599999992
81,128.58984400000008,125.12841800000024,136.79492200000004,21.410155999999915,102.69238299999961,115.89746099999957,186.15380900000036,143.20507799999996,134.10253900000043,87.69238299999961,145.89746099999957,140.12841800000024,249.7436520000001,143.58984400000008
82,124.35888699999941,120.38476599999922,135.89746099999957,30.128418000000238,88.7177729999994,112.30761700000039,180.0,140.0,132.3076170000004,86.0258789999998,122.30761700000039,138.46142599999985,236.2822270000006,144.3588869999994
83,122.17968800000017,115.76904300000024,134.87158199999976,38.974121000000196,76.79492200000004,107.56396500000028,173.46142599999985,139.23095699999976,133.46142599999985,92.30761700000039,106.41015599999992,139.23095699999976,228.0771479999994,141.79492200000004
84,123.7177729999994,112.43603499999972,134.61523400000078,48.846190999999635,67.56396500000028,103.3334960000002,167.6923829999996,140.51269500000035,137.17968800000017,103.7177729999994,99.74365200000011,142.17968800000017,226.53857400000015,135.76904300000024
85,127.82031300000017,110.0,135.38476599999922,59.87158199999976,58.7177729999994,100.38476599999922,163.9741210000002,142.43603499999972,141.2822270000006,114.10253900000043,97.17968800000017,145.51269500000035,230.0,132.43603499999972
86,133.0771479999994,109.23095699999976,137.05126999999993,72.69238299999961,48.846190999999635,100.12841800000024,163.58984400000008,144.23095699999976,144.48730499999965,120.0,93.3334960000002,147.82031300000017,236.2822270000006,131.53857400000015
87,139.10253900000043,110.76904300000024,139.3588869999994,87.30761700000039,38.7177729999994,103.0771479999994,166.15380900000036,146.0258789999998,147.43603499999972,122.43603499999972,86.79492200000004,149.7436520000001,244.61523400000078,126.2822270000006
88,145.2563479999999,111.53857400000015,141.2822270000006,102.56396500000028,29.358886999999413,107.43603499999972,168.3334960000002,146.6665039999998,149.48730499999965,123.84619099999964,78.3334960000002,151.53857400000015,251.9228520000006,115.89746099999957
89,149.10253900000043,107.17968800000017,141.0258789999998,116.6665039999998,20.384765999999217,109.35888699999941,166.0258789999998,144.10253900000043,148.9741210000002,124.23095699999976,69.10253900000043,151.79492200000004,253.3334960000002,109.35888699999941
90,151.0258789999998,97.43603499999972,138.46142599999985,129.48730499999965,12.56396500000028,107.43603499999972,158.9741210000002,138.0771479999994,144.87158199999976,123.3334960000002,60.0,149.3588869999994,247.94873000000007,110.76904300000024
91,154.48730499999965,88.58984400000008,135.51269500000035,142.56396500000028,7.692382999999609,104.74365200000011,151.6665039999998,131.53857400000015,139.61523400000078,123.0771479999994,52.94873000000007,146.15380900000036,242.56396500000028,113.20507799999996
92,162.56396500000028,85.64111300000059,135.0,156.53857400000015,5.769043000000238,105.51269500000035,148.7177729999994,126.9228520000006,135.76904300000024,125.0,47.82031300000017,145.12841800000024,245.76904300000024,110.51269500000035
93,173.46142599999985,86.6665039999998,137.82031300000017,168.7177729999994,3.5898440000000846,109.74365200000011,149.7436520000001,124.10253900000043,133.7177729999994,127.82031300000017,42.05126999999993,146.9228520000006,259.3588869999994,107.05126999999993
94,182.94873000000007,86.15380900000036,141.79492200000004,176.9228520000006,-1.7949220000000423,114.61523400000078,150.51269500000035,121.6665039999998,133.0771479999994,130.12841800000024,33.846190999999635,150.38476599999922,277.6923829999996,108.84619099999964
95,189.87158199999976,81.6665039999998,144.61523400000078,182.56396500000028,-8.71801800000003,117.56396500000028,147.6923829999996,120.0,134.23095699999976,133.3334960000002,25.641113000000587,155.2563479999999,293.7177729999994,112.17968800000017
96,196.53857400000015,76.79492200000004,146.15380900000036,188.46142599999985,-13.846190999999635,117.82031300000017,141.9228520000006,120.89746099999957,137.43603499999972,139.3588869999994,21.410155999999915,161.41015599999992,303.0771479999994,110.89746099999957
97,204.87158199999976,76.9228520000006,147.6923829999996,196.53857400000015,-15.641113000000132,115.76904300000024,135.2563479999999,123.3334960000002,140.38476599999922,146.41015599999992,20.769043000000238,166.9228520000006,303.7177729999994,107.69238299999961
98,215.51269500000035,85.12841800000024,149.10253900000043,206.53857400000015,-15.0,112.82031300000017,129.61523400000078,124.10253900000043,140.51269500000035,150.12841800000024,19.48730499999965,169.3588869999994,296.9228520000006,109.74365200000011
99,228.20507799999996,101.2822270000006,149.48730499999965,217.43603499999972,-13.205077999999958,111.2822270000006,126.0258789999998,121.9228520000006,137.94873000000007,148.46142599999985,13.974121000000196,168.58984400000008,287.3076170000004,114.35888699999941
100,243.0771479999994,121.6665039999998,149.10253900000043,228.58984400000008,-11.666747999999643,111.9228520000006,123.84619099999964,118.3334960000002,136.0258789999998,144.23095699999976,4.871581999999762,167.43603499999972,280.51269500000035,113.20507799999996
101,258.5898440000001,140.12841800000024,149.3588869999994,239.48730499999965,-12.435790999999426,111.6665039999998,121.2822270000006,115.38476599999922,136.9228520000006,141.0258789999998,-4.487060999999812,168.3334960000002,277.82031300000017,107.05126999999993
102,272.5639650000003,151.9228520000006,151.9228520000006,249.48730499999965,-17.179442999999992,106.79492200000004,116.79492200000004,114.61523400000078,140.0,140.38476599999922,-10.641113000000132,171.79492200000004,275.6411130000006,105.76904300000024
103,284.48730499999965,158.3334960000002,156.6665039999998,258.7177729999994,-24.8718259999996,97.69238299999961,111.0258789999998,116.53857400000015,142.82031300000017,141.53857400000015,-11.794922000000042,176.6665039999998,270.2563479999999,111.41015599999992
104,294.48730499999965,164.3588869999994,161.6665039999998,266.79492200000004,-32.30761700000039,88.46142599999985,106.2822270000006,120.12841800000024,143.58984400000008,141.79492200000004,-9.743652000000111,180.6411130000006,259.7436520000001,114.74365200000011
105,301.4101559999999,173.0771479999994,164.3588869999994,271.6665039999998,-37.82055700000001,82.43603499999972,103.0771479999994,122.56396500000028,141.2822270000006,138.58984400000008,-11.025634999999966,181.41015599999992,244.7436520000001,110.76904300000024
106,303.7177729999994,182.82031300000017,162.43603499999972,271.2822270000006,-41.53857400000015,80.25634799999989,99.87158199999976,120.25634799999989,136.53857400000015,130.76904300000024,-21.666747999999643,177.17968800000017,226.53857400000015,107.30761700000039
107,302.6923829999996,191.2822270000006,156.2822270000006,266.4101559999999,-42.69238299999961,81.2822270000006,95.38476599999922,113.9741210000002,131.0258789999998,121.0258789999998,-41.53857400000015,169.48730499999965,208.58984400000008,110.51269500000035
108,302.05126999999993,199.23095699999976,149.3588869999994,260.76904300000024,-40.0,84.74365200000011,90.76904300000024,107.56396500000028,127.69238299999961,113.46142599999985,-62.948729999999614,162.6923829999996,193.84619099999964,114.87158199999976
109,304.7436520000001,208.9741210000002,146.15380900000036,256.9228520000006,-33.71801800000003,88.46142599999985,86.6665039999998,104.35888699999941,127.17968800000017,109.35888699999941,-77.82055700000001,160.0,182.82031300000017,113.84619099999964
110,309.23095699999976,221.79492200000004,148.84619099999964,254.3588869999994,-27.179442999999992,89.48730499999965,82.69238299999961,103.58984400000008,127.56396500000028,106.2822270000006,-83.58984399999963,161.41015599999992,172.6923829999996,112.17968800000017
111,312.94873000000007,236.41015599999992,154.87158199999976,249.87158199999976,-22.69238299999961,87.94873000000007,78.20507799999996,102.17968800000017,126.15380900000036,101.41015599999992,-83.84619099999964,164.3588869999994,160.12841800000024,116.15380900000036
112,313.46142599999985,250.76904300000024,159.61523400000078,241.2822270000006,-19.74365200000011,87.69238299999961,74.61523400000078,98.84619099999964,122.82031300000017,93.46142599999985,-84.10253899999998,165.51269500000035,143.58984400000008,120.76904300000024
113,310.0,263.0771479999994,160.12841800000024,228.84619099999964,-17.179442999999992,91.9228520000006,73.58984400000008,93.9741210000002,118.20507799999996,82.94873000000007,-87.94872999999961,162.6923829999996,123.3334960000002,116.9228520000006
114,303.5898440000001,272.3076170000004,157.56396500000028,215.2563479999999,-14.743652000000111,98.9741210000002,74.48730499999965,89.10253900000043,113.58984400000008,71.53857400000015,-95.38452099999995,156.2822270000006,100.76904300000024,108.46142599999985
115,296.9228520000006,280.0,155.0,203.9741210000002,-12.820557000000008,104.35888699999941,75.12841800000024,85.64111300000059,110.51269500000035,62.17968800000017,-103.58984399999963,150.0,80.12841800000024,106.41015599999992
116,293.7177729999994,288.7177729999994,155.0,196.6665039999998,-10.256347999999889,105.38476599999922,73.20507799999996,85.12841800000024,110.38476599999922,57.69238299999961,-108.97436500000003,147.3076170000004,65.25634799999989,111.15380900000036
117,293.84619099999964,299.6152340000008,157.6923829999996,192.05126999999993,-6.666747999999643,102.17968800000017,67.82031300000017,86.6665039999998,112.56396500000028,56.666503999999804,-111.28198199999997,147.82031300000017,55.12841800000024,112.56396500000028
118,292.3076170000004,309.6152340000008,160.2563479999999,186.9228520000006,-3.4614259999998467,96.0258789999998,59.35888699999941,87.43603499999972,114.23095699999976,53.7177729999994,-113.71801800000003,146.41015599999992,43.20507799999996,108.0771479999994
119,285.0,315.6411130000006,159.61523400000078,178.9741210000002,-1.6665039999998044,89.48730499999965,50.51269500000035,85.25634799999989,112.82031300000017,45.897460999999566,-117.94872999999961,140.38476599999922,24.615234000000783,106.41015599999992
120,273.46142599999985,317.3076170000004,155.2563479999999,169.10253900000043,-0.256347999999889,86.9228520000006,45.25634799999989,81.2822270000006,109.61523400000078,35.64111300000059,-122.30761700000039,132.3076170000004,1.6665039999998044,110.38476599999922
121,261.79492200000004,317.05126999999993,150.2563479999999,159.7436520000001,3.717772999999397,90.38476599999922,45.51269500000035,78.84619099999964,107.69238299999961,28.846190999999635,-124.61547900000005,127.17968800000017,-18.846190999999635,111.53857400000015
122,252.56396500000028,315.89746099999957,148.20507799999996,152.82031300000017,9.871581999999762,96.41015599999992,47.82031300000017,78.7177729999994,108.0771479999994,27.43603499999972,-127.05127000000039,126.0258789999998,-33.46142599999985,105.51269500000035
123,244.61523400000078,313.46142599999985,149.10253900000043,147.94873000000007,15.641113000000587,99.23095699999976,47.05126999999993,78.58984400000008,109.23095699999976,29.358886999999413,-133.33325200000036,126.15380900000036,-43.71801800000003,101.15380900000036
124,236.0258789999998,310.6411130000006,149.87158199999976,143.58984400000008,19.358886999999413,97.43603499999972,41.53857400000015,76.41015599999992,109.10253900000043,30.128418000000238,-143.33325200000036,124.35888699999941,-53.20507799999996,105.51269500000035
125,226.0258789999998,308.46142599999985,147.94873000000007,137.56396500000028,22.17968800000017,95.0,35.897460999999566,72.69238299999961,107.17968800000017,26.538574000000153,-152.3076170000004,119.10253900000043,-64.10253899999998,111.15380900000036
126,213.0771479999994,306.0258789999998,143.84619099999964,128.0771479999994,25.128418000000238,96.0258789999998,35.0,69.10253900000043,103.84619099999964,17.17968800000017,-156.15380900000036,110.64111300000059,-78.20507799999996,109.61523400000078
127,196.6665039999998,301.9228520000006,139.3588869999994,114.87158199999976,28.205077999999958,100.25634799999989,39.35888699999941,66.6665039999998,99.61523400000078,4.102539000000434,-154.7436520000001,101.0258789999998,-96.41015600000037,105.25634799999989
128,179.87158199999976,297.3076170000004,136.9228520000006,100.76904300000024,31.794922000000042,104.35888699999941,44.74365200000011,65.64111300000059,95.89746099999957,-7.307617000000391,-150.5129390000002,94.35888699999941,-115.38452099999995,106.53857400000015
129,167.6923829999996,295.3847659999992,137.82031300000017,89.87158199999976,36.79492200000004,105.76904300000024,45.897460999999566,65.51269500000035,94.74365200000011,-11.666747999999643,-146.66674799999964,93.20507799999996,-130.1281740000004,109.74365200000011
130,160.89746099999957,296.15380900000036,140.76904300000024,83.58984400000008,42.56396500000028,103.58984400000008,41.153809000000365,65.25634799999989,96.0258789999998,-9.8718259999996,-146.79492200000004,94.74365200000011,-139.7436520000001,106.6665039999998
131,154.10253900000043,295.51269500000035,142.17968800000017,79.10253900000043,46.53857400000015,99.23095699999976,32.69238299999961,63.46142599999985,97.82031300000017,-7.948729999999614,-151.79492200000004,93.7177729999994,-148.46142599999985,100.38476599999922
132,141.9228520000006,290.51269500000035,138.9741210000002,72.56396500000028,47.56396500000028,96.2822270000006,25.641113000000587,61.025878999999804,98.3334960000002,-10.512939000000188,-158.33325200000036,87.82031300000017,-160.1281740000004,100.76904300000024
133,125.12841800000024,284.48730499999965,131.9228520000006,63.20507799999996,49.23095699999976,98.46142599999985,24.871581999999762,61.2822270000006,98.84619099999964,-15.769286999999622,-159.8718259999996,80.38476599999922,-173.46142599999985,106.2822270000006
134,109.10253900000043,282.6923829999996,126.15380900000036,53.333496000000196,55.64111300000059,105.89746099999957,30.897460999999566,65.38476599999922,100.25634799999989,-19.61547900000005,-154.23071300000038,75.38476599999922,-184.10253899999998,106.6665039999998
135,97.82031300000017,286.15380900000036,125.25634799999989,45.12841800000024,67.30761700000039,113.84619099999964,38.974121000000196,69.87158199999976,101.15380900000036,-21.153809000000365,-146.28198199999997,73.3334960000002,-190.5129390000002,101.41015599999992
136,90.64111300000059,291.6665039999998,128.0771479999994,39.61523400000078,80.51269500000035,117.43603499999972,43.0771479999994,70.51269500000035,99.35888699999941,-22.564209000000574,-142.43579099999943,72.05126999999993,-194.61547900000005,100.38476599999922
137,85.64111300000059,295.12841800000024,130.51269500000035,36.153809000000365,91.53857400000015,116.79492200000004,41.410155999999915,66.53857400000015,95.25634799999989,-25.512939000000188,-143.58984399999963,70.25634799999989,-198.46142599999985,106.15380900000036
138,80.12841800000024,294.6152340000008,130.0,33.20507799999996,98.7177729999994,115.64111300000059,37.43603499999972,61.53857400000015,91.2822270000006,-29.74365200000011,-145.5129390000002,67.30761700000039,-203.46142599999985,109.87158199999976
139,71.6665039999998,289.7436520000001,126.6665039999998,28.846190999999635,101.79492200000004,116.41015599999992,35.51269500000035,59.35888699999941,89.87158199999976,-34.61547900000005,-144.7436520000001,63.333496000000196,-212.0512700000004,107.43603499999972
140,59.61523400000078,282.6923829999996,121.79492200000004,21.922852000000603,101.9228520000006,118.20507799999996,37.82031300000017,61.410155999999915,91.41015599999992,-38.58984399999963,-140.2563479999999,58.974121000000196,-224.61547900000005,105.76904300000024
141,47.69238299999961,278.20507799999996,116.9228520000006,14.102539000000434,103.20507799999996,119.87158199999976,43.333496000000196,66.15380900000036,95.0,-39.74365200000011,-133.076904,56.025878999999804,-236.79492200000004,108.9741210000002
142,40.76904300000024,280.0,114.23095699999976,8.717772999999397,109.23095699999976,121.41015599999992,49.61523400000078,71.2822270000006,98.84619099999964,-37.051270000000386,-124.10253899999998,55.38476599999922,-242.6923829999996,110.12841800000024
143,39.102539000000434,286.4101559999999,114.74365200000011,6.922852000000603,119.48730499999965,122.17968800000017,53.846190999999635,73.3334960000002,101.0258789999998,-33.46142599999985,-116.15380900000036,55.76904300000024,-240.64111300000013,105.25634799999989
144,37.43603499999972,290.76904300000024,116.79492200000004,6.538574000000153,129.48730499999965,121.41015599999992,55.25634799999989,71.0258789999998,100.12841800000024,-32.948729999999614,-111.79492200000004,53.846190999999635,-236.53857400000015,102.17968800000017
145,30.897460999999566,287.94873000000007,117.30761700000039,4.487304999999651,136.79492200000004,119.74365200000011,55.12841800000024,66.53857400000015,97.69238299999961,-35.64111300000013,-110.76928699999962,48.846190999999635,-237.179443,106.2822270000006
146,20.769043000000238,279.10253900000043,115.76904300000024,0.0,142.56396500000028,119.23095699999976,55.51269500000035,64.48730499999965,96.53857400000015,-38.46142599999985,-109.10253899999998,43.589844000000085,-243.33325200000036,110.89746099999957
147,11.538574000000153,268.46142599999985,114.48730499999965,-5.256347999999889,148.9741210000002,120.76904300000024,57.56396500000028,66.2822270000006,98.0771479999994,-38.71801800000003,-103.46142599999985,41.53857400000015,-250.5129390000002,108.9741210000002
148,5.769043000000238,258.0771479999994,115.0,-10.38452099999995,154.61523400000078,122.82031300000017,60.25634799999989,69.74365200000011,101.15380900000036,-37.051270000000386,-94.48706099999981,43.7177729999994,-252.9487299999996,105.51269500000035
149,3.077147999999397,248.20507799999996,115.89746099999957,-16.41015600000037,157.05126999999993,123.46142599999985,62.69238299999961,72.56396500000028,104.10253900000043,-34.48706099999981,-84.61547900000005,48.46142599999985,-246.923096,107.43603499999972
150,2.9487300000000687,238.58984400000008,116.0258789999998,-23.846190999999635,156.15380900000036,122.56396500000028,65.0,74.87158199999976,106.41015599999992,-30.512939000000188,-74.74365200000011,53.7177729999994,-231.53857400000015,110.25634799999989
151,4.871581999999762,229.3588869999994,116.2822270000006,-32.17944299999999,154.48730499999965,120.89746099999957,66.9228520000006,77.69238299999961,108.58984400000008,-24.230713000000378,-63.974365000000034,58.20507799999996,-210.76928699999962,107.17968800000017
152,7.948730000000069,219.3588869999994,117.82031300000017,-40.38452099999995,154.10253900000043,117.94873000000007,67.17968800000017,80.89746099999957,110.12841800000024,-17.179442999999992,-52.30761700000039,60.51269500000035,-192.43579099999943,101.9228520000006
153,10.0,207.3076170000004,119.48730499999965,-48.846190999999635,155.6411130000006,113.0771479999994,65.51269500000035,82.56396500000028,109.74365200000011,-12.307617000000391,-41.41015600000037,60.64111300000059,-182.56420900000057,102.56396500000028
154,10.0,193.9741210000002,119.87158199999976,-57.564209000000574,159.61523400000078,108.20507799999996,63.974121000000196,82.05126999999993,106.9228520000006,-11.153809000000365,-32.435790999999426,60.0,-179.7436520000001,106.53857400000015
155,8.589844000000085,181.9228520000006,119.10253900000043,-65.1281740000004,167.56396500000028,107.30761700000039,65.12841800000024,80.12841800000024,101.9228520000006,-13.461425999999847,-23.333252000000357,60.897460999999566,-177.0512700000004,105.76904300000024
156,6.922852000000603,173.0771479999994,118.9741210000002,-70.89746100000002,180.12841800000024,111.15380900000036,70.25634799999989,77.82031300000017,96.0258789999998,-17.69238299999961,-9.487060999999812,64.10253900000043,-167.0512700000004,101.9228520000006
157,6.282227000000603,167.6923829999996,120.25634799999989,-75.64111300000013,197.05126999999993,116.6665039999998,77.56396500000028,76.41015599999992,90.64111300000059,-20.1281740000004,13.205077999999958,68.84619099999964,-147.820557,102.82031300000017
158,8.333496000000196,165.0,122.56396500000028,-81.02563499999997,218.46142599999985,120.89746099999957,85.12841800000024,77.43603499999972,87.69238299999961,-16.666747999999643,46.2822270000006,73.46142599999985,-121.41015600000037,107.05126999999993
159,14.743652000000111,163.7177729999994,126.0258789999998,-88.07690400000001,244.87158199999976,123.58984400000008,92.30761700000039,82.05126999999993,88.9741210000002,-6.153809000000365,87.17968800000017,77.56396500000028,-92.56420900000057,106.41015599999992
160,23.461425999999847,161.53857400000015,130.51269500000035,-97.05127000000039,273.46142599999985,125.25634799999989,98.9741210000002,89.48730499999965,93.0771479999994,6.794922000000042,129.87158199999976,80.64111300000059,-65.64111300000013,101.15380900000036
161,29.102539000000434,155.51269500000035,134.48730499999965,-108.46142599999985,298.5898440000001,125.64111300000059,105.0,96.15380900000036,96.2822270000006,14.487304999999651,168.58984400000008,82.82031300000017,-43.46142599999985,99.48730499999965
162,28.333496000000196,145.89746099999957,135.51269500000035,-121.41015600000037,315.0,125.38476599999922,110.51269500000035,99.61523400000078,95.76904300000024,12.948730000000069,201.41015599999992,84.10253900000043,-25.1281740000004,102.30761700000039
163,23.205077999999958,136.15380900000036,133.84619099999964,-133.20507799999996,322.3076170000004,126.15380900000036,115.89746099999957,100.51269500000035,92.43603499999972,4.871581999999762,231.2822270000006,86.15380900000036,-6.923095999999987,101.0258789999998
164,18.846190999999635,129.48730499999965,132.6923829999996,-140.2563479999999,323.20507799999996,128.9741210000002,121.9228520000006,101.79492200000004,89.87158199999976,-3.3334960000001956,260.51269500000035,89.87158199999976,14.102539000000434,94.35888699999941
165,18.589844000000085,125.64111300000059,133.9741210000002,-141.41015600000037,320.0,131.6665039999998,127.82031300000017,105.51269500000035,90.51269500000035,-6.923095999999987,287.94873000000007,94.23095699999976,37.43603499999972,91.53857400000015
166,21.538574000000153,122.17968800000017,136.15380900000036,-138.97436500000003,314.7436520000001,132.05126999999993,133.3334960000002,111.6665039999998,94.48730499999965,-4.61547900000005,309.48730499999965,96.9228520000006,60.51269500000035,96.2822270000006
167,25.25634799999989,117.56396500000028,136.9228520000006,-135.2563479999999,310.89746099999957,130.38476599999922,138.9741210000002,118.7177729999994,100.64111300000059,1.9228520000006029,322.6923829999996,97.05126999999993,81.79492200000004,100.38476599999922
168,27.05126999999993,111.2822270000006,135.76904300000024,-131.53857400000015,312.17968800000017,128.58984400000008,145.38476599999922,124.48730499999965,106.79492200000004,9.358886999999413,328.7177729999994,96.53857400000015,100.25634799999989,98.20507799999996
169,25.0,103.0771479999994,133.84619099999964,-128.33325200000036,318.5898440000001,127.43603499999972,151.41015599999992,126.53857400000015,110.76904300000024,13.846190999999635,331.15380900000036,96.6665039999998,113.0771479999994,96.9228520000006
170,19.230956999999762,92.82031300000017,131.2822270000006,-126.41015600000037,327.6923829999996,126.0258789999998,155.38476599999922,123.3334960000002,110.76904300000024,13.974121000000196,333.20507799999996,97.69238299999961,117.82031300000017,102.43603499999972
171,12.82031300000017,82.56396500000028,128.20507799999996,-125.1281740000004,336.6665039999998,125.0,158.0771479999994,117.17968800000017,108.3334960000002,11.794922000000042,335.76904300000024,98.20507799999996,115.51269500000035,108.46142599999985
172,8.974121000000196,74.35888699999941,125.25634799999989,-122.94872999999961,344.10253900000043,126.15380900000036,162.56396500000028,112.43603499999972,105.89746099999957,10.641113000000587,337.6923829999996,97.30761700000039,110.76904300000024,107.69238299999961
173,7.307617000000391,67.94873000000007,122.69238299999961,-119.48706099999981,348.5898440000001,130.0,170.51269500000035,112.05126999999993,105.12841800000024,11.538574000000153,335.51269500000035,94.74365200000011,108.58984400000008,105.38476599999922
174,4.6152340000007825,60.64111300000059,119.61523400000078,-115.89746100000002,348.9741210000002,134.10253900000043,180.51269500000035,115.12841800000024,105.64111300000059,13.846190999999635,328.20507799999996,91.0258789999998,111.41015599999992,109.23095699999976
175,0.12841800000023795,52.17968800000017,115.51269500000035,-113.20507799999996,346.79492200000004,136.15380900000036,188.46142599999985,118.9741210000002,106.2822270000006,16.538574000000153,319.6152340000008,87.82031300000017,118.7177729999994,115.38476599999922
176,-2.9487300000000687,45.25634799999989,112.30761700000039,-110.25634799999989,345.51269500000035,135.38476599999922,191.79492200000004,121.0258789999998,106.79492200000004,20.25634799999989,315.2563479999999,87.69238299999961,128.46142599999985,115.12841800000024
177,-1.9228520000006029,41.9228520000006,112.82031300000017,-105.89746100000002,346.9228520000006,132.43603499999972,190.76904300000024,120.89746099999957,107.05126999999993,25.0,317.4360349999997,91.15380900000036,136.53857400000015,111.0258789999998
178,2.4360349999997197,41.666503999999804,116.79492200000004,-100.76928699999962,349.6152340000008,128.46142599999985,187.82031300000017,118.9741210000002,107.30761700000039,30.0,322.5639650000003,95.64111300000059,140.2563479999999,111.53857400000015
179,7.307617000000391,41.79492200000004,120.38476599999922,-96.15380900000036,352.05126999999993,125.25634799999989,186.79492200000004,117.43603499999972,107.94873000000007,34.35888699999941,326.6665039999998,98.46142599999985,141.2822270000006,115.38476599999922
180,10.384765999999217,41.153809000000365,120.64111300000059,-92.05127000000039,354.3588869999994,125.0,190.12841800000024,118.0771479999994,109.61523400000078,38.7177729999994,327.94873000000007,98.84619099999964,144.3588869999994,113.46142599999985
181,10.512695000000349,38.589844000000085,117.43603499999972,-87.82055700000001,355.89746099999957,127.05126999999993,197.3076170000004,121.0258789999998,112.17968800000017,42.56396500000028,327.4360349999997,97.94873000000007,151.6665039999998,106.6665039999998
182,6.922852000000603,32.56396500000028,112.82031300000017,-84.23071300000038,355.12841800000024,128.3334960000002,204.48730499999965,123.9741210000002,114.23095699999976,45.12841800000024,325.2563479999999,96.53857400000015,158.46142599999985,105.51269500000035
183,0.6411130000005869,23.333496000000196,108.9741210000002,-81.92309599999999,350.76904300000024,126.6665039999998,208.3334960000002,125.0,114.48730499999965,46.025878999999804,322.17968800000017,94.48730499999965,159.10253900000043,112.17968800000017
184,-4.102538999999979,14.358886999999413,107.82031300000017,-80.25634799999989,345.12841800000024,123.46142599999985,210.0,124.61523400000078,113.84619099999964,46.666503999999804,320.3847659999992,92.94873000000007,153.58984400000008,115.89746099999957
185,-4.61547900000005,8.717772999999397,109.48730499999965,-78.07690400000001,341.15380900000036,121.79492200000004,212.3076170000004,124.10253900000043,112.82031300000017,48.0771479999994,321.15380900000036,93.20507799999996,147.17968800000017,111.2822270000006
186,-2.9487300000000687,4.871581999999762,112.17968800000017,-75.0,338.9741210000002,122.05126999999993,216.53857400000015,123.3334960000002,111.2822270000006,48.589844000000085,322.3076170000004,94.74365200000011,143.9741210000002,107.17968800000017
187,-3.2050779999999577,-0.6411130000005869,112.30761700000039,-71.66674799999964,336.0258789999998,122.69238299999961,221.41015599999992,121.15380900000036,108.20507799999996,46.410155999999915,319.3588869999994,95.12841800000024,143.9741210000002,110.51269500000035
188,-7.179442999999992,-8.846190999999635,108.7177729999994,-67.82055700000001,331.4101559999999,122.69238299999961,224.87158199999976,117.30761700000039,104.23095699999976,41.79492200000004,311.2822270000006,92.82031300000017,145.12841800000024,114.87158199999976
189,-12.564209000000574,-17.435790999999426,103.46142599999985,-62.948729999999614,326.0258789999998,122.69238299999961,226.41015599999992,113.7177729999994,101.15380900000036,37.43603499999972,300.6411130000006,88.84619099999964,145.0,113.20507799999996
190,-16.923095999999987,-24.10253899999998,100.12841800000024,-57.948729999999614,320.51269500000035,122.69238299999961,227.05126999999993,112.56396500000028,100.89746099999957,36.410155999999915,291.15380900000036,85.25634799999989,141.9228520000006,110.38476599999922
191,-20.0,-29.230713000000378,99.74365200000011,-54.48706099999981,315.0,122.30761700000039,228.3334960000002,114.10253900000043,103.46142599999985,39.74365200000011,284.23095699999976,83.20507799999996,135.38476599999922,113.58984400000008
192,-22.30761700000039,-33.58984399999963,101.0258789999998,-52.69238299999961,309.87158199999976,121.41015599999992,231.41015599999992,117.30761700000039,107.82031300000017,45.64111300000059,279.6152340000008,83.0771479999994,127.82031300000017,118.46142599999985
193,-24.230713000000378,-37.435790999999426,102.17968800000017,-50.51293900000019,305.89746099999957,120.12841800000024,235.89746099999957,120.51269500000035,111.41015599999992,50.64111300000059,275.76904300000024,84.35888699999941,122.82031300000017,116.9228520000006
194,-26.666747999999643,-41.92309599999999,101.9228520000006,-46.153809000000365,301.6665039999998,117.56396500000028,239.10253900000043,120.76904300000024,111.15380900000036,50.51269500000035,269.87158199999976,84.87158199999976,120.38476599999922,111.79492200000004
195,-30.769286999999622,-48.07690400000001,99.48730499999965,-39.74365200000011,294.7436520000001,112.82031300000017,238.7177729999994,116.2822270000006,106.0258789999998,43.974121000000196,259.10253900000043,83.20507799999996,116.53857400000015,111.6665039999998
196,-35.76928699999962,-55.0,95.89746099999957,-32.435790999999426,286.0258789999998,107.82031300000017,235.12841800000024,108.9741210000002,98.46142599999985,34.61523400000078,245.6411130000006,80.0,108.84619099999964,115.0
197,-38.07690400000001,-58.58984399999963,93.84619099999964,-24.230713000000378,279.3588869999994,106.41015599999992,232.3076170000004,103.58984400000008,93.46142599999985,29.102539000000434,235.51269500000035,78.3334960000002,99.61523400000078,112.94873000000007
198,-35.51293900000019,-56.53857400000015,95.76904300000024,-15.897461000000021,277.4360349999997,110.12841800000024,233.20507799999996,103.84619099999964,93.9741210000002,31.538574000000153,233.46142599999985,80.89746099999957,93.20507799999996,106.0258789999998
199,-30.1281740000004,-51.025634999999966,100.12841800000024,-8.076904000000013,278.5898440000001,115.89746099999957,237.82031300000017,108.9741210000002,98.58984400000008,39.74365200000011,237.05126999999993,86.79492200000004,90.89746099999957,104.35888699999941
200,-25.769286999999622,-45.89746100000002,103.20507799999996,-1.6665039999998044,279.23095699999976,120.0,243.0771479999994,114.61523400000078,103.7177729999994,47.69238299999961,239.48730499999965,92.17968800000017,90.76904300000024,110.38476599999922
201,-24.358886999999868,-43.20507799999996,103.20507799999996,3.846190999999635,277.3076170000004,121.6665039999998,246.79492200000004,118.58984400000008,106.9228520000006,51.53857400000015,235.0,94.87158199999976,90.12841800000024,114.74365200000011
202,-25.1281740000004,-42.564209000000574,101.79492200000004,9.487304999999651,273.3334960000002,122.30761700000039,248.20507799999996,120.76904300000024,108.3334960000002,51.025878999999804,223.46142599999985,95.38476599999922,87.43603499999972,112.56396500000028
203,-26.28198199999997,-42.948729999999614,101.6665039999998,15.256347999999889,267.5639650000003,122.43603499999972,247.17968800000017,121.53857400000015,108.9741210000002,48.7177729999994,208.3334960000002,95.25634799999989,82.69238299999961,110.89746099999957
204,-26.538574000000153,-44.10253899999998,104.23095699999976,20.769043000000238,260.6411130000006,121.6665039999998,244.3588869999994,121.15380900000036,109.74365200000011,47.69238299999961,195.2563479999999,96.0258789999998,77.82031300000017,114.35888699999941
205,-24.74365200000011,-45.0,108.3334960000002,25.641113000000587,253.7177729999994,121.15380900000036,240.76904300000024,119.87158199999976,110.76904300000024,49.23095699999976,187.82031300000017,97.82031300000017,75.64111300000059,116.15380900000036
206,-21.41015600000037,-44.8718259999996,111.9228520000006,29.615234000000783,247.82031300000017,121.6665039999998,237.82031300000017,118.20507799999996,111.41015599999992,51.79492200000004,185.89746099999957,99.74365200000011,76.2822270000006,110.76904300000024
207,-18.974365000000034,-44.35888699999987,112.69238299999961,32.30761700000039,241.9228520000006,122.17968800000017,235.0,116.0258789999998,110.64111300000059,52.56396500000028,184.48730499999965,100.25634799999989,76.41015599999992,104.74365200000011
208,-19.74365200000011,-44.8718259999996,109.74365200000011,33.7177729999994,235.38476599999922,120.38476599999922,231.41015599999992,113.20507799999996,108.0771479999994,50.0,179.10253900000043,98.0771479999994,73.0771479999994,106.0258789999998
209,-22.179442999999992,-45.64111300000013,104.61523400000078,35.12841800000024,229.10253900000043,116.53857400000015,227.05126999999993,111.53857400000015,105.76904300000024,46.666503999999804,169.7436520000001,95.0,67.94873000000007,110.25634799999989
210,-22.69238299999961,-45.0,100.89746099999957,37.94873000000007,225.12841800000024,113.20507799999996,223.3334960000002,112.56396500000028,105.89746099999957,46.79492200000004,160.6411130000006,93.46142599999985,65.38476599999922,109.23095699999976
211,-20.1281740000004,-43.46142599999985,101.0258789999998,41.9228520000006,222.94873000000007,111.79492200000004,221.41015599999992,116.15380900000036,109.35888699999941,51.9228520000006,155.12841800000024,94.10253900000043,66.41015599999992,105.89746099999957
212,-16.794922000000042,-43.846190999999635,103.20507799999996,46.025878999999804,220.38476599999922,111.79492200000004,220.12841800000024,119.87158199999976,113.58984400000008,59.35888699999941,152.82031300000017,94.61523400000078,67.69238299999961,108.3334960000002
213,-15.256347999999889,-47.051270000000386,104.23095699999976,49.61523400000078,216.53857400000015,112.82031300000017,218.58984400000008,121.2822270000006,115.76904300000024,64.61523400000078,151.0258789999998,93.46142599999985,64.87158199999976,114.23095699999976
214,-16.28198199999997,-50.64111300000013,102.17968800000017,53.20507799999996,212.56396500000028,115.12841800000024,216.6665039999998,120.0,115.12841800000024,65.25634799999989,146.79492200000004,91.15380900000036,56.79492200000004,114.23095699999976
215,-18.71801800000003,-52.564209000000574,98.46142599999985,56.025878999999804,209.23095699999976,117.43603499999972,213.9741210000002,116.79492200000004,112.69238299999961,61.79492200000004,139.3588869999994,89.48730499999965,45.897460999999566,108.0771479999994
216,-21.666747999999643,-52.948729999999614,95.76904300000024,57.30761700000039,205.51269500000035,117.56396500000028,209.61523400000078,112.43603499999972,109.35888699999941,56.9228520000006,129.10253900000043,88.84619099999964,36.153809000000365,105.64111300000059
217,-23.333252000000357,-52.82055700000001,95.38476599999922,57.56396500000028,200.38476599999922,114.87158199999976,203.58984400000008,108.46142599999985,106.6665039999998,53.7177729999994,119.10253900000043,89.23095699999976,31.410155999999915,109.87158199999976
218,-22.179442999999992,-52.17944299999999,97.05126999999993,59.102539000000434,194.48730499999965,111.53857400000015,197.05126999999993,106.79492200000004,105.89746099999957,54.61523400000078,112.17968800000017,90.12841800000024,33.0771479999994,112.43603499999972
219,-19.487060999999812,-51.025634999999966,99.23095699999976,63.0771479999994,189.23095699999976,109.87158199999976,191.79492200000004,107.69238299999961,106.9228520000006,58.7177729999994,109.10253900000043,91.0258789999998,38.0771479999994,109.61523400000078
220,-18.71801800000003,-50.89746100000002,99.10253900000043,67.69238299999961,184.61523400000078,109.61523400000078,187.82031300000017,108.58984400000008,107.94873000000007,62.94873000000007,107.17968800000017,90.51269500000035,40.12841800000024,108.7177729999994
221,-21.666747999999643,-51.79492200000004,95.64111300000059,70.51269500000035,180.76904300000024,109.48730499999965,184.48730499999965,107.30761700000039,107.17968800000017,64.48730499999965,103.20507799999996,88.0771479999994,35.76904300000024,113.9741210000002
222,-26.153809000000365,-51.92309599999999,90.25634799999989,70.51269500000035,178.20507799999996,109.74365200000011,181.79492200000004,104.23095699999976,105.51269500000035,63.333496000000196,96.53857400000015,84.35888699999941,27.30761700000039,117.43603499999972
223,-28.974365000000034,-49.74365200000011,85.51269500000035,68.0771479999994,176.53857400000015,110.89746099999957,179.87158199999976,101.53857400000015,104.61523400000078,61.79492200000004,87.69238299999961,80.64111300000059,20.51269500000035,113.0771479999994
224,-29.74365200000011,-47.435790999999426,82.56396500000028,64.48730499999965,172.94873000000007,111.2822270000006,177.56396500000028,100.25634799999989,105.0,60.76904300000024,78.20507799999996,76.79492200000004,18.461425999999847,107.56396500000028
225,-30.1281740000004,-47.17944299999999,81.2822270000006,61.410155999999915,166.41015599999992,109.35888699999941,173.46142599999985,99.87158199999976,105.12841800000024,59.87158199999976,69.61523400000078,73.20507799999996,20.25634799999989,108.9741210000002
226,-30.38452099999995,-48.20507799999996,81.53857400000015,61.9228520000006,159.3588869999994,106.15380900000036,167.56396500000028,99.74365200000011,104.74365200000011,58.7177729999994,64.61523400000078,71.15380900000036,23.717772999999397,112.56396500000028
227,-29.230713000000378,-47.564209000000574,83.20507799999996,67.17968800000017,155.2563479999999,104.35888699999941,161.9228520000006,100.38476599999922,104.74365200000011,58.333496000000196,64.48730499999965,72.30761700000039,26.025878999999804,110.25634799999989
228,-26.153809000000365,-44.10253899999998,85.51269500000035,74.61523400000078,155.12841800000024,105.25634799999989,157.94873000000007,101.0258789999998,105.51269500000035,59.61523400000078,67.43603499999972,75.64111300000059,25.0,105.76904300000024
229,-22.179442999999992,-39.35888699999987,87.43603499999972,80.0,156.41015599999992,107.82031300000017,156.15380900000036,101.0258789999998,106.15380900000036,61.9228520000006,69.74365200000011,78.58984400000008,20.51269500000035,107.69238299999961
230,-18.076904000000013,-34.48706099999981,88.46142599999985,81.15380900000036,157.43603499999972,111.15380900000036,156.0258789999998,100.64111300000059,105.89746099999957,63.20507799999996,68.46142599999985,79.35888699999941,14.871581999999762,113.9741210000002
231,-14.230713000000378,-29.61547900000005,88.7177729999994,79.74365200000011,158.7177729999994,115.12841800000024,156.9228520000006,100.64111300000059,104.87158199999976,61.666503999999804,63.846190999999635,77.82031300000017,11.922852000000603,115.12841800000024
232,-11.794922000000042,-26.41015600000037,88.0771479999994,78.46142599999985,160.0,117.82031300000017,156.53857400000015,100.38476599999922,103.20507799999996,56.9228520000006,56.9228520000006,75.0,11.922852000000603,110.64111300000059
233,-12.692382999999609,-26.28198199999997,85.89746099999957,78.46142599999985,159.7436520000001,116.6665039999998,152.43603499999972,97.56396500000028,100.51269500000035,50.25634799999989,49.74365200000011,71.6665039999998,11.922852000000603,108.7177729999994
234,-15.641113000000132,-28.71801800000003,83.20507799999996,79.61523400000078,157.6923829999996,112.17968800000017,144.10253900000043,91.79492200000004,97.17968800000017,45.12841800000024,45.0,68.9741210000002,10.128418000000238,110.76904300000024
235,-17.30761700000039,-30.1281740000004,81.9228520000006,81.2822270000006,155.76904300000024,107.82031300000017,135.12841800000024,86.41015599999992,94.61523400000078,45.0,44.35888699999941,68.3334960000002,7.179688000000169,109.74365200000011
236,-15.769286999999622,-28.846190999999635,82.82031300000017,82.30761700000039,155.51269500000035,106.6665039999998,129.23095699999976,84.87158199999976,94.35888699999941,49.87158199999976,46.2822270000006,69.87158199999976,5.0,105.25634799999989
237,-12.820557000000008,-26.666747999999643,84.87158199999976,81.53857400000015,156.41015599999992,107.56396500000028,127.69238299999961,87.17968800000017,95.51269500000035,55.0,46.2822270000006,72.30761700000039,3.3334960000001956,105.76904300000024
238,-11.28198199999997,-25.512939000000188,85.64111300000059,80.0,156.79492200000004,108.20507799999996,128.58984400000008,90.89746099999957,96.2822270000006,55.76904300000024,42.17968800000017,73.84619099999964,1.5385740000001533,113.0771479999994
239,-11.794922000000042,-25.641113000000132,84.87158199999976,79.61523400000078,156.9228520000006,107.43603499999972,129.10253900000043,93.0771479999994,95.89746099999957,51.666503999999804,36.025878999999804,74.48730499999965,0.769043000000238,117.69238299999961
240,-12.948729999999614,-26.025634999999966,83.7177729999994,81.2822270000006,157.17968800000017,106.15380900000036,126.79492200000004,92.56396500000028,94.23095699999976,46.153809000000365,31.410155999999915,75.12841800000024,1.7949220000000423,113.58984400000008
241,-14.487060999999812,-27.051270000000386,83.58984400000008,82.94873000000007,156.6665039999998,103.9741210000002,120.89746099999957,89.23095699999976,92.05126999999993,43.46142599999985,29.230956999999762,75.76904300000024,2.9487300000000687,108.46142599999985
242,-15.512939000000188,-28.846190999999635,84.61523400000078,82.43603499999972,154.7436520000001,100.89746099999957,112.94873000000007,84.74365200000011,90.25634799999989,45.64111300000059,28.461425999999847,75.76904300000024,2.0512699999999313,109.35888699999941
243,-14.230713000000378,-28.846190999999635,86.6665039999998,80.51269500000035,153.0771479999994,98.3334960000002,106.53857400000015,82.30761700000039,90.25634799999989,51.9228520000006,28.461425999999847,76.0258789999998,-0.38476599999921746,111.9228520000006
244,-9.61547900000005,-25.641113000000132,89.23095699999976,80.25634799999989,153.7177729999994,98.20507799999996,104.48730499999965,84.23095699999976,92.94873000000007,58.974121000000196,28.974121000000196,77.43603499999972,-1.9228520000006029,109.74365200000011
245,-3.846190999999635,-20.512939000000188,90.76904300000024,83.46142599999985,156.2822270000006,99.48730499999965,105.76904300000024,89.23095699999976,96.9228520000006,63.333496000000196,29.48730499999965,79.74365200000011,-1.6665039999998044,107.05126999999993
246,-0.512695000000349,-16.923095999999987,89.87158199999976,88.58984400000008,158.0771479999994,100.25634799999989,106.79492200000004,93.46142599999985,99.61523400000078,63.7177729999994,28.717772999999397,81.53857400000015,0.0,110.51269500000035
247,0.256347999999889,-16.025634999999966,86.6665039999998,92.94873000000007,158.0771479999994,100.64111300000059,105.76904300000024,95.25634799999989,100.64111300000059,63.0771479999994,27.30761700000039,81.9228520000006,3.846190999999635,115.89746099999957
248,0.256347999999889,-16.923095999999987,83.58984400000008,94.23095699999976,157.82031300000017,102.17968800000017,103.58984400000008,95.51269500000035,100.76904300000024,64.87158199999976,27.17968800000017,81.9228520000006,10.641113000000587,114.48730499999965
249,0.256347999999889,-19.10253899999998,83.0771479999994,91.6665039999998,157.56396500000028,104.61523400000078,101.79492200000004,95.25634799999989,100.64111300000059,68.7177729999994,28.589844000000085,82.05126999999993,18.333496000000196,108.84619099999964
250,-1.2822270000006029,-22.69238299999961,84.48730499999965,86.9228520000006,156.41015599999992,106.0258789999998,100.64111300000059,94.35888699999941,99.61523400000078,70.89746099999957,29.74365200000011,81.41015599999992,21.025878999999804,107.94873000000007
251,-4.358886999999868,-25.769286999999622,84.87158199999976,83.46142599999985,154.10253900000043,105.89746099999957,99.10253900000043,92.43603499999972,97.30761700000039,68.7177729999994,29.102539000000434,79.35888699999941,16.282227000000603,111.53857400000015
252,-6.794922000000042,-25.512939000000188,82.82031300000017,85.0,152.82031300000017,105.64111300000059,96.41015599999992,90.25634799999989,94.87158199999976,63.589844000000085,27.56396500000028,76.6665039999998,6.410155999999915,110.89746099999957
253,-6.666747999999643,-21.666747999999643,79.61523400000078,90.51269500000035,153.20507799999996,105.76904300000024,92.17968800000017,88.58984400000008,93.46142599999985,58.46142599999985,26.025878999999804,74.61523400000078,-3.2050779999999577,105.76904300000024
254,-5.256347999999889,-17.820557000000008,77.30761700000039,95.51269500000035,154.3588869999994,105.25634799999989,86.79492200000004,87.43603499999972,92.82031300000017,55.38476599999922,23.846190999999635,73.0771479999994,-9.102538999999979,104.48730499999965
255,-4.358886999999868,-17.30761700000039,76.41015599999992,96.15380900000036,154.7436520000001,103.7177729999994,82.30761700000039,86.79492200000004,92.43603499999972,55.12841800000024,20.128418000000238,72.05126999999993,-10.38452099999995,109.48730499999965
256,-3.846190999999635,-19.487060999999812,77.05126999999993,92.82031300000017,155.12841800000024,102.94873000000007,80.76904300000024,87.30761700000039,93.0771479999994,57.43603499999972,16.282227000000603,71.6665039999998,-7.051270000000386,112.43603499999972
257,-3.4614259999998467,-21.153809000000365,78.46142599999985,89.61523400000078,156.2822270000006,104.10253900000043,82.17968800000017,88.9741210000002,94.48730499999965,60.38476599999922,13.846190999999635,72.30761700000039,-2.3076170000003913,109.48730499999965
258,-3.846190999999635,-20.769286999999622,79.35888699999941,88.7177729999994,157.43603499999972,105.89746099999957,83.9741210000002,90.0,95.12841800000024,61.025878999999804,13.077147999999397,73.20507799999996,-0.769043000000238,107.69238299999961
259,-5.38452099999995,-18.71801800000003,78.3334960000002,89.35888699999941,157.56396500000028,106.9228520000006,82.82031300000017,88.58984400000008,93.84619099999964,58.333496000000196,12.82031300000017,72.69238299999961,-5.38452099999995,111.53857400000015
260,-6.281981999999971,-16.025634999999966,75.64111300000059,89.87158199999976,157.3076170000004,107.69238299999961,79.10253900000043,85.25634799999989,91.41015599999992,53.846190999999635,12.82031300000017,71.15380900000036,-13.846190999999635,114.48730499999965
261,-4.743652000000111,-13.333252000000357,73.3334960000002,88.9741210000002,157.82031300000017,108.9741210000002,75.25634799999989,83.20507799999996,90.25634799999989,50.897460999999566,13.846190999999635,70.38476599999922,-20.641113000000132,110.89746099999957
262,-1.4101559999999154,-12.179442999999992,73.84619099999964,87.17968800000017,158.20507799999996,110.12841800000024,73.3334960000002,84.23095699999976,91.41015599999992,51.53857400000015,16.410155999999915,71.79492200000004,-22.179442999999992,106.79492200000004
263,1.5385740000001533,-13.205077999999958,76.79492200000004,85.25634799999989,157.3076170000004,110.12841800000024,73.3334960000002,87.43603499999972,93.84619099999964,55.76904300000024,19.615234000000783,75.0,-18.076904000000013,108.9741210000002
264,3.4614259999998467,-15.0,80.25634799999989,84.87158199999976,156.0258789999998,109.48730499999965,73.84619099999964,90.89746099999957,96.79492200000004,62.30761700000039,22.94873000000007,79.23095699999976,-10.256347999999889,112.94873000000007
265,5.512695000000349,-15.769286999999622,82.43603499999972,86.15380900000036,156.0258789999998,108.84619099999964,73.20507799999996,93.46142599999985,99.35888699999941,68.84619099999964,25.25634799999989,82.56396500000028,-1.9228520000006029,110.89746099999957
266,7.307617000000391,-15.769286999999622,82.82031300000017,87.30761700000039,156.53857400000015,107.43603499999972,70.64111300000059,93.9741210000002,100.51269500000035,72.30761700000039,25.51269500000035,83.58984400000008,2.3076170000003913,106.53857400000015
267,6.410155999999915,-17.435790999999426,81.0258789999998,85.76904300000024,154.23095699999976,104.10253900000043,66.0258789999998,91.9228520000006,98.9741210000002,70.0,22.05126999999993,81.0258789999998,-1.5385740000001533,108.20507799999996
268,1.7949220000000423,-21.538574000000153,77.94873000000007,81.15380900000036,148.58984400000008,100.0,61.53857400000015,88.58984400000008,95.89746099999957,62.94873000000007,16.153809000000365,76.0258789999998,-12.179442999999992,113.20507799999996
269,-3.4614259999998467,-25.38452099999995,75.76904300000024,76.79492200000004,142.6923829999996,97.82031300000017,58.974121000000196,86.53857400000015,93.58984400000008,54.87158199999976,10.769043000000238,71.79492200000004,-23.333252000000357,112.56396500000028
270,-5.512939000000188,-26.28198199999997,76.2822270000006,75.89746099999957,140.0,98.46142599999985,58.333496000000196,87.05126999999993,93.46142599999985,50.0,7.692382999999609,70.76904300000024,-28.333252000000357,106.9228520000006
271,-3.5898440000000846,-25.38452099999995,78.58984400000008,78.3334960000002,140.89746099999957,99.35888699999941,57.17968800000017,88.7177729999994,94.23095699999976,48.7177729999994,6.153809000000365,72.17968800000017,-25.641113000000132,105.64111300000059
272,-0.12841800000023795,-25.769286999999622,80.64111300000059,81.41015599999992,143.3334960000002,98.7177729999994,55.0,89.48730499999965,93.9741210000002,49.102539000000434,4.358886999999413,73.20507799999996,-20.0,110.51269500000035
273,0.8974609999995664,-29.8718259999996,80.25634799999989,82.43603499999972,145.51269500000035,97.69238299999961,53.0771479999994,89.35888699999941,91.79492200000004,48.846190999999635,1.9228520000006029,71.53857400000015,-18.71801800000003,112.94873000000007
274,-3.4614259999998467,-37.30761700000039,77.56396500000028,79.61523400000078,145.38476599999922,98.20507799999996,53.333496000000196,88.9741210000002,88.84619099999964,46.666503999999804,-0.512695000000349,66.9228520000006,-26.923095999999987,109.74365200000011
275,-13.205077999999958,-45.64111300000013,73.7177729999994,73.9741210000002,142.17968800000017,100.51269500000035,55.64111300000059,88.7177729999994,86.15380900000036,43.0771479999994,-2.4360349999997197,61.2822270000006,-43.07690400000001,107.82031300000017
276,-23.205077999999958,-50.1281740000004,71.15380900000036,68.84619099999964,137.82031300000017,103.7177729999994,57.69238299999961,88.46142599999985,85.0,40.12841800000024,-2.5639650000002803,58.0771479999994,-57.948729999999614,110.12841800000024
277,-25.0,-46.66674799999964,72.17968800000017,68.20507799999996,137.05126999999993,107.17968800000017,57.94873000000007,88.9741210000002,86.15380900000036,40.897460999999566,0.769043000000238,60.64111300000059,-58.974365000000034,109.87158199999976
278,-14.743652000000111,-35.89746100000002,77.69238299999961,72.82031300000017,142.05126999999993,110.25634799999989,55.76904300000024,90.38476599999922,88.9741210000002,46.666503999999804,8.205077999999958,69.35888699999941,-40.25634799999989,103.84619099999964
279,2.6923829999996087,-24.61547900000005,84.74365200000011,78.84619099999964,149.87158199999976,111.0258789999998,50.897460999999566,90.89746099999957,91.53857400000015,55.64111300000059,18.205077999999958,80.64111300000059,-8.205077999999958,100.64111300000059
280,17.17968800000017,-20.512939000000188,89.10253900000043,81.53857400000015,155.12841800000024,108.46142599999985,44.23095699999976,89.23095699999976,92.43603499999972,65.0,28.205077999999958,88.7177729999994,22.17968800000017,106.53857400000015
281,22.94873000000007,-25.0,89.10253900000043,80.12841800000024,155.51269500000035,104.74365200000011,38.846190999999635,86.53857400000015,92.94873000000007,73.0771479999994,36.79492200000004,91.79492200000004,40.12841800000024,114.10253900000043
282,21.538574000000153,-32.564209000000574,87.17968800000017,77.69238299999961,153.58984400000008,102.82031300000017,37.30761700000039,85.76904300000024,95.0,79.48730499999965,43.589844000000085,92.43603499999972,44.23095699999976,113.3334960000002
283,18.461425999999847,-36.79492200000004,86.79492200000004,77.17968800000017,152.17968800000017,103.20507799999996,38.846190999999635,87.56396500000028,98.20507799999996,83.46142599999985,46.9228520000006,93.84619099999964,40.64111300000059,107.69238299999961
284,17.94873000000007,-34.48706099999981,88.7177729999994,78.9741210000002,151.79492200000004,103.3334960000002,40.0,90.0,100.38476599999922,84.35888699999941,45.12841800000024,96.79492200000004,36.9228520000006,106.2822270000006
285,21.922852000000603,-27.051270000000386,91.6665039999998,82.05126999999993,152.43603499999972,102.30761700000039,38.589844000000085,90.76904300000024,100.25634799999989,83.46142599999985,40.25634799999989,100.25634799999989,37.94873000000007,108.3334960000002
286,28.846190999999635,-18.71801800000003,93.9741210000002,85.51269500000035,153.3334960000002,101.53857400000015,35.51269500000035,90.0,99.23095699999976,83.0771479999994,37.56396500000028,102.69238299999961,43.846190999999635,107.56396500000028
287,34.23095699999976,-15.512939000000188,94.87158199999976,87.94873000000007,153.20507799999996,101.9228520000006,32.56396500000028,88.84619099999964,98.84619099999964,84.87158199999976,40.897460999999566,102.69238299999961,48.974121000000196,105.76904300000024
288,33.846190999999635,-20.25634799999989,93.9741210000002,87.56396500000028,150.38476599999922,102.56396500000028,30.25634799999989,87.82031300000017,99.10253900000043,87.82031300000017,47.94873000000007,99.87158199999976,47.94873000000007,109.87158199999976
289,28.205077999999958,-29.61547900000005,91.9228520000006,84.48730499999965,145.2563479999999,102.30761700000039,28.333496000000196,86.9228520000006,99.10253900000043,89.74365200000011,53.333496000000196,95.64111300000059,40.897460999999566,116.9228520000006
290,22.05126999999993,-36.66674799999964,90.25634799999989,80.64111300000059,140.6411130000006,101.9228520000006,27.05126999999993,86.41015599999992,98.0771479999994,89.87158199999976,53.333496000000196,93.0771479999994,33.333496000000196,117.30761700000039
291,18.846190999999635,-37.69238299999961,90.12841800000024,77.30761700000039,138.46142599999985,101.79492200000004,26.538574000000153,86.2822270000006,96.53857400000015,88.0771479999994,48.46142599999985,93.20507799999996,29.48730499999965,110.64111300000059
292,17.69238299999961,-35.51293900000019,90.12841800000024,74.10253900000043,138.0771479999994,101.15380900000036,26.538574000000153,85.64111300000059,94.74365200000011,84.61523400000078,41.666503999999804,94.48730499999965,28.974121000000196,107.17968800000017
293,16.538574000000153,-34.23071300000038,88.7177729999994,71.15380900000036,138.0771479999994,100.0,26.538574000000153,84.35888699999941,93.20507799999996,81.2822270000006,36.53857400000015,94.61523400000078,29.230956999999762,110.64111300000059
294,15.0,-34.61547900000005,85.38476599999922,69.35888699999941,138.0771479999994,100.0,26.922852000000603,83.20507799999996,92.69238299999961,79.87158199999976,35.25634799999989,93.3334960000002,29.48730499999965,112.69238299999961
295,13.461425999999847,-34.74365200000011,81.79492200000004,69.35888699999941,137.6923829999996,101.9228520000006,28.461425999999847,83.20507799999996,92.82031300000017,80.64111300000059,35.64111300000059,91.2822270000006,29.230956999999762,109.35888699999941
296,10.897460999999566,-34.23071300000038,79.10253900000043,69.35888699999941,136.2822270000006,104.61523400000078,29.871581999999762,83.3334960000002,92.30761700000039,81.41015599999992,33.846190999999635,88.84619099999964,26.410155999999915,107.69238299999961
297,7.179688000000169,-33.974365000000034,78.0771479999994,68.0771479999994,133.7177729999994,105.76904300000024,29.615234000000783,82.82031300000017,90.51269500000035,80.64111300000059,28.077147999999397,85.89746099999957,20.51269500000035,111.9228520000006
298,5.256347999999889,-33.33325200000036,78.9741210000002,66.41015599999992,131.6665039999998,105.38476599999922,27.30761700000039,82.94873000000007,89.48730499999965,79.10253900000043,22.43603499999972,83.46142599999985,14.871581999999762,115.0
299,8.333496000000196,-30.769286999999622,81.79492200000004,66.9228520000006,131.6665039999998,104.35888699999941,23.974121000000196,85.25634799999989,91.6665039999998,79.74365200000011,22.82031300000017,83.46142599999985,13.461425999999847,110.76904300000024
300,16.153809000000365,-26.923095999999987,85.12841800000024,70.38476599999922,132.56396500000028,102.69238299999961,20.51269500000035,89.10253900000043,97.05126999999993,83.58984400000008,30.128418000000238,86.41015599999992,17.05126999999993,105.51269500000035
301,24.102539000000434,-24.10253899999998,87.30761700000039,75.25634799999989,132.3076170000004,99.87158199999976,16.794922000000042,91.6665039999998,102.82031300000017,88.9741210000002,39.35888699999941,90.38476599999922,22.82031300000017,107.17968800000017
302,28.717772999999397,-22.948729999999614,87.17968800000017,79.23095699999976,131.15380900000036,97.30761700000039,13.333496000000196,91.2822270000006,105.25634799999989,93.0771479999994,44.48730499999965,93.20507799999996,28.077147999999397,111.0258789999998
303,28.974121000000196,-22.30761700000039,85.25634799999989,81.2822270000006,131.0258789999998,97.69238299999961,11.538574000000153,88.58984400000008,102.69238299999961,93.84619099999964,43.333496000000196,94.10253900000043,31.538574000000153,109.10253900000043
304,26.410155999999915,-21.153809000000365,83.58984400000008,81.41015599999992,132.43603499999972,101.0258789999998,12.17968800000017,85.89746099999957,97.17968800000017,91.9228520000006,38.7177729999994,93.58984400000008,33.20507799999996,104.10253900000043
305,24.230956999999762,-19.74365200000011,83.58984400000008,80.64111300000059,133.9741210000002,104.87158199999976,14.743652000000111,85.38476599999922,92.43603499999972,89.87158199999976,35.0,92.69238299999961,33.46142599999985,104.74365200000011
306,25.769043000000238,-17.435790999999426,85.25634799999989,80.12841800000024,135.12841800000024,107.17968800000017,17.82031300000017,88.3334960000002,92.43603499999972,91.0258789999998,35.64111300000059,92.69238299999961,33.846190999999635,109.48730499999965
307,31.922852000000603,-13.076904000000013,87.94873000000007,80.89746099999957,136.6665039999998,107.94873000000007,19.871581999999762,93.7177729999994,98.0771479999994,97.30761700000039,40.64111300000059,94.35888699999941,36.025878999999804,109.74365200000011
308,39.61523400000078,-7.692382999999609,90.12841800000024,82.05126999999993,138.3334960000002,107.82031300000017,19.230956999999762,98.7177729999994,105.38476599999922,105.51269500000035,45.76904300000024,96.79492200000004,38.974121000000196,106.0258789999998
309,43.46142599999985,-4.102538999999979,90.51269500000035,81.9228520000006,138.3334960000002,106.53857400000015,15.128418000000238,99.74365200000011,109.35888699999941,110.51269500000035,46.2822270000006,98.0771479999994,39.48730499999965,106.53857400000015
310,41.410155999999915,-4.487060999999812,88.84619099999964,80.0,135.76904300000024,104.74365200000011,9.230956999999762,96.0258789999998,107.43603499999972,108.58984400000008,42.05126999999993,97.05126999999993,36.666503999999804,111.53857400000015
311,36.666503999999804,-6.794922000000042,86.41015599999992,77.69238299999961,133.0771479999994,103.7177729999994,4.871581999999762,90.25634799999989,102.05126999999993,101.6665039999998,37.94873000000007,94.74365200000011,33.589844000000085,111.6665039999998
312,33.589844000000085,-8.846190999999635,84.48730499999965,76.41015599999992,131.53857400000015,103.46142599999985,3.846190999999635,85.76904300000024,97.05126999999993,94.74365200000011,37.94873000000007,92.82031300000017,33.46142599999985,104.87158199999976
313,32.94873000000007,-10.512939000000188,83.0771479999994,75.64111300000059,130.38476599999922,102.05126999999993,4.230956999999762,83.46142599999985,95.38476599999922,92.05126999999993,41.2822270000006,91.53857400000015,36.153809000000365,101.0258789999998
314,32.94873000000007,-12.435790999999426,81.15380900000036,73.58984400000008,128.20507799999996,98.7177729999994,3.2050779999999577,83.3334960000002,97.05126999999993,94.87158199999976,44.35888699999941,90.25634799999989,39.35888699999941,105.51269500000035
315,32.43603499999972,-13.58984399999963,79.10253900000043,70.64111300000059,126.6665039999998,96.15380900000036,0.6411130000005869,85.0,101.2822270000006,101.0258789999998,45.51269500000035,89.35888699999941,41.2822270000006,110.64111300000059
316,31.794922000000042,-12.435790999999426,78.0771479999994,68.7177729999994,127.69238299999961,96.9228520000006,-1.4101559999999154,87.69238299999961,105.38476599999922,106.2822270000006,44.74365200000011,89.74365200000011,40.76904300000024,109.35888699999941
317,30.769043000000238,-8.974365000000034,79.10253900000043,69.48730499999965,131.15380900000036,100.64111300000059,-0.8974609999995664,89.10253900000043,105.0,105.38476599999922,43.0771479999994,91.41015599999992,36.53857400000015,107.05126999999993
318,29.230956999999762,-5.512939000000188,81.2822270000006,71.9228520000006,134.48730499999965,104.87158199999976,2.0512699999999313,87.30761700000039,97.69238299999961,96.2822270000006,41.153809000000365,92.82031300000017,28.589844000000085,110.12841800000024
319,27.82031300000017,-3.077147999999397,82.94873000000007,73.9741210000002,136.6665039999998,108.0771479999994,6.153809000000365,82.94873000000007,85.38476599999922,81.9228520000006,40.25634799999989,92.94873000000007,19.358886999999413,113.46142599999985
320,27.30761700000039,-1.4101559999999154,83.0771479999994,72.82031300000017,138.0771479999994,109.48730499999965,9.102539000000434,78.46142599999985,73.7177729999994,68.7177729999994,40.64111300000059,91.15380900000036,13.205077999999958,110.12841800000024
321,26.666503999999804,-1.2822270000006029,81.79492200000004,66.2822270000006,138.20507799999996,108.58984400000008,8.974121000000196,76.15380900000036,67.82031300000017,61.153809000000365,40.64111300000059,87.69238299999961,11.153809000000365,104.74365200000011
322,24.230956999999762,-2.4360349999997197,79.10253900000043,55.76904300000024,135.89746099999957,105.0,5.0,75.76904300000024,68.9741210000002,59.87158199999976,38.0771479999994,82.94873000000007,11.153809000000365,105.64111300000059
323,20.769043000000238,-2.8203119999998307,75.89746099999957,45.76904300000024,132.43603499999972,100.76904300000024,-0.256347999999889,76.53857400000015,74.61523400000078,62.43603499999972,34.102539000000434,79.48730499999965,11.153809000000365,110.0
324,19.48730499999965,0.769043000000238,74.48730499999965,41.410155999999915,131.0258789999998,99.10253900000043,-3.4614259999998467,78.20507799999996,81.15380900000036,66.41015599999992,32.94873000000007,79.48730499999965,11.410155999999915,109.10253900000043
325,22.05126999999993,8.205077999999958,76.41015599999992,43.0771479999994,133.58984400000008,100.64111300000059,-3.3334960000001956,80.0,86.41015599999992,70.76904300000024,37.82031300000017,83.46142599999985,13.077147999999397,104.23095699999976
326,26.666503999999804,16.153809000000365,80.89746099999957,46.9228520000006,138.3334960000002,102.05126999999993,-2.3076170000003913,81.79492200000004,90.0,76.0258789999998,47.94873000000007,88.7177729999994,16.153809000000365,104.61523400000078
327,32.05126999999993,22.43603499999972,85.76904300000024,48.20507799999996,142.43603499999972,101.0258789999998,-3.2050779999999577,84.23095699999976,94.23095699999976,84.10253900000043,60.51269500000035,92.82031300000017,21.538574000000153,110.38476599999922
328,38.46142599999985,27.69238299999961,89.87158199999976,45.64111300000059,144.61523400000078,98.20507799999996,-5.256347999999889,89.23095699999976,101.53857400000015,96.6665039999998,73.46142599999985,96.15380900000036,29.871581999999762,112.05126999999993
329,45.25634799999989,32.43603499999972,92.17968800000017,40.76904300000024,145.0,96.41015599999992,-5.512939000000188,95.89746099999957,110.38476599999922,110.51269500000035,84.61523400000078,99.23095699999976,39.61523400000078,106.9228520000006
330,48.974121000000196,35.51269500000035,92.05126999999993,35.51269500000035,144.10253900000043,96.9228520000006,-2.0512699999999313,100.38476599999922,114.61523400000078,118.0771479999994,91.0258789999998,101.2822270000006,45.51269500000035,104.23095699999976
331,46.9228520000006,36.025878999999804,89.35888699999941,31.410155999999915,143.20507799999996,99.74365200000011,3.5898440000000846,99.35888699999941,108.3334960000002,112.43603499999972,90.76904300000024,101.2822270000006,42.56396500000028,108.0771479999994
332,41.153809000000365,36.2822270000006,85.76904300000024,29.48730499999965,145.0,103.9741210000002,8.461425999999847,93.3334960000002,92.56396500000028,94.35888699999941,86.2822270000006,98.9741210000002,31.794922000000042,110.51269500000035
333,35.64111300000059,38.846190999999635,83.3334960000002,28.205077999999958,149.7436520000001,107.94873000000007,10.0,86.6665039999998,74.87158199999976,72.30761700000039,82.05126999999993,95.89746099999957,18.461425999999847,106.2822270000006
334,32.94873000000007,43.589844000000085,83.0771479999994,25.25634799999989,155.12841800000024,108.7177729999994,7.692382999999609,82.56396500000028,63.846190999999635,56.9228520000006,81.79492200000004,93.0771479999994,8.846190999999635,102.43603499999972
335,33.333496000000196,48.974121000000196,84.10253900000043,20.128418000000238,158.0771479999994,105.64111300000059,3.3334960000001956,82.05126999999993,63.46142599999985,54.102539000000434,85.64111300000059,91.79492200000004,5.897460999999566,106.15380900000036
336,36.666503999999804,54.35888699999941,85.38476599999922,15.256347999999889,158.9741210000002,101.9228520000006,0.6411130000005869,84.61523400000078,70.89746099999957,62.82031300000017,92.30761700000039,92.82031300000017,9.358886999999413,111.41015599999992
337,41.410155999999915,59.87158199999976,86.41015599999992,13.077147999999397,160.12841800000024,101.6665039999998,1.9228520000006029,88.9741210000002,79.23095699999976,75.25634799999989,98.9741210000002,96.0258789999998,14.487304999999651,109.87158199999976
338,45.0,64.61523400000078,86.79492200000004,13.205077999999958,161.6665039999998,104.87158199999976,5.769043000000238,92.56396500000028,82.17968800000017,82.56396500000028,102.69238299999961,98.7177729999994,15.512695000000349,105.38476599999922
339,45.64111300000059,67.56396500000028,86.0258789999998,13.461425999999847,161.53857400000015,106.53857400000015,7.948730000000069,93.84619099999964,80.38476599999922,83.3334960000002,103.3334960000002,99.10253900000043,11.025878999999804,105.89746099999957
340,45.897460999999566,69.87158199999976,84.61523400000078,13.205077999999958,159.3588869999994,103.46142599999985,5.897460999999566,94.10253900000043,81.9228520000006,86.15380900000036,105.89746099999957,98.84619099999964,7.307617000000391,108.9741210000002
341,50.12841800000024,73.9741210000002,84.61523400000078,13.846190999999635,156.79492200000004,96.53857400000015,0.512695000000349,97.17968800000017,95.51269500000035,102.43603499999972,115.64111300000059,101.79492200000004,12.82031300000017,106.6665039999998
342,58.333496000000196,79.87158199999976,87.43603499999972,16.282227000000603,155.51269500000035,89.61523400000078,-5.897461000000021,103.3334960000002,119.87158199999976,131.6665039999998,130.89746099999957,109.23095699999976,27.56396500000028,101.15380900000036
343,65.25634799999989,84.35888699999941,91.15380900000036,19.102539000000434,154.87158199999976,85.51269500000035,-11.025634999999966,107.82031300000017,140.6411130000006,157.17968800000017,141.15380900000036,116.41015599999992,39.74365200000011,101.6665039999998
344,65.12841800000024,84.61523400000078,92.30761700000039,20.769043000000238,154.48730499999965,85.89746099999957,-13.076904000000013,104.35888699999941,140.2563479999999,156.79492200000004,136.0258789999998,116.2822270000006,34.87158199999976,107.94873000000007
345,56.9228520000006,80.89746099999957,87.94873000000007,20.0,154.23095699999976,90.64111300000059,-10.769286999999622,91.15380900000036,111.6665039999998,120.51269500000035,114.48730499999965,105.76904300000024,9.102539000000434,110.25634799999989
346,44.35888699999941,75.64111300000059,79.23095699999976,16.794922000000042,153.46142599999985,97.17968800000017,-4.743652000000111,73.46142599999985,65.76904300000024,61.666503999999804,87.17968800000017,88.84619099999964,-27.179442999999992,105.89746099999957
347,34.35888699999941,72.56396500000028,71.0258789999998,12.43603499999972,151.15380900000036,102.17968800000017,1.9228520000006029,60.12841800000024,25.897460999999566,10.641113000000587,69.35888699999941,74.61523400000078,-56.025634999999966,103.58984400000008
348,33.46142599999985,76.41015599999992,68.46142599999985,9.743652000000111,148.20507799999996,103.9741210000002,6.282227000000603,58.0771479999994,12.692382999999609,-5.897461000000021,71.6665039999998,71.79492200000004,-62.948729999999614,106.6665039999998
349,44.23095699999976,89.10253900000043,73.84619099999964,11.410155999999915,147.17968800000017,103.9741210000002,7.179688000000169,67.82031300000017,29.615234000000783,16.922852000000603,93.0771479999994,82.17968800000017,-47.30761700000039,107.94873000000007
350,62.05126999999993,107.43603499999972,83.58984400000008,17.17968800000017,148.9741210000002,103.20507799999996,4.6152340000007825,82.05126999999993,60.76904300000024,58.46142599999985,121.2822270000006,98.7177729999994,-22.30761700000039,103.20507799999996
351,77.17968800000017,123.7177729999994,91.2822270000006,23.205077999999958,151.41015599999992,101.0258789999998,-0.769043000000238,91.0258789999998,83.7177729999994,89.23095699999976,141.79492200000004,110.38476599999922,-6.41015600000037,100.0
352,82.30761700000039,132.05126999999993,92.30761700000039,25.384765999999217,151.6665039999998,98.0771479999994,-6.41015600000037,89.61523400000078,86.15380900000036,93.20507799999996,147.94873000000007,110.25634799999989,-10.256347999999889,103.46142599999985
353,78.3334960000002,133.3334960000002,87.05126999999993,22.82031300000017,149.87158199999976,96.9228520000006,-7.948729999999614,82.05126999999993,73.0771479999994,75.64111300000059,145.2563479999999,100.89746099999957,-28.974365000000034,106.6665039999998
354,72.05126999999993,132.6923829999996,80.51269500000035,17.69238299999961,148.46142599999985,98.84619099999964,-3.4614259999998467,75.76904300000024,57.94873000000007,54.23095699999976,143.7177729999994,91.6665039999998,-48.33325200000036,102.43603499999972
355,71.41015599999992,135.38476599999922,78.20507799999996,13.205077999999958,147.94873000000007,101.15380900000036,3.4614259999998467,75.76904300000024,51.9228520000006,45.38476599999922,149.61523400000078,90.89746099999957,-55.38452099999995,96.2822270000006
356,80.38476599999922,144.7436520000001,82.17968800000017,12.307617000000391,147.82031300000017,99.10253900000043,6.025878999999804,81.41015599999992,58.974121000000196,56.53857400000015,163.58984400000008,100.51269500000035,-45.64111300000013,96.53857400000015
357,98.3334960000002,162.17968800000017,90.64111300000059,16.410155999999915,148.0771479999994,92.30761700000039,0.8974609999995664,89.48730499999965,77.05126999999993,84.35888699999941,181.6665039999998,116.6665039999998,-23.974365000000034,100.38476599999922
358,118.46142599999985,185.6411130000006,98.9741210000002,23.974121000000196,149.7436520000001,84.48730499999965,-9.102538999999979,96.0258789999998,98.3334960000002,116.79492200000004,196.9228520000006,131.15380900000036,-3.077147999999397,100.12841800000024
359,131.2822270000006,208.20507799999996,102.94873000000007,30.769043000000238,152.6923829999996,80.12841800000024,-18.076904000000013,96.41015599999992,111.41015599999992,136.2822270000006,201.15380900000036,136.6665039999998,3.3334960000001956,97.69238299999961
360,131.53857400000015,222.56396500000028,100.89746099999957,32.56396500000028,155.51269500000035,81.15380900000036,-21.153809000000365,87.82031300000017,105.89746099999957,128.0771479999994,190.0,130.38476599999922,-11.538574000000153,100.38476599999922
361,122.82031300000017,226.79492200000004,94.74365200000011,28.846190999999635,157.3076170000004,87.17968800000017,-16.923095999999987,72.69238299999961,79.23095699999976,90.0,166.79492200000004,116.6665039999998,-40.64111300000013,106.41015599999992
362,115.64111300000059,225.38476599999922,88.46142599999985,22.56396500000028,158.58984400000008,95.76904300000024,-7.820557000000008,57.17968800000017,39.74365200000011,35.25634799999989,142.17968800000017,104.23095699999976,-66.92309599999999,107.05126999999993
363,118.46142599999985,224.61523400000078,84.61523400000078,16.666503999999804,158.7177729999994,101.6665039999998,1.4101559999999154,46.53857400000015,1.5385740000001533,-13.974365000000034,127.43603499999972,100.0,-75.0,102.17968800000017
364,132.3076170000004,228.46142599999985,84.23095699999976,12.43603499999972,156.53857400000015,100.76904300000024,6.282227000000603,42.43603499999972,-21.666747999999643,-38.20507799999996,130.0,105.12841800000024,-60.0,100.51269500000035
365,153.3334960000002,237.82031300000017,87.82031300000017,10.384765999999217,153.20507799999996,95.12841800000024,5.897460999999566,45.0,-22.179442999999992,-30.1281740000004,150.6411130000006,116.41015599999992,-27.435790999999426,104.10253900000043
366,175.6411130000006,250.2563479999999,94.74365200000011,10.641113000000587,151.9228520000006,91.0258789999998,3.4614259999998467,53.0771479999994,-2.4360349999997197,2.8203130000001693,183.84619099999964,129.61523400000078,10.769043000000238,105.89746099999957
367,193.3334960000002,260.0,102.82031300000017,11.282227000000603,153.84619099999964,92.82031300000017,3.4614259999998467,64.10253900000043,24.871581999999762,41.025878999999804,218.3334960000002,140.89746099999957,41.153809000000365,103.46142599999985
368,202.94873000000007,261.0258789999998,109.10253900000043,9.487304999999651,155.89746099999957,99.23095699999976,7.820313000000169,72.56396500000028,43.0771479999994,64.10253900000043,242.05126999999993,147.3076170000004,56.53857400000015,103.58984400000008
369,207.17968800000017,254.23095699999976,111.79492200000004,5.128418000000238,154.7436520000001,104.74365200000011,14.230956999999762,75.51269500000035,44.61523400000078,65.76904300000024,251.15380900000036,149.48730499999965,62.30761700000039,108.20507799999996
370,214.23095699999976,247.6923829999996,112.17968800000017,0.8974609999995664,151.15380900000036,105.51269500000035,18.589844000000085,76.41015599999992,38.846190999999635,60.25634799999989,253.3334960000002,152.6923829999996,73.3334960000002,109.87158199999976
371,228.9741210000002,248.3334960000002,113.0771479999994,-0.6411130000005869,147.56396500000028,100.89746099999957,18.077147999999397,80.89746099999957,42.82031300000017,67.82031300000017,259.7436520000001,161.79492200000004,100.25634799999989,104.74365200000011
372,247.43603499999972,253.58984400000008,115.25634799999989,-0.38476599999921746,144.87158199999976,92.43603499999972,13.205077999999958,90.0,61.9228520000006,92.56396500000028,273.0771479999994,175.6411130000006,136.41015599999992,100.51269500000035
373,260.51269500000035,255.6411130000006,117.30761700000039,-0.769043000000238,142.94873000000007,84.87158199999976,8.077147999999397,97.30761700000039,82.30761700000039,115.89746099999957,285.12841800000024,186.9228520000006,164.23095699999976,103.58984400000008
374,264.7436520000001,250.6411130000006,117.94873000000007,-1.7949220000000423,142.94873000000007,83.58984400000008,7.820313000000169,97.30761700000039,86.6665039999998,116.9228520000006,287.17968800000017,190.2563479999999,172.94873000000007,109.10253900000043
375,265.12841800000024,243.20507799999996,118.20507799999996,-0.8974609999995664,145.76904300000024,90.25634799999989,14.102539000000434,92.30761700000039,74.87158199999976,98.3334960000002,279.7436520000001,188.20507799999996,170.0,110.64111300000059
376,269.10253900000043,239.61523400000078,120.25634799999989,2.9487300000000687,149.23095699999976,99.23095699999976,23.589844000000085,90.51269500000035,66.41015599999992,85.51269500000035,271.15380900000036,187.82031300000017,172.43603499999972,111.15380900000036
377,278.20507799999996,240.38476599999922,124.74365200000011,8.205077999999958,149.61523400000078,103.0771479999994,30.897460999999566,97.43603499999972,79.48730499999965,100.0,267.6923829999996,193.0771479999994,188.84619099999964,115.38476599999922
378,288.7177729999994,241.15380900000036,128.84619099999964,13.077147999999397,146.53857400000015,100.51269500000035,34.48730499999965,110.12841800000024,111.53857400000015,136.9228520000006,267.4360349999997,201.53857400000015,213.20507799999996,118.9741210000002
379,295.12841800000024,237.94873000000007,128.58984400000008,16.922852000000603,143.20507799999996,97.17968800000017,36.79492200000004,120.12841800000024,139.23095699999976,168.46142599999985,263.0771479999994,207.56396500000028,230.51269500000035,117.43603499999972
380,293.9741210000002,229.48730499999965,122.94873000000007,19.230956999999762,142.05126999999993,98.46142599999985,40.38476599999922,119.48730499999965,138.46142599999985,168.46142599999985,247.43603499999972,206.9228520000006,228.84619099999964,115.12841800000024
381,285.12841800000024,217.05126999999993,114.23095699999976,19.48730499999965,141.9228520000006,103.7177729999994,45.25634799999989,107.05126999999993,105.89746099999957,133.84619099999964,219.7436520000001,198.58984400000008,207.82031300000017,118.0771479999994
382,272.94873000000007,203.7177729999994,106.2822270000006,17.94873000000007,140.2563479999999,108.7177729999994,49.74365200000011,90.51269500000035,62.69238299999961,87.30761700000039,187.6923829999996,186.6665039999998,180.2563479999999,122.05126999999993
383,264.7436520000001,193.46142599999985,102.30761700000039,17.05126999999993,135.51269500000035,110.89746099999957,53.20507799999996,81.53857400000015,39.87158199999976,59.74365200000011,163.20507799999996,178.3334960000002,163.58984400000008,120.38476599999922
