,EEG.AF3,EEG.F7,EEG.F3,EEG.FC5,EEG.T7,EEG.P7,EEG.O1,EEG.O2,EEG.P8,EEG.T8,EEG.FC6,EEG.F4,EEG.F8,EEG.AF4
0,65.25634799999989,30.897460999999566,92.30761700000039,140.89746099999957,75.38476599999922,88.20507799999996,-5.0,79.61523400000078,112.82031300000017,100.51269500000035,50.76904300000024,96.2822270000006,57.30761700000039,109.48730499999965
1,73.46142599999985,30.641113000000587,96.53857400000015,140.89746099999957,57.30761700000039,76.53857400000015,-1.4101559999999154,93.58984400000008,123.84619099999964,115.12841800000024,51.9228520000006,105.64111300000059,72.17968800000017,111.0258789999998
2,74.61523400000078,26.666503999999804,95.76904300000024,146.41015599999992,45.51269500000035,73.46142599999985,2.5639650000002803,105.0,131.41015599999992,121.53857400000015,39.87158199999976,106.79492200000004,74.87158199999976,107.05126999999993
3,67.05126999999993,16.794922000000042,89.35888699999941,159.48730499999965,41.025878999999804,78.3334960000002,2.6923829999996087,105.76904300000024,132.82031300000017,118.46142599999985,15.384765999999217,97.56396500000028,66.15380900000036,105.38476599999922
4,52.82031300000017,1.4101559999999154,78.58984400000008,178.9741210000002,39.48730499999965,86.0258789999998,-4.358886999999868,93.20507799999996,128.46142599999985,109.48730499999965,-15.256347999999889,80.64111300000059,51.79492200000004,108.58984400000008
5,37.94873000000007,-14.230713000000378,67.05126999999993,203.46142599999985,34.87158199999976,91.6665039999998,-17.179442999999992,73.3334960000002,122.05126999999993,101.2822270000006,-42.051270000000386,63.846190999999635,39.74365200000011,109.87158199999976
6,28.461425999999847,-24.74365200000011,58.974121000000196,233.20507799999996,23.461425999999847,92.94873000000007,-30.1281740000004,55.12841800000024,117.17968800000017,98.58984400000008,-58.71801800000003,54.23095699999976,34.23095699999976,106.79492200000004
7,26.025878999999804,-29.8718259999996,55.38476599999922,267.5639650000003,6.282227000000603,90.89746099999957,-37.948729999999614,43.846190999999635,114.48730499999965,102.43603499999972,-67.94872999999961,53.20507799999996,33.7177729999994,106.6665039999998
8,28.717772999999397,-34.48706099999981,54.87158199999976,304.23095699999976,-10.897461000000021,87.69238299999961,-38.46142599999985,39.74365200000011,113.58984400000008,112.17968800000017,-77.30761700000039,56.9228520000006,35.38476599999922,112.94873000000007
9,35.51269500000035,-43.33325200000036,56.79492200000004,341.2822270000006,-21.794922000000042,83.9741210000002,-32.948729999999614,42.69238299999961,115.64111300000059,130.12841800000024,-90.76928699999962,62.17968800000017,40.12841800000024,117.56396500000028
10,47.82031300000017,-55.76928699999962,63.20507799999996,379.3588869999994,-24.61547900000005,78.20507799999996,-24.10253899999998,53.46142599999985,124.10253900000043,161.15380900000036,-103.84619099999964,70.0,52.43603499999972,114.87158199999976
11,67.17968800000017,-67.82055700000001,76.2822270000006,423.46142599999985,-25.1281740000004,66.9228520000006,-13.846190999999635,72.69238299999961,141.79492200000004,207.94873000000007,-110.25634799999989,82.94873000000007,75.25634799999989,111.15380900000036
12,91.15380900000036,-75.38452099999995,92.69238299999961,478.5898440000001,-31.923095999999987,50.897460999999566,-3.4614259999998467,97.43603499999972,167.3076170000004,264.6152340000008,-109.48706099999981,99.74365200000011,104.23095699999976,113.20507799999996
13,113.3334960000002,-77.30761700000039,104.35888699999941,545.0,-48.20507799999996,36.666503999999804,5.897460999999566,119.10253900000043,192.17968800000017,315.3847659999992,-110.1281740000004,113.3334960000002,128.84619099999964,116.53857400000015
14,127.05126999999993,-76.41015600000037,103.7177729999994,616.0258789999998,-67.69238299999961,32.82031300000017,10.512695000000349,125.76904300000024,203.7177729999994,342.5639650000003,-123.33325200000036,114.74365200000011,137.3076170000004,114.35888699999941
15,130.51269500000035,-77.30761700000039,89.87158199999976,681.794922,-81.66674799999964,41.9228520000006,6.025878999999804,109.48730499999965,192.82031300000017,338.46142599999985,-154.4870609999998,100.12841800000024,125.38476599999922,110.38476599999922
16,129.61523400000078,-81.28198199999997,70.25634799999989,735.3847659999992,-87.56420900000057,56.79492200000004,-7.820557000000008,74.87158199999976,163.9741210000002,314.87158199999976,-197.43579099999943,76.0258789999998,101.41015599999992,111.15380900000036
17,136.6665039999998,-83.07690400000001,56.79492200000004,776.1538090000004,-91.53857400000015,65.89746099999957,-25.1281740000004,40.12841800000024,134.48730499999965,297.3076170000004,-236.28198199999997,57.43603499999972,83.7177729999994,113.46142599999985
18,160.0,-74.35888699999987,58.46142599999985,807.0512699999999,-103.07690400000001,61.79492200000004,-36.41015600000037,25.641113000000587,123.0771479999994,306.6665039999998,-255.76928699999962,57.69238299999961,88.58984400000008,110.38476599999922
19,196.15380900000036,-51.41015600000037,74.35888699999941,827.9487300000001,-124.23071300000038,47.43603499999972,-36.53857400000015,37.69238299999961,134.3588869999994,341.15380900000036,-252.6923829999996,77.05126999999993,115.89746099999957,104.74365200000011
20,231.41015599999992,-18.333252000000357,93.3334960000002,833.9741210000002,-146.28198199999997,33.7177729999994,-28.333252000000357,61.9228520000006,155.0,377.05126999999993,-238.97436500000003,101.9228520000006,147.56396500000028,103.84619099999964
21,253.84619099999964,17.30761700000039,103.20507799999996,820.0,-155.2563479999999,31.666503999999804,-20.25634799999989,76.79492200000004,166.41015599999992,388.84619099999964,-231.79492200000004,116.15380900000036,163.3334960000002,105.89746099999957
22,262.82031300000017,52.05126999999993,101.79492200000004,784.8715819999998,-144.35888699999987,43.333496000000196,-17.948729999999614,73.46142599999985,161.2822270000006,371.15380900000036,-237.6923829999996,115.51269500000035,157.82031300000017,104.23095699999976
23,268.3334960000002,86.0258789999998,97.69238299999961,731.9228520000006,-120.89746100000002,60.38476599999922,-19.230713000000378,62.43603499999972,148.58984400000008,340.76904300000024,-249.8718259999996,109.74365200000011,142.43603499999972,101.79492200000004
24,278.84619099999964,117.94873000000007,100.38476599999922,666.0258789999998,-100.1281740000004,71.6665039999998,-18.333252000000357,60.0,142.56396500000028,319.48730499999965,-256.53857400000015,111.15380900000036,131.79492200000004,105.25634799999989
25,287.01904300000024,140.56103499999972,109.05468800000017,599.8237300000001,-87.01928699999962,75.91357400000015,-13.413574000000153,67.85253900000043,146.2338869999994,310.80126999999993,-241.71484399999963,121.60253900000043,132.3076170000004,104.02246099999957
26,295.1923829999996,163.1728520000006,117.7241210000002,533.6215819999998,-73.91015600000037,80.16015599999992,-8.493652000000111,75.70507799999996,149.90380900000036,302.1152340000008,-226.89111300000013,132.05126999999993,132.82031300000017,102.78857400000015
27,303.3652340000008,185.78515599999992,126.39404300000024,467.41992200000004,-60.801270000000386,84.4072270000006,-3.5737300000000687,83.55761700000039,153.57373000000007,293.42968800000017,-212.0673829999996,142.5,133.3334960000002,101.55468800000017
28,311.53857400000015,208.39746099999957,135.06396500000028,401.2177729999994,-47.69238299999961,88.65380900000036,1.346190999999635,91.41015599999992,157.2436520000001,284.7436520000001,-197.2436520000001,152.94873000000007,133.84619099999964,100.32031300000017
29,319.71142599999985,231.00976599999922,143.7338869999994,335.0161130000006,-34.58325200000036,92.9008789999998,6.266113000000587,99.26269500000035,160.91357400000015,276.0576170000004,-182.41992200000004,163.39746099999957,134.3588869999994,99.08642599999985
30,327.8847659999992,253.62158199999976,152.40380900000036,268.8139650000003,-21.474365000000034,97.14746099999957,11.18603499999972,107.11523400000078,164.5834960000002,267.37158199999976,-167.59619099999964,173.84619099999964,134.87158199999976,97.85253900000043
31,336.0576170000004,276.2338869999994,161.07373000000007,202.61230499999965,-8.36547900000005,101.39404300000024,16.105956999999762,114.9677729999994,168.25341800000024,258.6860349999997,-152.77246100000002,184.29492200000004,135.38476599999922,96.61865200000011
32,344.23095699999976,298.84619099999964,169.7436520000001,136.41015599999992,4.743652000000111,105.64111300000059,21.025878999999804,122.82031300000017,171.9228520000006,250.0,-137.9487299999996,194.7436520000001,135.89746099999957,95.38476599999922
33,341.9228520000006,318.7177729999994,177.6923829999996,87.43603499999972,41.666503999999804,115.38476599999922,29.358886999999413,130.6411130000006,169.7436520000001,235.0,-113.20507799999996,204.48730499999965,130.51269500000035,102.05126999999993
34,328.7177729999994,337.6923829999996,176.15380900000036,46.025878999999804,89.35888699999941,128.9741210000002,28.077147999999397,118.46142599999985,152.6923829999996,201.15380900000036,-90.25634799999989,200.12841800000024,112.56396500000028,103.58984400000008
35,314.23095699999976,362.05126999999993,170.76904300000024,7.56396500000028,133.46142599999985,142.56396500000028,23.333496000000196,99.48730499999965,132.6923829999996,160.38476599999922,-62.69238299999961,190.12841800000024,93.0771479999994,95.76904300000024
36,309.23095699999976,392.3076170000004,170.2563479999999,-30.0,157.56396500000028,150.12841800000024,25.384765999999217,94.10253900000043,125.51269500000035,131.6665039999998,-24.487060999999812,187.94873000000007,86.41015599999992,90.0
37,314.48730499999965,420.6411130000006,177.43603499999972,-65.64111300000013,155.12841800000024,148.20507799999996,38.333496000000196,110.64111300000059,135.76904300000024,123.58984400000008,23.205077999999958,197.82031300000017,96.0258789999998,92.82031300000017
38,320.76904300000024,438.9741210000002,186.2822270000006,-95.89746100000002,136.6665039999998,140.0,56.666503999999804,138.58984400000008,153.0771479999994,127.94873000000007,72.82031300000017,211.6665039999998,112.30761700000039,92.82031300000017
39,319.48730499999965,447.3076170000004,189.23095699999976,-116.66674799999964,123.58984400000008,134.23095699999976,71.15380900000036,158.58984400000008,161.2822270000006,128.46142599999985,117.82031300000017,218.0771479999994,122.56396500000028,81.2822270000006
40,310.12841800000024,453.7177729999994,185.2563479999999,-127.17944299999999,132.94873000000007,137.94873000000007,76.41015599999992,158.9741210000002,153.0771479999994,115.76904300000024,156.6665039999998,213.0771479999994,122.43603499999972,68.84619099999964
41,298.84619099999964,465.0,177.17968800000017,-131.53857400000015,165.76904300000024,149.3588869999994,74.61523400000078,143.46142599999985,133.84619099999964,93.0771479999994,189.3588869999994,201.0258789999998,116.41015599999992,68.58984400000008
42,291.2822270000006,481.0258789999998,168.84619099999964,-135.76928699999962,207.94873000000007,160.38476599999922,71.0258789999998,125.0,115.12841800000024,71.0258789999998,215.0,188.7177729999994,111.9228520000006,74.10253900000043
43,290.2563479999999,495.76904300000024,162.56396500000028,-141.79492200000004,242.56396500000028,164.3588869999994,70.12841800000024,115.51269500000035,104.23095699999976,57.56396500000028,234.87158199999976,180.76904300000024,112.69238299999961,71.9228520000006
44,294.6152340000008,504.23095699999976,160.89746099999957,-146.02563499999997,260.6411130000006,159.61523400000078,72.69238299999961,118.84619099999964,101.15380900000036,55.12841800000024,255.0,178.7177729999994,118.58984400000008,65.12841800000024
45,301.4101559999999,505.76904300000024,163.84619099999964,-143.84619099999964,263.0771479999994,148.58984400000008,78.0771479999994,131.15380900000036,102.69238299999961,61.025878999999804,284.6152340000008,181.0258789999998,128.3334960000002,67.17968800000017
46,308.3334960000002,504.87158199999976,169.61523400000078,-135.89746100000002,258.20507799999996,135.12841800000024,85.76904300000024,145.76904300000024,105.64111300000059,70.64111300000059,330.12841800000024,185.2563479999999,142.3076170000004,76.6665039999998
47,315.2563479999999,507.94873000000007,175.76904300000024,-127.94872999999961,258.7177729999994,124.61523400000078,96.0258789999998,158.84619099999964,108.46142599999985,78.84619099999964,389.6152340000008,190.0,162.82031300000017,81.0258789999998
48,323.7177729999994,518.5898440000001,181.15380900000036,-125.89746100000002,276.2822270000006,122.30761700000039,108.0771479999994,169.10253900000043,110.25634799999989,81.0258789999998,452.4360349999997,194.3588869999994,191.0258789999998,79.74365200000011
49,332.6923829999996,533.8461909999996,184.10253900000043,-132.43579099999943,315.76904300000024,128.9741210000002,120.38476599999922,174.3588869999994,107.94873000000007,73.58984400000008,503.7177729999994,196.6665039999998,221.9228520000006,85.38476599999922
50,337.82031300000017,546.2822270000006,182.3076170000004,-145.5129390000002,372.94873000000007,139.7436520000001,130.2563479999999,171.6665039999998,98.7177729999994,56.666503999999804,533.8461909999996,193.3334960000002,246.53857400000015,100.38476599999922
51,336.53857400000015,551.1538090000004,174.87158199999976,-160.1281740000004,437.3076170000004,148.84619099999964,136.15380900000036,161.41015599999992,82.69238299999961,33.846190999999635,546.1538090000004,182.94873000000007,260.3847659999992,110.64111300000059
52,331.79492200000004,550.0,165.89746099999957,-171.02563499999997,497.4360349999997,151.9228520000006,140.0,150.2563479999999,65.0,10.512695000000349,555.2563479999999,170.12841800000024,270.6411130000006,109.23095699999976
53,329.3588869999994,547.1796880000002,161.41015599999992,-175.64111300000013,545.2563479999999,147.05126999999993,146.2822270000006,147.56396500000028,52.56396500000028,-8.333252000000357,574.6152340000008,162.05126999999993,291.79492200000004,106.9228520000006
54,332.17968800000017,545.7690430000002,163.46142599999985,-175.64111300000013,579.7436520000001,134.61523400000078,158.3334960000002,156.2822270000006,49.35888699999941,-21.153809000000365,606.1538090000004,161.9228520000006,332.05126999999993,112.82031300000017
55,339.23095699999976,547.1796880000002,168.0771479999994,-174.10253899999998,611.794922,119.35888699999941,174.61523400000078,170.6411130000006,52.56396500000028,-28.846190999999635,641.4101559999999,166.15380900000036,385.3847659999992,120.0
56,347.6923829999996,552.6923829999996,170.2563479999999,-172.9487299999996,658.7177729999994,110.51269500000035,190.12841800000024,180.12841800000024,55.38476599999922,-34.10253899999998,670.5126950000003,167.94873000000007,435.12841800000024,118.9741210000002
57,354.87158199999976,562.0512699999999,167.43603499999972,-174.10253899999998,731.1538090000004,114.74365200000011,201.41015599999992,177.82031300000017,52.43603499999972,-38.846190999999635,690.3847659999992,163.20507799999996,466.15380900000036,114.35888699999941
58,360.0,572.4360349999997,161.15380900000036,-179.23071300000038,822.1796880000002,128.84619099999964,209.3588869999994,165.6411130000006,43.589844000000085,-42.69238299999961,704.4873049999997,153.46142599999985,475.6411130000006,115.51269500000035
59,364.23095699999976,580.7690430000002,154.87158199999976,-187.6923829999996,912.6923829999996,141.0258789999998,218.3334960000002,152.3076170000004,34.61523400000078,-43.07690400000001,718.205078,144.3588869999994,475.0,120.0
60,369.48730499999965,586.4101559999999,152.56396500000028,-195.2563479999999,985.1284180000002,141.15380900000036,231.6665039999998,147.05126999999993,31.153809000000365,-38.46142599999985,733.7177729999994,141.0258789999998,482.3076170000004,118.9741210000002
61,375.3847659999992,589.3588869999994,154.87158199999976,-197.56420900000057,1034.4873049999997,127.94873000000007,248.7177729999994,152.05126999999993,33.846190999999635,-30.641113000000132,749.1025390000004,144.7436520000001,507.4360349999997,113.7177729999994
62,378.3334960000002,588.3334960000002,159.23095699999976,-195.0,1066.2822270000006,108.84619099999964,266.79492200000004,160.38476599999922,38.7177729999994,-22.820557000000008,760.7690430000002,151.2822270000006,546.1538090000004,113.9741210000002
63,376.2822270000006,582.4360349999997,161.41015599999992,-191.15380900000036,1091.410156,93.7177729999994,283.46142599999985,163.7177729999994,41.153809000000365,-16.41015600000037,768.4614259999998,155.38476599999922,585.6411130000006,120.64111300000059
64,371.53857400000015,573.8461909999996,159.87158199999976,-188.97436500000003,1118.205078,88.9741210000002,298.84619099999964,159.7436520000001,40.0,-10.641113000000132,774.2309569999998,154.87158199999976,616.0258789999998,123.58984400000008
65,367.6923829999996,566.1538090000004,156.15380900000036,-187.9487299999996,1148.4614259999998,93.9741210000002,313.84619099999964,152.6923829999996,37.30761700000039,-4.230713000000378,777.8203130000002,151.0258789999998,634.7436520000001,118.7177729999994
66,365.2563479999999,559.6152340000008,151.15380900000036,-185.64111300000013,1175.0,102.05126999999993,328.84619099999964,147.56396500000028,35.51269500000035,1.4101559999999154,775.1284180000002,145.51269500000035,642.6923829999996,114.10253900000043
67,361.2822270000006,552.4360349999997,145.12841800000024,-180.0,1187.6923829999996,105.64111300000059,342.5639650000003,146.41015599999992,35.51269500000035,5.3847659999992175,762.5639650000003,139.23095699999976,641.1538090000004,116.41015599999992
68,353.7177729999994,544.1025390000004,138.9741210000002,-168.58984399999963,1182.6923829999996,102.56396500000028,354.23095699999976,147.94873000000007,37.94873000000007,9.487304999999651,742.4360349999997,133.58984400000008,632.4360349999997,120.76904300000024
69,344.23095699999976,535.5126950000003,135.2563479999999,-150.38452099999995,1165.3847659999992,96.9228520000006,363.9741210000002,150.12841800000024,42.82031300000017,17.69238299999961,720.8974609999996,131.0258789999998,619.6152340000008,120.25634799999989
70,334.87158199999976,526.6665039999998,136.0258789999998,-126.92309599999999,1144.743652,93.7177729999994,373.3334960000002,151.2822270000006,49.23095699999976,31.666503999999804,701.794922,132.82031300000017,605.1284180000002,117.56396500000028
71,326.2822270000006,515.7690430000002,140.2563479999999,-102.05127000000039,1126.5385740000002,95.0,383.3334960000002,151.15380900000036,55.76904300000024,48.0771479999994,684.3588869999994,137.3076170000004,590.2563479999999,119.35888699999941
72,318.3334960000002,502.17968800000017,144.48730499999965,-78.07690400000001,1109.743652,99.10253900000043,394.23095699999976,151.79492200000004,61.2822270000006,61.666503999999804,664.6152340000008,141.2822270000006,576.794922,124.10253900000043
73,310.51269500000035,487.4360349999997,145.6411130000006,-54.48706099999981,1088.589844,103.0771479999994,405.12841800000024,155.12841800000024,65.38476599999922,68.3334960000002,640.1284180000002,142.05126999999993,566.6665039999998,124.74365200000011
74,302.6923829999996,472.05126999999993,143.20507799999996,-29.61547900000005,1056.0258789999998,104.23095699999976,413.9741210000002,160.0,68.58984400000008,66.9228520000006,611.5385740000002,138.9741210000002,558.7177729999994,121.2822270000006
75,294.87158199999976,454.48730499999965,138.46142599999985,-3.5898440000000846,1008.5898440000001,101.53857400000015,418.20507799999996,162.94873000000007,71.79492200000004,57.56396500000028,580.8974609999996,132.6923829999996,547.0512699999999,121.2822270000006
76,287.82031300000017,433.7177729999994,133.3334960000002,21.922852000000603,949.1025390000004,95.12841800000024,416.4101559999999,161.15380900000036,75.12841800000024,40.64111300000059,549.2309569999998,124.87158199999976,525.6411130000006,126.41015599999992
77,281.79492200000004,410.3847659999992,128.46142599999985,45.64111300000059,884.7436520000001,86.2822270000006,410.76904300000024,155.2563479999999,77.56396500000028,17.56396500000028,515.1284180000002,116.2822270000006,493.46142599999985,129.7436520000001
78,274.3588869999994,385.76904300000024,122.94873000000007,66.79492200000004,823.7177729999994,76.79492200000004,404.6152340000008,146.79492200000004,77.17968800000017,-8.846190999999635,475.76904300000024,106.6665039999998,455.51269500000035,126.9228520000006
79,263.20507799999996,359.7436520000001,115.64111300000059,84.87158199999976,771.6665039999998,68.7177729999994,400.3847659999992,136.53857400000015,71.9228520000006,-33.974365000000034,431.6665039999998,95.51269500000035,423.0771479999994,122.82031300000017
80,250.2563479999999,333.7177729999994,107.69238299999961,100.64111300000059,731.1538090000004,64.74365200000011,398.0771479999994,125.25634799999989,62.56396500000028,-51.025634999999966,390.12841800000024,85.0,410.51269500000035,122.82031300000017
81,242.3076170000004,310.76904300000024,102.69238299999961,114.87158199999976,701.2822270000006,66.2822270000006,395.2563479999999,114.23095699999976,52.56396500000028,-53.58984399999963,362.05126999999993,80.12841800000024,428.20507799999996,123.3334960000002
82,244.7436520000001,293.7177729999994,103.3334960000002,126.41015599999992,677.3076170000004,71.0258789999998,390.6411130000006,105.25634799999989,47.43603499999972,-40.25634799999989,351.9228520000006,84.61523400000078,471.6665039999998,119.48730499999965
83,255.51269500000035,281.6665039999998,108.58984400000008,132.43603499999972,653.205078,74.10253900000043,385.0,99.61523400000078,49.87158199999976,-17.051270000000386,352.94873000000007,96.0258789999998,521.1538090000004,114.10253900000043
84,266.4101559999999,270.89746099999957,113.84619099999964,131.41015599999992,626.4101559999999,72.94873000000007,380.51269500000035,98.46142599999985,58.20507799999996,4.6152340000007825,353.20507799999996,106.9228520000006,554.2309569999998,113.3334960000002
85,270.12841800000024,258.46142599999985,114.87158199999976,125.25634799999989,600.2563479999999,70.38476599999922,378.84619099999964,101.41015599999992,66.53857400000015,15.769043000000238,346.2822270000006,111.0258789999998,561.5385740000002,115.76904300000024
86,265.0,243.3334960000002,111.6665039999998,117.43603499999972,579.3588869999994,70.51269500000035,379.87158199999976,106.41015599999992,69.87158199999976,14.102539000000434,335.2563479999999,107.82031300000017,550.8974609999996,115.51269500000035
87,255.6411130000006,227.3076170000004,107.05126999999993,109.10253900000043,565.6411130000006,74.61523400000078,381.9228520000006,110.38476599999922,66.6665039999998,5.769043000000238,327.6923829999996,101.9228520000006,538.9741210000002,112.30761700000039
88,248.9741210000002,214.10253900000043,104.61523400000078,98.46142599999985,557.8203130000002,80.76904300000024,383.20507799999996,111.53857400000015,60.38476599999922,-0.6411130000005869,328.46142599999985,99.74365200000011,539.6152340000008,112.17968800000017
89,250.51269500000035,207.05126999999993,106.53857400000015,84.74365200000011,553.4614259999998,87.05126999999993,383.0771479999994,110.89746099999957,56.153809000000365,0.769043000000238,336.9228520000006,104.23095699999976,556.2822270000006,115.25634799999989
90,259.23095699999976,205.76904300000024,111.41015599999992,69.61523400000078,549.7436520000001,92.17968800000017,381.9228520000006,111.15380900000036,57.30761700000039,8.846190999999635,348.5898440000001,113.58984400000008,581.6665039999998,115.25634799999989
91,267.6923829999996,206.2822270000006,115.89746099999957,54.87158199999976,543.0771479999994,95.12841800000024,380.6411130000006,113.46142599999985,63.0771479999994,18.717772999999397,358.5898440000001,122.43603499999972,603.205078,110.51269500000035
92,269.10253900000043,205.38476599999922,117.43603499999972,41.410155999999915,531.794922,96.0258789999998,379.3588869999994,117.43603499999972,70.89746099999957,26.282227000000603,365.6411130000006,127.05126999999993,613.3334960000002,107.56396500000028
93,263.84619099999964,204.3588869999994,116.53857400000015,28.974121000000196,518.205078,96.79492200000004,378.0771479999994,122.69238299999961,78.20507799999996,32.17968800000017,373.3334960000002,129.10253900000043,614.6152340000008,110.38476599999922
94,258.5898440000001,206.6665039999998,116.0258789999998,17.17968800000017,506.2822270000006,99.23095699999976,377.05126999999993,128.9741210000002,83.9741210000002,39.102539000000434,385.0,133.3334960000002,615.3847659999992,113.46142599999985
95,258.84619099999964,212.94873000000007,117.30761700000039,4.871581999999762,497.82031300000017,102.82031300000017,376.79492200000004,134.61523400000078,88.46142599999985,47.69238299999961,397.94873000000007,141.2822270000006,620.6411130000006,111.53857400000015
96,263.0771479999994,218.9741210000002,119.87158199999976,-7.692382999999609,491.0258789999998,105.12841800000024,377.05126999999993,137.56396500000028,92.05126999999993,56.025878999999804,406.53857400000015,150.0,628.205078,108.3334960000002
97,266.79492200000004,219.3588869999994,122.43603499999972,-17.948729999999614,484.48730499999965,105.0,376.79492200000004,137.05126999999993,94.87158199999976,61.666503999999804,408.0771479999994,155.38476599999922,633.3334960000002,109.10253900000043
98,266.9228520000006,211.9228520000006,124.74365200000011,-22.69238299999961,477.82031300000017,103.84619099999964,374.7436520000001,134.48730499999965,96.6665039999998,65.0,407.17968800000017,156.79492200000004,634.7436520000001,110.89746099999957
99,263.3334960000002,197.82031300000017,126.9228520000006,-21.794922000000042,470.51269500000035,103.46142599999985,370.89746099999957,132.56396500000028,97.05126999999993,68.84619099999964,409.23095699999976,156.15380900000036,633.7177729999994,108.84619099999964
100,257.6923829999996,180.2563479999999,128.7177729999994,-18.71801800000003,461.2822270000006,103.46142599999985,366.15380900000036,133.84619099999964,97.05126999999993,75.51269500000035,414.6152340000008,156.15380900000036,631.9228520000006,106.0258789999998
101,252.6923829999996,163.7177729999994,130.0,-16.538574000000153,450.12841800000024,103.20507799999996,362.17968800000017,138.58984400000008,98.9741210000002,85.64111300000059,419.3588869999994,158.7177729999994,630.6411130000006,109.23095699999976
102,250.89746099999957,151.9228520000006,131.79492200000004,-14.743652000000111,439.6152340000008,102.94873000000007,359.3588869999994,145.51269500000035,104.35888699999941,96.9228520000006,420.0,163.9741210000002,631.2822270000006,115.64111300000059
103,252.17968800000017,145.2563479999999,134.10253900000043,-10.769286999999622,431.79492200000004,103.20507799999996,357.05126999999993,150.76904300000024,111.79492200000004,106.0258789999998,415.6411130000006,170.0,633.4614259999998,116.41015599999992
104,253.46142599999985,140.89746099999957,135.51269500000035,-4.230713000000378,426.4101559999999,103.58984400000008,353.84619099999964,150.89746099999957,117.43603499999972,110.64111300000059,407.17968800000017,173.0771479999994,634.2309569999998,111.53857400000015
105,251.2822270000006,136.15380900000036,135.12841800000024,3.5898440000000846,422.05126999999993,103.20507799999996,349.23095699999976,145.76904300000024,118.58984400000008,111.79492200000004,396.4101559999999,171.6665039999998,630.2563479999999,109.87158199999976
106,245.76904300000024,130.89746099999957,133.0771479999994,11.025878999999804,417.4360349999997,102.56396500000028,344.23095699999976,139.87158199999976,116.15380900000036,112.94873000000007,384.87158199999976,167.6923829999996,621.5385740000002,114.35888699999941
107,238.9741210000002,125.38476599999922,130.2563479999999,16.922852000000603,411.4101559999999,102.69238299999961,340.51269500000035,138.58984400000008,113.20507799999996,116.79492200000004,371.9228520000006,164.23095699999976,611.1538090000004,117.43603499999972
108,232.56396500000028,118.0771479999994,127.82031300000017,20.384765999999217,401.79492200000004,103.20507799999996,339.23095699999976,142.94873000000007,112.30761700000039,122.69238299999961,355.6411130000006,162.3076170000004,602.4360349999997,114.87158199999976
109,227.05126999999993,106.9228520000006,126.79492200000004,21.025878999999804,387.82031300000017,103.46142599999985,339.7436520000001,149.48730499999965,114.74365200000011,127.94873000000007,334.7436520000001,162.05126999999993,596.4101559999999,112.82031300000017
110,223.46142599999985,93.58984400000008,128.20507799999996,20.897460999999566,371.6665039999998,103.7177729999994,340.3847659999992,153.84619099999964,119.10253900000043,130.51269500000035,311.79492200000004,164.61523400000078,593.0771479999994,115.76904300000024
111,221.9228520000006,82.05126999999993,132.05126999999993,21.538574000000153,356.6665039999998,105.25634799999989,340.2563479999999,154.61523400000078,122.69238299999961,129.48730499999965,290.51269500000035,170.2563479999999,591.0258789999998,118.3334960000002
112,220.51269500000035,73.7177729999994,135.2563479999999,23.333496000000196,343.0771479999994,107.17968800000017,339.6152340000008,152.82031300000017,122.82031300000017,125.51269500000035,272.94873000000007,176.15380900000036,588.205078,115.12841800000024
113,216.0258789999998,66.6665039999998,135.0,25.128418000000238,328.5898440000001,108.0771479999994,339.10253900000043,150.12841800000024,119.10253900000043,120.38476599999922,258.5898440000001,178.46142599999985,583.0771479999994,111.41015599999992
114,207.3076170000004,57.82031300000017,130.51269500000035,26.794922000000042,312.3076170000004,107.82031300000017,338.84619099999964,148.9741210000002,115.25634799999989,117.43603499999972,246.9228520000006,175.2563479999999,575.7690430000002,114.35888699999941
115,196.2822270000006,45.897460999999566,124.61523400000078,29.230956999999762,295.3847659999992,108.0771479999994,338.3334960000002,150.76904300000024,115.12841800000024,119.61523400000078,237.82031300000017,168.9741210000002,567.3076170000004,119.23095699999976
116,186.0258789999998,31.410155999999915,120.12841800000024,32.17968800000017,279.3588869999994,108.9741210000002,337.17968800000017,154.61523400000078,120.0,126.6665039999998,230.51269500000035,162.94873000000007,557.8203130000002,117.56396500000028
117,178.84619099999964,16.922852000000603,118.7177729999994,35.38476599999922,264.23095699999976,109.10253900000043,335.2563479999999,157.3076170000004,126.9228520000006,135.6411130000006,222.6923829999996,159.87158199999976,547.4360349999997,111.53857400000015
118,175.76904300000024,6.410155999999915,120.64111300000059,38.974121000000196,249.7436520000001,107.43603499999972,331.79492200000004,156.41015599999992,131.6665039999998,143.84619099999964,213.3334960000002,160.51269500000035,538.4614259999998,110.25634799999989
119,176.53857400000015,2.5639650000002803,124.35888699999941,43.846190999999635,236.6665039999998,104.74365200000011,326.79492200000004,152.6923829999996,132.05126999999993,150.0,203.58984400000008,163.84619099999964,533.3334960000002,113.7177729999994
120,177.6923829999996,3.2050779999999577,127.30761700000039,49.23095699999976,224.3588869999994,102.56396500000028,321.79492200000004,148.84619099999964,129.7436520000001,155.2563479999999,195.2563479999999,167.17968800000017,530.8974609999996,114.10253900000043
121,174.7436520000001,1.153809000000365,127.05126999999993,54.102539000000434,209.3588869999994,100.76904300000024,318.5898440000001,147.56396500000028,128.20507799999996,160.89746099999957,189.87158199999976,167.82031300000017,526.6665039999998,111.0258789999998
122,165.76904300000024,-8.846190999999635,123.84619099999964,57.94873000000007,187.6923829999996,98.3334960000002,318.0771479999994,149.23095699999976,129.48730499999965,167.82031300000017,187.17968800000017,165.51269500000035,517.4360349999997,111.9228520000006
123,153.9741210000002,-25.512939000000188,119.74365200000011,62.82031300000017,159.87158199999976,96.0258789999998,319.10253900000043,153.0771479999994,132.94873000000007,175.76904300000024,184.61523400000078,162.43603499999972,505.3847659999992,117.69238299999961
124,144.23095699999976,-42.564209000000574,116.79492200000004,70.89746099999957,130.38476599999922,95.38476599999922,320.2563479999999,157.6923829999996,135.89746099999957,183.20507799999996,178.0771479999994,160.6411130000006,495.0,119.23095699999976
125,138.7177729999994,-55.89746100000002,115.0,83.46142599999985,103.46142599999985,96.53857400000015,320.2563479999999,160.76904300000024,136.9228520000006,189.3588869999994,165.6411130000006,159.87158199999976,488.46142599999985,113.20507799999996
126,135.51269500000035,-65.89746100000002,113.20507799999996,100.12841800000024,79.35888699999941,98.7177729999994,319.23095699999976,161.53857400000015,136.0258789999998,194.87158199999976,150.0,158.3334960000002,483.9741210000002,108.58984400000008
127,132.43603499999972,-75.76928699999962,111.15380900000036,118.46142599999985,55.897460999999566,101.2822270000006,318.46142599999985,161.79492200000004,134.3588869999994,201.0258789999998,136.53857400000015,154.87158199999976,478.7177729999994,111.79492200000004
128,127.82031300000017,-87.94872999999961,109.35888699999941,134.3588869999994,31.538574000000153,103.46142599999985,319.23095699999976,164.10253900000043,133.9741210000002,208.9741210000002,127.94873000000007,149.87158199999976,470.6411130000006,116.9228520000006
129,120.12841800000024,-103.33325200000036,107.43603499999972,143.46142599999985,7.051269999999931,104.23095699999976,321.2822270000006,168.20507799999996,136.15380900000036,217.17968800000017,121.0258789999998,144.10253900000043,458.7177729999994,116.79492200000004
130,107.69238299999961,-120.64111300000013,104.35888699999941,144.48730499999965,-13.461425999999847,102.69238299999961,322.05126999999993,170.38476599999922,140.12841800000024,221.6665039999998,109.61523400000078,137.56396500000028,442.6923829999996,114.35888699999941
131,91.41015599999992,-136.41015600000037,98.9741210000002,140.89746099999957,-23.846190999999635,99.87158199999976,319.48730499999965,166.9228520000006,142.43603499999972,218.58984400000008,91.2822270000006,129.61523400000078,423.3334960000002,115.51269500000035
132,75.51269500000035,-146.41015600000037,91.9228520000006,138.84619099999964,-21.28198199999997,98.0771479999994,314.10253900000043,158.0771479999994,140.38476599999922,206.9228520000006,69.74365200000011,120.25634799999989,401.15380900000036,117.17968800000017
133,64.10253900000043,-149.23071300000038,85.0,141.79492200000004,-9.487060999999812,98.20507799999996,308.84619099999964,148.0771479999994,133.84619099999964,190.0,51.153809000000365,110.64111300000059,376.4101559999999,114.48730499999965
134,59.102539000000434,-146.53857400000015,80.12841800000024,148.20507799999996,2.1796880000001693,98.84619099999964,305.6411130000006,141.0258789999998,126.41015599999992,172.94873000000007,40.0,103.20507799999996,349.6152340000008,111.53857400000015
135,59.87158199999976,-141.02563499999997,78.7177729999994,153.9741210000002,6.025878999999804,98.7177729999994,304.7436520000001,139.10253900000043,121.2822270000006,160.2563479999999,36.53857400000015,99.61523400000078,323.46142599999985,113.9741210000002
136,64.35888699999941,-133.076904,80.25634799999989,155.6411130000006,1.4101559999999154,98.3334960000002,304.6152340000008,141.15380900000036,120.25634799999989,153.7177729999994,37.69238299999961,100.64111300000059,301.53857400000015,117.69238299999961
137,69.48730499999965,-122.30761700000039,83.0771479999994,152.82031300000017,-6.538574000000153,99.35888699999941,303.84619099999964,144.48730499999965,122.56396500000028,152.56396500000028,38.333496000000196,104.35888699999941,285.3847659999992,114.35888699999941
138,72.43603499999972,-109.74365200000011,84.74365200000011,147.17968800000017,-12.820557000000008,101.6665039999998,301.53857400000015,145.76904300000024,125.51269500000035,154.23095699999976,34.23095699999976,107.56396500000028,271.79492200000004,106.6665039999998
139,72.05126999999993,-98.07690400000001,84.23095699999976,143.46142599999985,-15.769286999999622,103.9741210000002,298.20507799999996,144.23095699999976,126.15380900000036,156.2822270000006,24.102539000000434,107.94873000000007,256.6665039999998,104.87158199999976
140,70.0,-89.74365200000011,82.69238299999961,145.0,-17.30761700000039,105.89746099999957,294.87158199999976,142.05126999999993,123.58984400000008,156.6665039999998,10.384765999999217,105.89746099999957,238.3334960000002,110.25634799999989
141,68.7177729999994,-85.0,81.79492200000004,151.79492200000004,-21.153809000000365,106.79492200000004,293.0771479999994,142.05126999999993,119.61523400000078,155.0,-3.846190999999635,102.69238299999961,218.9741210000002,114.23095699999976
142,68.7177729999994,-83.33325200000036,82.43603499999972,159.23095699999976,-29.487060999999812,106.53857400000015,293.84619099999964,144.3588869999994,116.9228520000006,152.43603499999972,-17.435790999999426,99.23095699999976,201.0258789999998,112.94873000000007
143,69.23095699999976,-83.07690400000001,83.9741210000002,163.7177729999994,-41.153809000000365,105.38476599999922,296.6665039999998,146.79492200000004,116.41015599999992,150.51269500000035,-29.8718259999996,96.53857400000015,185.2563479999999,112.43603499999972
144,70.25634799999989,-81.92309599999999,85.76904300000024,165.89746099999957,-51.28198199999997,105.25634799999989,300.2563479999999,147.43603499999972,116.2822270000006,150.89746099999957,-39.61547900000005,96.0258789999998,170.76904300000024,114.74365200000011
145,72.17968800000017,-78.07690400000001,86.79492200000004,169.23095699999976,-56.53857400000015,107.43603499999972,302.6923829999996,146.15380900000036,115.0,153.3334960000002,-46.41015600000037,97.56396500000028,156.15380900000036,114.61523400000078
146,73.9741210000002,-72.30761700000039,86.2822270000006,175.38476599999922,-57.69238299999961,110.25634799999989,302.4360349999997,143.3334960000002,111.53857400000015,155.6411130000006,-52.17944299999999,99.23095699999976,139.23095699999976,110.12841800000024
147,74.23095699999976,-67.05127000000039,83.84619099999964,182.43603499999972,-59.23071300000038,111.15380900000036,299.23095699999976,139.23095699999976,106.6665039999998,155.0,-59.74365200000011,98.84619099999964,119.10253900000043,108.0771479999994
148,72.82031300000017,-63.974365000000034,80.64111300000059,187.94873000000007,-63.846190999999635,109.74365200000011,294.48730499999965,135.51269500000035,101.9228520000006,150.6411130000006,-68.84619099999964,96.6665039999998,97.43603499999972,111.41015599999992
149,70.76904300000024,-62.69238299999961,78.0771479999994,192.05126999999993,-70.89746100000002,108.46142599999985,291.15380900000036,134.23095699999976,99.35888699999941,144.87158199999976,-76.02563499999997,94.23095699999976,77.17968800000017,113.9741210000002
150,68.58984400000008,-62.435790999999426,76.79492200000004,194.7436520000001,-79.61547900000005,109.23095699999976,291.6665039999998,135.76904300000024,99.74365200000011,141.2822270000006,-79.23071300000038,92.82031300000017,59.23095699999976,111.41015599999992
151,65.76904300000024,-62.564209000000574,76.15380900000036,196.15380900000036,-90.25634799999989,111.2822270000006,295.12841800000024,137.82031300000017,101.53857400000015,141.41015599999992,-80.25634799999989,91.9228520000006,42.43603499999972,108.9741210000002
152,62.56396500000028,-62.051270000000386,76.15380900000036,196.41015599999992,-102.17944299999999,113.7177729999994,298.0771479999994,137.82031300000017,102.30761700000039,144.23095699999976,-82.56420900000057,91.15380900000036,26.538574000000153,112.17968800000017
153,60.38476599999922,-58.33325200000036,77.05126999999993,196.2822270000006,-112.43579099999943,116.0258789999998,297.5639650000003,135.6411130000006,101.15380900000036,146.79492200000004,-86.92309599999999,90.64111300000059,13.461425999999847,115.76904300000024
154,60.38476599999922,-51.025634999999966,79.10253900000043,195.51269500000035,-117.94872999999961,118.3334960000002,293.5898440000001,132.6923829999996,98.9741210000002,146.41015599999992,-90.89746100000002,91.0258789999998,4.102539000000434,113.20507799999996
155,61.79492200000004,-43.20507799999996,81.0258789999998,192.94873000000007,-119.48706099999981,119.23095699999976,288.9741210000002,130.76904300000024,96.79492200000004,142.3076170000004,-92.69238299999961,92.43603499999972,-3.9741210000001956,108.58984400000008
156,63.20507799999996,-38.20507799999996,82.05126999999993,187.82031300000017,-119.8718259999996,117.94873000000007,286.0258789999998,129.61523400000078,94.87158199999976,136.41015599999992,-92.82055700000001,93.7177729999994,-13.974365000000034,109.48730499999965
157,63.974121000000196,-36.53857400000015,82.17968800000017,181.79492200000004,-121.02563499999997,116.2822270000006,285.2563479999999,128.9741210000002,93.3334960000002,131.79492200000004,-93.07690400000001,94.74365200000011,-26.41015600000037,113.84619099999964
158,63.589844000000085,-35.76928699999962,81.79492200000004,177.3076170000004,-121.66674799999964,116.6665039999998,285.51269500000035,128.84619099999964,92.69238299999961,130.89746099999957,-93.97436500000003,94.74365200000011,-38.33325200000036,113.84619099999964
159,60.76904300000024,-33.71801800000003,80.64111300000059,175.2563479999999,-120.51293900000019,119.61523400000078,285.0,128.46142599999985,93.9741210000002,133.0771479999994,-94.48706099999981,93.7177729999994,-48.07690400000001,110.38476599999922
160,56.410155999999915,-30.0,78.9741210000002,175.51269500000035,-117.43579099999943,123.3334960000002,282.82031300000017,127.30761700000039,96.41015599999992,135.51269500000035,-93.07690400000001,91.79492200000004,-56.153809000000365,110.38476599999922
161,52.69238299999961,-25.89746100000002,77.94873000000007,177.94873000000007,-113.33325200000036,125.89746099999957,278.84619099999964,125.38476599999922,97.94873000000007,135.51269500000035,-88.71801800000003,90.51269500000035,-63.07690400000001,113.0771479999994
162,51.9228520000006,-22.820557000000008,78.7177729999994,181.53857400000015,-108.71801800000003,126.79492200000004,274.3588869999994,123.0771479999994,97.05126999999993,132.82031300000017,-82.82055700000001,90.38476599999922,-68.71801800000003,111.79492200000004
163,53.20507799999996,-22.051270000000386,80.12841800000024,183.3334960000002,-104.23071300000038,125.76904300000024,270.6411130000006,120.64111300000059,94.10253900000043,128.46142599999985,-80.25634799999989,90.25634799999989,-73.07690400000001,106.15380900000036
164,53.333496000000196,-22.820557000000008,80.38476599999922,180.38476599999922,-100.25634799999989,123.7177729999994,268.7177729999994,118.20507799999996,90.64111300000059,123.58984400000008,-85.38452099999995,88.20507799999996,-77.05127000000039,104.35888699999941
165,50.38476599999922,-22.435790999999426,78.58984400000008,172.6923829999996,-96.41015600000037,122.30761700000039,268.0771479999994,116.6665039999998,88.84619099999964,119.48730499999965,-96.53857400000015,83.3334960000002,-81.02563499999997,108.46142599999985
166,45.38476599999922,-18.71801800000003,76.0258789999998,163.9741210000002,-91.15380900000036,123.46142599999985,268.3334960000002,117.56396500000028,89.87158199999976,117.30761700000039,-107.17944299999999,77.94873000000007,-83.71801800000003,111.15380900000036
167,41.410155999999915,-12.051270000000386,74.61523400000078,158.46142599999985,-84.35888699999987,126.79492200000004,268.84619099999964,120.51269500000035,93.84619099999964,117.94873000000007,-110.76928699999962,75.25634799999989,-83.71801800000003,109.10253900000043
168,40.64111300000059,-5.769286999999622,75.25634799999989,157.17968800000017,-77.43579099999943,129.87158199999976,269.3588869999994,123.58984400000008,99.23095699999976,121.0258789999998,-106.66674799999964,75.89746099999957,-81.92309599999999,107.94873000000007
169,43.333496000000196,-2.4360349999997197,77.43603499999972,159.10253900000043,-71.92309599999999,130.6411130000006,269.10253900000043,124.35888699999941,103.3334960000002,124.48730499999965,-99.74365200000011,77.82031300000017,-80.1281740000004,110.76904300000024
170,47.69238299999961,-1.2822270000006029,80.0,161.9228520000006,-67.69238299999961,129.23095699999976,267.05126999999993,122.94873000000007,103.9741210000002,126.0258789999998,-95.0,78.46142599999985,-79.8718259999996,111.6665039999998
171,50.76904300000024,-0.8974609999995664,81.2822270000006,163.84619099999964,-64.35888699999987,126.9228520000006,263.20507799999996,120.89746099999957,100.76904300000024,123.7177729999994,-93.84619099999964,77.05126999999993,-82.43579099999943,107.17968800000017
172,49.102539000000434,-0.512695000000349,80.0,163.7177729999994,-62.69238299999961,124.61523400000078,258.20507799999996,119.23095699999976,94.61523400000078,116.6665039999998,-95.51293900000019,73.84619099999964,-88.84619099999964,104.10253900000043
173,42.05126999999993,-0.256347999999889,76.6665039999998,161.6665039999998,-63.07690400000001,122.30761700000039,252.82031300000017,117.43603499999972,87.17968800000017,106.15380900000036,-98.71801800000003,69.74365200000011,-98.97436500000003,108.46142599999985
174,33.0771479999994,-0.12841800000023795,72.94873000000007,158.58984400000008,-64.35888699999987,120.89746099999957,248.46142599999985,115.0,81.0258789999998,95.51269500000035,-102.30761700000039,66.41015599999992,-109.8718259999996,114.10253900000043
175,27.43603499999972,1.2822270000006029,71.53857400000015,155.12841800000024,-63.58984399999963,121.0258789999998,245.89746099999957,112.17968800000017,78.0771479999994,88.3334960000002,-105.64111300000013,65.12841800000024,-117.43579099999943,113.20507799999996
176,27.56396500000028,3.9741210000001956,73.20507799999996,151.79492200000004,-58.974365000000034,122.30761700000039,245.2563479999999,109.61523400000078,78.46142599999985,86.9228520000006,-107.82055700000001,66.15380900000036,-119.48706099999981,108.9741210000002
177,31.538574000000153,7.820313000000169,76.6665039999998,149.87158199999976,-51.28198199999997,123.58984400000008,245.6411130000006,108.7177729999994,80.38476599999922,90.0,-108.46142599999985,68.0771479999994,-116.92309599999999,109.10253900000043
178,35.76904300000024,12.43603499999972,78.84619099999964,150.0,-43.20507799999996,124.35888699999941,245.2563479999999,109.74365200000011,82.05126999999993,94.23095699999976,-107.17944299999999,69.23095699999976,-112.69238299999961,112.05126999999993
179,37.30761700000039,16.922852000000603,78.46142599999985,151.9228520000006,-37.564209000000574,124.48730499999965,242.56396500000028,112.30761700000039,82.17968800000017,95.89746099999957,-104.23071300000038,68.58984400000008,-108.84619099999964,111.0258789999998
180,35.0,19.871581999999762,76.2822270000006,152.43603499999972,-35.51293900000019,123.7177729999994,237.43603499999972,114.23095699999976,80.76904300000024,93.9741210000002,-100.1281740000004,66.79492200000004,-106.53857400000015,107.43603499999972
181,29.615234000000783,20.128418000000238,73.7177729999994,148.46142599999985,-36.41015600000037,121.9228520000006,231.53857400000015,113.9741210000002,78.84619099999964,89.87158199999976,-94.48706099999981,65.12841800000024,-106.28198199999997,108.3334960000002
182,24.48730499999965,19.48730499999965,72.17968800000017,140.2563479999999,-37.82055700000001,120.0,226.6665039999998,111.6665039999998,77.82031300000017,86.41015599999992,-86.53857400000015,65.12841800000024,-107.43579099999943,112.82031300000017
183,22.94873000000007,20.897460999999566,71.9228520000006,131.9228520000006,-37.564209000000574,118.9741210000002,223.84619099999964,109.61523400000078,78.58984400000008,85.89746099999957,-77.30761700000039,67.05126999999993,-108.84619099999964,112.94873000000007
184,24.74365200000011,25.384765999999217,72.30761700000039,127.69238299999961,-35.76928699999962,119.23095699999976,222.82031300000017,109.10253900000043,80.64111300000059,88.20507799999996,-70.25634799999989,69.48730499999965,-110.25634799999989,107.69238299999961
185,26.666503999999804,30.384765999999217,72.17968800000017,128.84619099999964,-34.35888699999987,119.35888699999941,221.2822270000006,109.48730499999965,82.43603499999972,91.6665039999998,-69.35888699999987,69.74365200000011,-111.53857400000015,105.12841800000024
186,25.769043000000238,32.43603499999972,71.0258789999998,131.9228520000006,-33.974365000000034,118.9741210000002,217.56396500000028,109.74365200000011,82.82031300000017,93.3334960000002,-74.74365200000011,66.53857400000015,-112.17944299999999,107.69238299999961
187,22.94873000000007,29.871581999999762,69.74365200000011,132.82031300000017,-33.33325200000036,118.84619099999964,211.6665039999998,109.48730499999965,82.05126999999993,91.6665039999998,-81.92309599999999,61.153809000000365,-111.15380900000036,108.7177729999994
188,21.153809000000365,24.48730499999965,70.12841800000024,130.12841800000024,-31.538574000000153,120.0,206.2822270000006,109.10253900000043,81.15380900000036,88.0771479999994,-85.0,57.43603499999972,-108.46142599999985,105.38476599999922
189,22.17968800000017,19.74365200000011,72.56396500000028,125.64111300000059,-28.205077999999958,122.17968800000017,203.84619099999964,109.35888699999941,81.15380900000036,85.64111300000059,-80.76928699999962,58.46142599999985,-105.1281740000004,104.61523400000078
190,25.384765999999217,18.846190999999635,75.89746099999957,122.94873000000007,-24.10253899999998,124.10253900000043,204.10253900000043,110.38476599999922,82.43603499999972,86.9228520000006,-70.64111300000013,64.35888699999941,-102.30761700000039,110.51269500000035
191,28.846190999999635,22.82031300000017,77.94873000000007,123.46142599999985,-20.0,125.38476599999922,205.12841800000024,111.79492200000004,84.35888699999941,91.0258789999998,-57.948729999999614,71.9228520000006,-100.0,115.0
192,30.769043000000238,29.48730499999965,78.58984400000008,125.25634799999989,-16.794922000000042,125.76904300000024,204.3588869999994,112.56396500000028,85.38476599999922,94.61523400000078,-46.92309599999999,76.79492200000004,-98.58984399999963,111.2822270000006
193,29.871581999999762,34.102539000000434,79.23095699999976,124.48730499999965,-15.897461000000021,124.87158199999976,200.6411130000006,110.89746099999957,83.7177729999994,94.23095699999976,-40.38452099999995,76.79492200000004,-99.8718259999996,105.12841800000024
194,26.666503999999804,33.846190999999635,80.89746099999957,119.61523400000078,-16.794922000000042,123.0771479999994,194.7436520000001,106.41015599999992,78.84619099999964,88.9741210000002,-39.23071300000038,73.46142599999985,-104.23071300000038,104.87158199999976
195,24.102539000000434,31.282227000000603,83.0771479999994,112.56396500000028,-17.179442999999992,121.9228520000006,189.10253900000043,101.2822270000006,72.43603499999972,81.6665039999998,-41.79492200000004,70.12841800000024,-108.97436500000003,108.46142599999985
196,24.230956999999762,31.282227000000603,84.61523400000078,108.20507799999996,-15.256347999999889,123.3334960000002,185.6411130000006,98.84619099999964,67.94873000000007,76.2822270000006,-45.1281740000004,69.61523400000078,-110.1281740000004,108.46142599999985
197,27.05126999999993,35.76904300000024,84.87158199999976,109.23095699999976,-10.769286999999622,126.41015599999992,184.87158199999976,100.64111300000059,68.0771479999994,74.87158199999976,-47.051270000000386,72.05126999999993,-106.92309599999999,106.2822270000006
198,30.384765999999217,42.56396500000028,84.61523400000078,114.48730499999965,-5.256347999999889,128.7177729999994,185.2563479999999,105.51269500000035,72.69238299999961,77.30761700000039,-45.76928699999962,76.2822270000006,-101.53857400000015,107.94873000000007
199,33.20507799999996,47.82031300000017,84.74365200000011,119.87158199999976,0.0,129.23095699999976,184.87158199999976,110.51269500000035,78.58984400000008,81.15380900000036,-40.38452099999995,80.64111300000059,-96.92309599999999,111.2822270000006
200,35.25634799999989,49.102539000000434,85.76904300000024,121.15380900000036,3.717772999999397,128.84619099999964,183.0771479999994,113.20507799999996,82.17968800000017,83.84619099999964,-31.794922000000042,83.84619099999964,-94.48706099999981,108.84619099999964
201,35.51269500000035,46.410155999999915,86.79492200000004,116.0258789999998,4.102539000000434,127.82031300000017,179.7436520000001,111.53857400000015,81.79492200000004,83.3334960000002,-24.230713000000378,85.0,-94.23071300000038,102.69238299999961
202,33.333496000000196,41.025878999999804,86.2822270000006,106.9228520000006,0.38476599999921746,125.64111300000059,175.12841800000024,106.0258789999998,78.0771479999994,79.35888699999941,-20.89746100000002,83.0771479999994,-95.64111300000013,102.05126999999993
203,29.102539000000434,36.153809000000365,84.35888699999941,99.10253900000043,-4.358886999999868,122.17968800000017,169.87158199999976,100.12841800000024,74.10253900000043,74.48730499999965,-20.38452099999995,78.3334960000002,-97.17944299999999,108.20507799999996
204,25.641113000000587,35.12841800000024,82.56396500000028,96.9228520000006,-5.897461000000021,119.23095699999976,165.12841800000024,98.3334960000002,72.94873000000007,72.17968800000017,-16.794922000000042,73.7177729999994,-97.43579099999943,111.6665039999998
205,24.871581999999762,38.7177729999994,83.0771479999994,99.48730499999965,-2.3076170000003913,118.46142599999985,162.43603499999972,102.17968800000017,75.25634799999989,73.58984400000008,-6.41015600000037,72.05126999999993,-96.53857400000015,108.46142599999985
206,26.282227000000603,44.74365200000011,86.2822270000006,101.0258789999998,3.2050779999999577,119.35888699999941,162.05126999999993,108.46142599999985,79.35888699999941,77.05126999999993,7.051269999999931,74.35888699999941,-96.02563499999997,105.64111300000059
207,28.717772999999397,50.64111300000059,90.76904300000024,97.43603499999972,6.538574000000153,120.64111300000059,162.56396500000028,112.82031300000017,82.30761700000039,79.48730499999965,16.410155999999915,79.74365200000011,-96.15380900000036,107.82031300000017
208,31.153809000000365,55.51269500000035,94.10253900000043,90.64111300000059,6.794922000000042,121.6665039999998,161.9228520000006,112.82031300000017,82.69238299999961,79.87158199999976,17.17968800000017,86.0258789999998,-94.74365200000011,108.9741210000002
209,33.333496000000196,58.46142599999985,94.87158199999976,86.9228520000006,5.256347999999889,122.05126999999993,158.9741210000002,109.23095699999976,81.6665039999998,78.84619099999964,11.666503999999804,90.76904300000024,-90.89746100000002,104.74365200000011
210,34.23095699999976,58.0771479999994,93.58984400000008,89.74365200000011,4.102539000000434,121.41015599999992,153.9741210000002,104.10253900000043,80.76904300000024,77.17968800000017,5.3847659999992175,91.41015599999992,-86.53857400000015,101.53857400000015
211,33.0771479999994,53.846190999999635,91.53857400000015,96.6665039999998,4.6152340000007825,120.0,149.10253900000043,99.61523400000078,80.0,75.51269500000035,2.8203130000001693,87.43603499999972,-85.0,105.38476599999922
212,30.897460999999566,48.333496000000196,90.12841800000024,102.05126999999993,7.692382999999609,118.84619099999964,146.2822270000006,97.69238299999961,78.7177729999994,74.48730499999965,5.256347999999889,81.2822270000006,-86.53857400000015,110.76904300000024
213,29.48730499999965,45.64111300000059,89.35888699999941,101.15380900000036,12.82031300000017,118.58984400000008,145.6411130000006,98.9741210000002,76.6665039999998,74.35888699999941,10.897460999999566,76.53857400000015,-87.82055700000001,110.38476599999922
214,29.230956999999762,46.666503999999804,88.3334960000002,93.7177729999994,17.69238299999961,117.94873000000007,145.2563479999999,102.05126999999993,75.0,74.48730499999965,16.794922000000042,75.51269500000035,-86.53857400000015,107.56396500000028
215,28.846190999999635,48.846190999999635,86.2822270000006,83.3334960000002,19.102539000000434,114.87158199999976,142.82031300000017,103.9741210000002,75.0,73.9741210000002,21.025878999999804,77.30761700000039,-83.58984399999963,109.48730499999965
216,27.69238299999961,48.974121000000196,84.23095699999976,76.41015599999992,16.410155999999915,109.48730499999965,137.6923829999996,103.58984400000008,76.2822270000006,72.82031300000017,24.102539000000434,79.74365200000011,-82.05127000000039,113.3334960000002
217,26.666503999999804,47.17968800000017,84.74365200000011,76.9228520000006,12.56396500000028,104.61523400000078,131.9228520000006,102.30761700000039,77.69238299999961,72.05126999999993,27.17968800000017,82.17968800000017,-82.94872999999961,111.15380900000036
218,26.666503999999804,45.897460999999566,88.46142599999985,82.82031300000017,11.025878999999804,102.69238299999961,128.7177729999994,102.17968800000017,78.0771479999994,72.94873000000007,30.769043000000238,84.74365200000011,-84.61547900000005,104.74365200000011
219,28.205077999999958,47.05126999999993,93.58984400000008,87.56396500000028,12.82031300000017,104.48730499999965,129.10253900000043,104.23095699999976,77.94873000000007,75.38476599999922,33.20507799999996,87.94873000000007,-84.10253899999998,103.3334960000002
220,30.769043000000238,50.76904300000024,97.05126999999993,86.53857400000015,17.30761700000039,108.20507799999996,131.53857400000015,107.43603499999972,78.7177729999994,78.46142599999985,32.69238299999961,90.89746099999957,-79.35888699999987,107.69238299999961
221,33.46142599999985,55.76904300000024,97.30761700000039,81.0258789999998,22.94873000000007,111.9228520000006,132.6923829999996,110.25634799999989,80.51269500000035,81.0258789999998,29.48730499999965,92.17968800000017,-71.66674799999964,109.10253900000043
222,34.74365200000011,59.74365200000011,95.12841800000024,75.51269500000035,27.43603499999972,113.7177729999994,130.2563479999999,110.89746099999957,81.6665039999998,81.79492200000004,25.384765999999217,90.76904300000024,-65.38452099999995,105.25634799999989
223,33.20507799999996,60.64111300000059,92.05126999999993,73.3334960000002,29.102539000000434,112.94873000000007,125.25634799999989,108.58984400000008,81.0258789999998,80.12841800000024,23.461425999999847,86.2822270000006,-64.23071300000038,103.3334960000002
224,29.358886999999413,57.56396500000028,89.48730499999965,74.23095699999976,27.43603499999972,110.64111300000059,120.12841800000024,104.48730499999965,78.9741210000002,77.17968800000017,25.641113000000587,80.89746099999957,-67.82055700000001,106.53857400000015
225,26.282227000000603,51.153809000000365,88.20507799999996,76.6665039999998,24.358886999999413,109.35888699999941,117.43603499999972,101.41015599999992,77.82031300000017,74.74365200000011,31.922852000000603,77.56396500000028,-71.92309599999999,108.20507799999996
226,26.282227000000603,43.589844000000085,88.58984400000008,80.12841800000024,22.30761700000039,110.0,116.6665039999998,100.89746099999957,79.35888699999941,74.87158199999976,39.102539000000434,78.0771479999994,-72.43579099999943,104.87158199999976
227,28.589844000000085,37.56396500000028,90.12841800000024,85.25634799999989,21.922852000000603,110.89746099999957,115.51269500000035,101.6665039999998,82.94873000000007,77.56396500000028,42.30761700000039,80.89746099999957,-70.38452099999995,103.20507799999996
228,30.128418000000238,36.666503999999804,91.6665039999998,90.89746099999957,23.205077999999958,110.12841800000024,111.79492200000004,101.79492200000004,86.15380900000036,80.51269500000035,38.589844000000085,82.43603499999972,-69.8718259999996,107.05126999999993
229,29.74365200000011,43.333496000000196,91.6665039999998,94.87158199999976,25.897460999999566,108.3334960000002,105.76904300000024,100.38476599999922,86.0258789999998,81.41015599999992,29.358886999999413,80.25634799999989,-73.46142599999985,109.61523400000078
230,27.94873000000007,55.25634799999989,90.12841800000024,94.10253900000043,29.871581999999762,107.43603499999972,100.0,98.58984400000008,81.6665039999998,79.10253900000043,19.871581999999762,75.25634799999989,-80.1281740000004,105.12841800000024
231,25.897460999999566,65.0,88.20507799999996,88.46142599999985,33.333496000000196,108.7177729999994,97.56396500000028,97.30761700000039,75.38476599999922,74.35888699999941,14.487304999999651,70.25634799999989,-86.53857400000015,100.0
232,24.102539000000434,65.38476599999922,86.15380900000036,81.53857400000015,34.35888699999941,111.53857400000015,98.9741210000002,96.9228520000006,71.41015599999992,69.74365200000011,13.717772999999397,67.94873000000007,-89.23071300000038,102.56396500000028
233,23.589844000000085,56.025878999999804,84.23095699999976,78.0771479999994,33.20507799999996,114.87158199999976,102.05126999999993,97.69238299999961,72.94873000000007,67.82031300000017,15.769043000000238,69.10253900000043,-86.53857400000015,109.10253900000043
234,24.102539000000434,43.333496000000196,82.56396500000028,80.12841800000024,31.922852000000603,118.3334960000002,103.9741210000002,99.74365200000011,79.87158199999976,69.74365200000011,18.589844000000085,71.79492200000004,-80.38452099999995,110.0
235,24.74365200000011,35.25634799999989,81.9228520000006,85.25634799999989,31.538574000000153,120.51269500000035,103.0771479999994,101.79492200000004,87.56396500000028,73.46142599999985,21.794922000000042,73.46142599999985,-75.38452099999995,105.89746099999957
236,24.230956999999762,35.897460999999566,82.43603499999972,88.7177729999994,31.666503999999804,120.64111300000059,99.74365200000011,102.30761700000039,90.64111300000059,75.64111300000059,25.641113000000587,72.94873000000007,-75.38452099999995,105.0
237,23.461425999999847,44.48730499999965,84.10253900000043,87.69238299999961,31.666503999999804,118.9741210000002,96.0258789999998,101.0258789999998,87.43603499999972,74.74365200000011,30.769043000000238,72.43603499999972,-79.10253899999998,107.82031300000017
238,24.230956999999762,55.25634799999989,86.79492200000004,83.46142599999985,31.666503999999804,117.17968800000017,93.58984400000008,99.10253900000043,81.2822270000006,72.17968800000017,35.51269500000035,74.35888699999941,-81.79492200000004,107.17968800000017
239,26.538574000000153,60.51269500000035,89.74365200000011,79.35888699999941,31.282227000000603,115.25634799999989,92.43603499999972,97.94873000000007,76.79492200000004,69.87158199999976,36.2822270000006,78.58984400000008,-81.02563499999997,103.0771479999994
240,28.077147999999397,56.2822270000006,91.53857400000015,78.7177729999994,29.358886999999413,111.79492200000004,91.15380900000036,97.56396500000028,76.2822270000006,69.23095699999976,30.769043000000238,82.17968800000017,-78.97436500000003,102.56396500000028
241,27.30761700000039,46.025878999999804,92.05126999999993,82.69238299999961,26.282227000000603,106.9228520000006,88.58984400000008,97.69238299999961,78.9741210000002,70.0,21.666503999999804,83.0771479999994,-78.58984399999963,106.53857400000015
242,25.769043000000238,37.69238299999961,91.9228520000006,89.74365200000011,24.48730499999965,103.3334960000002,85.25634799999989,98.3334960000002,82.56396500000028,71.53857400000015,15.641113000000587,82.05126999999993,-79.48706099999981,107.17968800000017
243,25.384765999999217,37.05126999999993,92.69238299999961,94.87158199999976,26.153809000000365,103.7177729999994,83.58984400000008,99.61523400000078,84.61523400000078,73.20507799999996,17.56396500000028,81.53857400000015,-79.74365200000011,102.56396500000028
244,26.538574000000153,43.0771479999994,94.10253900000043,94.23095699999976,30.0,107.56396500000028,84.48730499999965,101.15380900000036,84.48730499999965,74.61523400000078,24.871581999999762,82.94873000000007,-78.71801800000003,101.15380900000036
245,28.077147999999397,50.64111300000059,95.12841800000024,88.9741210000002,32.56396500000028,111.53857400000015,86.53857400000015,102.17968800000017,83.20507799999996,75.64111300000059,30.769043000000238,85.51269500000035,-77.05127000000039,107.17968800000017
246,29.615234000000783,54.87158199999976,95.12841800000024,85.0,32.17968800000017,112.69238299999961,86.6665039999998,102.56396500000028,82.30761700000039,76.41015599999992,32.05126999999993,88.46142599999985,-74.35888699999987,112.30761700000039
247,31.153809000000365,53.7177729999994,95.0,87.17968800000017,29.102539000000434,110.12841800000024,83.3334960000002,102.43603499999972,82.94873000000007,76.9228520000006,31.538574000000153,91.15380900000036,-70.64111300000013,109.35888699999941
248,31.922852000000603,47.05126999999993,95.89746099999957,93.9741210000002,24.358886999999413,104.87158199999976,77.69238299999961,102.05126999999993,84.48730499999965,77.43603499999972,33.589844000000085,92.82031300000017,-67.30761700000039,104.35888699999941
249,30.641113000000587,37.43603499999972,97.56396500000028,98.3334960000002,19.615234000000783,99.48730499999965,72.30761700000039,101.15380900000036,85.89746099999957,77.82031300000017,39.48730499999965,92.69238299999961,-66.41015600000037,105.64111300000059
250,27.17968800000017,30.25634799999989,98.84619099999964,95.38476599999922,17.17968800000017,98.0771479999994,69.23095699999976,100.38476599999922,86.6665039999998,78.46142599999985,45.64111300000059,90.51269500000035,-67.56420900000057,109.74365200000011
251,23.589844000000085,30.769043000000238,98.46142599999985,86.9228520000006,19.230956999999762,101.9228520000006,69.23095699999976,100.12841800000024,86.41015599999992,78.84619099999964,47.30761700000039,87.30761700000039,-68.07690400000001,108.84619099999964
252,22.05126999999993,39.35888699999941,96.9228520000006,79.74365200000011,24.102539000000434,108.58984400000008,70.64111300000059,100.64111300000059,85.76904300000024,78.58984400000008,42.43603499999972,84.23095699999976,-66.41015600000037,105.25634799999989
253,22.69238299999961,49.48730499999965,94.61523400000078,78.9741210000002,27.43603499999972,113.46142599999985,71.41015599999992,100.89746099999957,85.25634799999989,77.17968800000017,33.846190999999635,82.30761700000039,-63.58984399999963,106.0258789999998
254,22.94873000000007,52.17968800000017,92.69238299999961,84.23095699999976,26.025878999999804,114.35888699999941,70.0,100.64111300000059,85.38476599999922,75.51269500000035,27.30761700000039,81.6665039999998,-62.69238299999961,109.61523400000078
255,19.48730499999965,43.846190999999635,91.15380900000036,90.25634799999989,20.897460999999566,112.82031300000017,66.6665039999998,99.87158199999976,86.15380900000036,74.35888699999941,25.641113000000587,81.6665039999998,-66.15380900000036,108.0771479999994
256,10.641113000000587,28.461425999999847,89.74365200000011,92.05126999999993,16.153809000000365,111.15380900000036,63.333496000000196,98.7177729999994,86.53857400000015,73.9741210000002,26.025878999999804,80.76904300000024,-73.71801800000003,102.94873000000007
257,-0.512695000000349,15.897460999999566,87.94873000000007,88.9741210000002,15.897460999999566,110.89746099999957,61.666503999999804,97.56396500000028,85.89746099999957,74.10253900000043,23.974121000000196,78.0771479999994,-82.94872999999961,102.82031300000017
258,-6.666747999999643,15.769043000000238,86.15380900000036,85.0,21.538574000000153,112.30761700000039,61.410155999999915,96.6665039999998,84.74365200000011,73.9741210000002,19.615234000000783,75.25634799999989,-89.35888699999987,108.0771479999994
259,-2.0512699999999313,32.17968800000017,85.51269500000035,85.38476599999922,30.641113000000587,114.87158199999976,61.025878999999804,96.41015599999992,84.10253900000043,73.46142599999985,18.205077999999958,75.51269500000035,-89.8718259999996,110.25634799999989
260,13.589844000000085,60.12841800000024,87.05126999999993,91.6665039999998,38.589844000000085,116.9228520000006,58.589844000000085,96.2822270000006,84.35888699999941,71.79492200000004,23.846190999999635,80.51269500000035,-86.02563499999997,106.79492200000004
261,33.0771479999994,87.82031300000017,90.64111300000059,101.53857400000015,40.897460999999566,116.0258789999998,53.7177729999994,94.48730499999965,85.0,68.9741210000002,33.46142599999985,87.82031300000017,-82.94872999999961,105.51269500000035
262,48.46142599999985,105.76904300000024,94.48730499999965,111.41015599999992,37.17968800000017,112.17968800000017,47.82031300000017,90.64111300000059,84.61523400000078,65.25634799999989,39.87158199999976,93.20507799999996,-85.38452099999995,109.23095699999976
263,56.153809000000365,112.17968800000017,97.69238299999961,118.7177729999994,31.794922000000042,108.0771479999994,43.20507799999996,86.6665039999998,82.69238299999961,61.666503999999804,37.56396500000028,94.61523400000078,-93.58984399999963,110.38476599999922
264,57.94873000000007,113.7177729999994,100.0,122.17968800000017,28.974121000000196,107.05126999999993,41.53857400000015,84.35888699999941,79.35888699999941,58.46142599999985,27.05126999999993,92.82031300000017,-104.35888699999987,104.74365200000011
265,56.9228520000006,117.56396500000028,102.05126999999993,121.79492200000004,30.51269500000035,109.87158199999976,42.17968800000017,83.7177729999994,75.76904300000024,55.64111300000059,14.358886999999413,90.38476599999922,-113.07690400000001,100.38476599999922
266,55.64111300000059,126.2822270000006,103.3334960000002,118.3334960000002,35.0,114.35888699999941,43.0771479999994,83.3334960000002,72.56396500000028,52.94873000000007,6.794922000000042,88.9741210000002,-116.92309599999999,104.35888699999941
267,54.87158199999976,137.05126999999993,102.69238299999961,114.10253900000043,39.87158199999976,117.94873000000007,42.30761700000039,82.69238299999961,70.0,50.51269500000035,7.307617000000391,88.3334960000002,-115.38452099999995,110.76904300000024
268,54.48730499999965,144.10253900000043,99.87158199999976,110.64111300000059,42.43603499999972,118.9741210000002,39.35888699999941,81.9228520000006,68.7177729999994,48.7177729999994,12.56396500000028,87.56396500000028,-110.38452099999995,111.0258789999998
269,53.7177729999994,143.20507799999996,96.15380900000036,109.10253900000043,40.51269500000035,117.17968800000017,35.51269500000035,81.15380900000036,68.9741210000002,47.43603499999972,16.794922000000042,86.53857400000015,-105.0,107.43603499999972
270,52.56396500000028,134.7436520000001,94.23095699999976,109.48730499999965,35.0,113.9741210000002,32.56396500000028,80.25634799999989,70.51269500000035,46.666503999999804,17.05126999999993,86.15380900000036,-101.53857400000015,107.05126999999993
271,52.69238299999961,124.35888699999941,95.89746099999957,111.79492200000004,30.128418000000238,111.9228520000006,31.794922000000042,79.74365200000011,72.82031300000017,47.69238299999961,15.897460999999566,87.56396500000028,-99.8718259999996,108.3334960000002
272,54.74365200000011,118.7177729999994,100.64111300000059,115.38476599999922,29.74365200000011,113.46142599999985,33.20507799999996,80.51269500000035,75.25634799999989,50.76904300000024,17.56396500000028,90.64111300000059,-98.97436500000003,105.38476599999922
273,57.17968800000017,119.87158199999976,105.64111300000059,117.94873000000007,34.61523400000078,117.69238299999961,35.76904300000024,82.17968800000017,77.30761700000039,54.35888699999941,22.05126999999993,93.3334960000002,-98.97436500000003,101.15380900000036
274,57.43603499999972,124.10253900000043,107.82031300000017,117.69238299999961,41.410155999999915,122.05126999999993,37.82031300000017,83.58984400000008,78.20507799999996,56.025878999999804,26.538574000000153,93.46142599999985,-100.1281740000004,103.3334960000002
275,55.25634799999989,127.17968800000017,107.17968800000017,114.48730499999965,47.43603499999972,124.23095699999976,38.846190999999635,84.23095699999976,78.3334960000002,55.25634799999989,27.56396500000028,91.2822270000006,-100.64111300000013,110.0
276,53.333496000000196,127.82031300000017,105.76904300000024,110.0,50.897460999999566,124.87158199999976,39.35888699999941,85.51269500000035,79.10253900000043,54.102539000000434,24.74365200000011,89.23095699999976,-97.82055700000001,110.76904300000024
277,53.589844000000085,127.05126999999993,105.38476599999922,105.12841800000024,51.9228520000006,125.51269500000035,39.87158199999976,88.3334960000002,81.9228520000006,54.61523400000078,19.615234000000783,89.10253900000043,-92.05127000000039,104.35888699999941
278,54.61523400000078,126.15380900000036,105.25634799999989,100.64111300000059,50.76904300000024,126.0258789999998,40.0,91.2822270000006,85.89746099999957,57.30761700000039,14.871581999999762,89.74365200000011,-87.43579099999943,100.76904300000024
279,54.23095699999976,125.89746099999957,102.82031300000017,98.9741210000002,48.974121000000196,125.51269500000035,38.7177729999994,92.43603499999972,88.7177729999994,60.38476599999922,12.56396500000028,88.3334960000002,-88.07690400000001,104.61523400000078
280,51.9228520000006,126.9228520000006,97.56396500000028,103.0771479999994,48.589844000000085,123.46142599999985,35.25634799999989,91.0258789999998,87.82031300000017,61.153809000000365,13.846190999999635,84.23095699999976,-93.71801800000003,108.3334960000002
281,48.974121000000196,128.20507799999996,92.30761700000039,111.53857400000015,49.23095699999976,120.64111300000059,30.897460999999566,88.0771479999994,83.46142599999985,57.69238299999961,18.077147999999397,79.74365200000011,-100.76928699999962,107.05126999999993
282,46.410155999999915,127.69238299999961,90.25634799999989,117.94873000000007,48.846190999999635,117.82031300000017,27.05126999999993,85.0,78.0771479999994,51.153809000000365,22.56396500000028,78.20507799999996,-105.76928699999962,106.15380900000036
283,45.12841800000024,124.74365200000011,92.69238299999961,116.6665039999998,46.2822270000006,115.89746099999957,24.615234000000783,82.69238299999961,75.0,44.74365200000011,24.48730499999965,80.64111300000059,-107.05127000000039,110.0
284,46.025878999999804,122.43603499999972,97.56396500000028,109.10253900000043,43.7177729999994,115.51269500000035,23.333496000000196,82.43603499999972,75.76904300000024,42.82031300000017,23.333496000000196,85.38476599999922,-104.35888699999987,112.56396500000028
285,49.102539000000434,124.23095699999976,101.79492200000004,102.05126999999993,44.48730499999965,116.9228520000006,22.30761700000039,84.87158199999976,79.23095699999976,46.79492200000004,20.897460999999566,89.35888699999941,-98.71801800000003,107.82031300000017
286,52.17968800000017,130.12841800000024,103.0771479999994,100.64111300000059,48.589844000000085,118.58984400000008,21.153809000000365,88.9741210000002,83.20507799999996,54.48730499999965,19.230956999999762,90.64111300000059,-92.69238299999961,102.05126999999993
287,53.333496000000196,135.6411130000006,101.41015599999992,103.46142599999985,52.82031300000017,119.23095699999976,19.74365200000011,92.43603499999972,85.89746099999957,61.2822270000006,20.0,89.35888699999941,-88.97436500000003,103.7177729999994
288,52.69238299999961,136.2822270000006,98.46142599999985,106.2822270000006,54.35888699999941,118.7177729999994,18.205077999999958,94.23095699999976,87.30761700000039,63.846190999999635,22.56396500000028,87.82031300000017,-87.69238299999961,109.23095699999976
289,52.82031300000017,131.15380900000036,97.69238299999961,106.53857400000015,53.0771479999994,118.58984400000008,16.666503999999804,94.74365200000011,87.82031300000017,62.56396500000028,25.641113000000587,88.3334960000002,-86.66674799999964,109.74365200000011
290,55.38476599999922,123.9741210000002,100.38476599999922,106.0258789999998,51.025878999999804,119.48730499999965,15.897460999999566,95.12841800000024,88.0771479999994,59.87158199999976,28.333496000000196,91.2822270000006,-84.23071300000038,106.79492200000004
291,59.102539000000434,119.10253900000043,104.23095699999976,107.69238299999961,49.61523400000078,120.76904300000024,15.897460999999566,95.25634799999989,87.94873000000007,57.94873000000007,30.641113000000587,95.0,-81.66674799999964,107.94873000000007
292,61.2822270000006,119.74365200000011,105.64111300000059,112.30761700000039,49.87158199999976,121.0258789999998,14.871581999999762,94.61523400000078,87.30761700000039,56.9228520000006,33.46142599999985,97.56396500000028,-81.02563499999997,112.43603499999972
293,60.64111300000059,125.38476599999922,103.20507799999996,117.43603499999972,51.9228520000006,120.12841800000024,11.153809000000365,93.20507799999996,86.6665039999998,56.153809000000365,37.69238299999961,97.82031300000017,-83.33325200000036,111.9228520000006
294,57.43603499999972,132.05126999999993,99.35888699999941,120.0,54.48730499999965,118.46142599999985,5.512695000000349,90.89746099999957,86.0258789999998,55.38476599999922,41.79492200000004,96.2822270000006,-86.53857400000015,106.0258789999998
295,53.333496000000196,135.51269500000035,97.69238299999961,118.7177729999994,55.12841800000024,116.53857400000015,0.256347999999889,88.3334960000002,85.89746099999957,55.12841800000024,42.69238299999961,93.9741210000002,-87.43579099999943,103.46142599999985
296,50.76904300000024,134.48730499999965,99.61523400000078,115.0,53.0771479999994,115.51269500000035,-2.5639650000002803,85.89746099999957,86.15380900000036,55.76904300000024,38.589844000000085,92.17968800000017,-83.71801800000003,106.2822270000006
297,51.025878999999804,131.53857400000015,103.3334960000002,110.89746099999957,49.87158199999976,115.64111300000059,-2.8203119999998307,84.74365200000011,86.6665039999998,57.05126999999993,31.538574000000153,91.6665039999998,-76.28198199999997,107.17968800000017
298,52.69238299999961,129.48730499999965,105.89746099999957,107.05126999999993,47.82031300000017,116.41015599999992,-1.9228520000006029,85.25634799999989,86.79492200000004,58.333496000000196,25.384765999999217,92.05126999999993,-69.10253899999998,103.58984400000008
299,53.7177729999994,128.20507799999996,105.38476599999922,103.84619099999964,47.56396500000028,115.76904300000024,-0.6411130000005869,86.2822270000006,86.53857400000015,58.974121000000196,23.205077999999958,92.30761700000039,-66.53857400000015,102.69238299999961
300,53.589844000000085,126.15380900000036,102.56396500000028,102.69238299999961,48.974121000000196,113.46142599999985,0.256347999999889,87.05126999999993,86.9228520000006,59.102539000000434,25.0,92.30761700000039,-69.10253899999998,107.56396500000028
301,54.74365200000011,124.10253900000043,100.76904300000024,106.0258789999998,51.79492200000004,110.89746099999957,0.6411130000005869,87.69238299999961,88.7177729999994,60.0,29.615234000000783,92.69238299999961,-72.69238299999961,110.25634799999989
302,58.589844000000085,123.84619099999964,102.69238299999961,113.0771479999994,55.25634799999989,109.10253900000043,0.512695000000349,88.7177729999994,91.53857400000015,62.05126999999993,35.76904300000024,94.10253900000043,-72.43579099999943,105.38476599999922
303,63.20507799999996,126.0258789999998,107.05126999999993,120.12841800000024,57.43603499999972,107.82031300000017,-0.6411130000005869,89.48730499999965,92.94873000000007,63.846190999999635,41.79492200000004,95.89746099999957,-68.07690400000001,100.25634799999989
304,64.10253900000043,129.48730499999965,110.0,122.05126999999993,56.666503999999804,106.15380900000036,-3.846190999999635,88.20507799999996,91.2822270000006,63.333496000000196,45.25634799999989,96.6665039999998,-63.71801800000003,103.0771479999994
305,60.0,132.43603499999972,108.58984400000008,117.56396500000028,53.846190999999635,105.0,-8.846190999999635,84.23095699999976,86.9228520000006,59.87158199999976,45.64111300000059,95.64111300000059,-63.07690400000001,109.23095699999976
306,53.974121000000196,133.58984400000008,103.58984400000008,109.74365200000011,51.9228520000006,105.89746099999957,-14.230713000000378,79.35888699999941,83.0771479999994,55.51269500000035,43.974121000000196,93.7177729999994,-66.15380900000036,110.0
307,50.38476599999922,133.0771479999994,98.9741210000002,104.10253900000043,53.333496000000196,109.10253900000043,-18.076904000000013,76.53857400000015,82.56396500000028,53.333496000000196,42.43603499999972,92.05126999999993,-69.23071300000038,107.56396500000028
308,51.666503999999804,131.9228520000006,97.94873000000007,104.10253900000043,57.05126999999993,112.17968800000017,-20.0,77.17968800000017,86.0258789999998,54.87158199999976,42.17968800000017,91.2822270000006,-67.94872999999961,108.9741210000002
309,56.53857400000015,131.9228520000006,100.64111300000059,108.20507799999996,59.87158199999976,113.20507799999996,-21.41015600000037,80.51269500000035,91.0258789999998,58.974121000000196,43.46142599999985,91.6665039999998,-60.64111300000013,112.17968800000017
310,61.666503999999804,133.46142599999985,105.0,112.56396500000028,58.974121000000196,111.2822270000006,-23.71801800000003,83.7177729999994,94.10253900000043,62.94873000000007,45.25634799999989,92.56396500000028,-50.0,110.25634799999989
311,63.974121000000196,134.23095699999976,108.20507799999996,113.20507799999996,54.102539000000434,107.30761700000039,-27.820557000000008,84.10253900000043,93.0771479999994,63.7177729999994,46.410155999999915,93.3334960000002,-41.41015600000037,104.74365200000011
312,62.82031300000017,132.6923829999996,108.84619099999964,110.12841800000024,48.46142599999985,102.82031300000017,-32.564209000000574,80.64111300000059,88.58984400000008,60.64111300000059,46.666503999999804,93.20507799999996,-38.20507799999996,104.48730499999965
313,60.64111300000059,130.89746099999957,107.30761700000039,106.53857400000015,46.53857400000015,100.51269500000035,-36.025634999999966,75.89746099999957,83.7177729999994,56.410155999999915,48.0771479999994,92.69238299999961,-38.46142599999985,109.10253900000043
314,60.897460999999566,132.6923829999996,105.51269500000035,106.79492200000004,51.2822270000006,102.56396500000028,-36.28198199999997,73.58984400000008,82.30761700000039,54.87158199999976,53.333496000000196,93.3334960000002,-36.025634999999966,109.61523400000078
315,64.10253900000043,138.3334960000002,105.0,111.79492200000004,60.38476599999922,107.30761700000039,-33.974365000000034,75.64111300000059,86.0258789999998,57.43603499999972,61.410155999999915,95.38476599999922,-28.205077999999958,104.35888699999941
316,66.79492200000004,143.58984400000008,104.87158199999976,117.94873000000007,67.30761700000039,110.12841800000024,-31.923095999999987,80.0,92.30761700000039,61.2822270000006,66.6665039999998,96.9228520000006,-18.974365000000034,102.30761700000039
317,65.64111300000059,144.10253900000043,102.94873000000007,120.64111300000059,67.30761700000039,108.58984400000008,-32.82055700000001,82.56396500000028,96.6665039999998,62.69238299999961,64.10253900000043,95.89746099999957,-14.358886999999868,107.05126999999993
318,61.153809000000365,140.38476599999922,98.58984400000008,118.0771479999994,61.666503999999804,104.48730499999965,-37.051270000000386,81.2822270000006,96.53857400000015,61.025878999999804,54.87158199999976,92.30761700000039,-16.025634999999966,110.12841800000024
319,57.56396500000028,136.41015599999992,94.35888699999941,112.05126999999993,56.153809000000365,102.17968800000017,-41.79492200000004,77.69238299999961,93.46142599999985,59.102539000000434,45.51269500000035,88.84619099999964,-18.974365000000034,105.89746099999957
320,57.94873000000007,135.6411130000006,93.7177729999994,106.0258789999998,55.12841800000024,103.84619099999964,-44.10253899999998,74.48730499999965,91.41015599999992,60.897460999999566,42.56396500000028,88.58984400000008,-17.435790999999426,100.89746099999957
321,62.43603499999972,138.46142599999985,97.94873000000007,103.0771479999994,59.23095699999976,108.46142599999985,-42.30761700000039,74.23095699999976,93.3334960000002,67.30761700000039,48.974121000000196,92.30761700000039,-9.230713000000378,102.05126999999993
322,69.35888699999941,142.82031300000017,105.51269500000035,105.0,65.76904300000024,114.35888699999941,-37.051270000000386,77.94873000000007,98.84619099999964,75.89746099999957,62.30761700000039,98.84619099999964,2.6923829999996087,105.12841800000024
323,76.53857400000015,146.15380900000036,113.20507799999996,112.17968800000017,71.15380900000036,120.12841800000024,-30.89746100000002,84.10253900000043,105.25634799999989,82.43603499999972,76.0258789999998,105.89746099999957,11.922852000000603,103.7177729999994
324,81.15380900000036,146.6665039999998,118.20507799999996,121.9228520000006,72.56396500000028,123.9741210000002,-26.666747999999643,89.10253900000043,109.10253900000043,83.7177729999994,83.0771479999994,111.15380900000036,12.948730000000069,101.79492200000004
325,81.41015599999992,144.7436520000001,118.9741210000002,128.46142599999985,70.0,124.35888699999941,-27.051270000000386,89.48730499999965,108.7177729999994,79.74365200000011,80.51269500000035,112.17968800000017,5.0,105.89746099999957
326,77.56396500000028,142.56396500000028,115.38476599999922,127.94873000000007,66.0258789999998,121.79492200000004,-31.794922000000042,84.87158199999976,104.74365200000011,73.84619099999964,71.53857400000015,108.7177729999994,-6.025634999999966,111.53857400000015
327,71.9228520000006,142.05126999999993,109.74365200000011,120.76904300000024,64.10253900000043,118.46142599999985,-38.33325200000036,78.0771479999994,99.48730499999965,69.74365200000011,62.05126999999993,103.3334960000002,-12.051270000000386,110.25634799999989
328,66.6665039999998,142.17968800000017,105.25634799999989,111.2822270000006,64.74365200000011,116.15380900000036,-42.948729999999614,72.17968800000017,95.51269500000035,69.23095699999976,55.64111300000059,98.84619099999964,-10.1281740000004,104.61523400000078
329,62.82031300000017,140.76904300000024,103.3334960000002,103.9741210000002,66.2822270000006,115.38476599999922,-44.10253899999998,68.9741210000002,93.84619099999964,69.87158199999976,52.30761700000039,96.53857400000015,-3.9741210000001956,103.84619099999964
330,60.51269500000035,137.3076170000004,103.3334960000002,100.64111300000059,66.79492200000004,115.51269500000035,-43.07690400000001,68.9741210000002,93.3334960000002,68.3334960000002,50.897460999999566,95.38476599999922,-0.256347999999889,107.94873000000007
331,59.87158199999976,133.58984400000008,103.58984400000008,101.0258789999998,66.0258789999998,116.53857400000015,-42.82055700000001,71.2822270000006,92.05126999999993,63.20507799999996,51.2822270000006,95.0,-1.5385740000001533,108.3334960000002
332,60.25634799999989,130.51269500000035,103.46142599999985,103.9741210000002,64.23095699999976,117.17968800000017,-45.38452099999995,73.7177729999994,89.74365200000011,56.666503999999804,53.7177729999994,95.76904300000024,-5.769286999999622,103.84619099999964
333,60.38476599999922,126.9228520000006,103.58984400000008,107.43603499999972,61.2822270000006,115.89746099999957,-50.64111300000013,74.23095699999976,87.43603499999972,53.46142599999985,57.43603499999972,97.82031300000017,-8.333252000000357,102.82031300000017
334,60.0,122.30761700000039,104.23095699999976,109.23095699999976,57.82031300000017,112.30761700000039,-56.53857400000015,72.05126999999993,87.30761700000039,56.410155999999915,60.64111300000059,100.51269500000035,-6.281981999999971,107.69238299999961
335,60.0,118.84619099999964,104.87158199999976,108.3334960000002,54.87158199999976,108.46142599999985,-61.025634999999966,68.7177729999994,90.0,64.10253900000043,62.82031300000017,102.56396500000028,-1.153809000000365,109.87158199999976
336,60.897460999999566,119.35888699999941,104.10253900000043,104.35888699999941,53.333496000000196,106.2822270000006,-63.33325200000036,66.2822270000006,93.9741210000002,71.53857400000015,63.333496000000196,102.94873000000007,2.1796880000001693,105.51269500000035
337,61.410155999999915,123.58984400000008,101.41015599999992,99.10253900000043,52.94873000000007,106.0258789999998,-63.974365000000034,66.2822270000006,97.17968800000017,74.48730499999965,61.153809000000365,101.0258789999998,-1.153809000000365,102.05126999999993
338,60.0,128.7177729999994,97.82031300000017,95.76904300000024,53.589844000000085,107.30761700000039,-63.71801800000003,68.84619099999964,98.84619099999964,73.0771479999994,56.53857400000015,97.43603499999972,-10.1281740000004,105.25634799999989
339,58.333496000000196,132.05126999999993,96.0258789999998,97.43603499999972,56.2822270000006,109.74365200000011,-62.948729999999614,73.84619099999964,99.74365200000011,70.76904300000024,51.666503999999804,94.61523400000078,-17.30761700000039,108.9741210000002
340,58.7177729999994,132.17968800000017,97.69238299999961,103.58984400000008,60.51269500000035,112.82031300000017,-61.153809000000365,79.61523400000078,100.25634799999989,71.0258789999998,50.25634799999989,94.74365200000011,-16.41015600000037,106.41015599999992
341,61.9228520000006,129.23095699999976,102.17968800000017,109.10253900000043,63.974121000000196,114.48730499999965,-58.974365000000034,82.94873000000007,100.38476599999922,73.3334960000002,53.589844000000085,98.0771479999994,-8.71801800000003,103.0771479999994
342,65.12841800000024,124.74365200000011,106.9228520000006,108.9741210000002,64.10253900000043,113.58984400000008,-57.564209000000574,82.05126999999993,100.0,74.61523400000078,58.846190999999635,102.05126999999993,-2.6923829999996087,105.89746099999957
343,65.0,121.0258789999998,109.61523400000078,103.0771479999994,61.79492200000004,111.9228520000006,-57.948729999999614,77.69238299999961,99.48730499999965,72.17968800000017,61.025878999999804,104.10253900000043,-5.512939000000188,110.51269500000035
344,60.38476599999922,119.10253900000043,110.51269500000035,96.6665039999998,60.12841800000024,112.05126999999993,-59.48706099999981,73.84619099999964,99.35888699999941,66.79492200000004,58.20507799999996,103.7177729999994,-16.794922000000042,108.3334960000002
345,53.0771479999994,117.56396500000028,110.64111300000059,95.25634799999989,61.025878999999804,115.12841800000024,-60.89746100000002,73.3334960000002,99.87158199999976,61.9228520000006,52.82031300000017,102.05126999999993,-29.230713000000378,102.17968800000017
346,47.30761700000039,114.61523400000078,111.2822270000006,100.38476599999922,63.974121000000196,118.9741210000002,-61.53857400000015,76.0258789999998,100.51269500000035,60.76904300000024,50.25634799999989,101.53857400000015,-33.58984399999963,101.41015599999992
347,47.94873000000007,110.38476599999922,112.30761700000039,108.46142599999985,66.9228520000006,121.79492200000004,-61.79492200000004,80.12841800000024,101.15380900000036,64.35888699999941,54.87158199999976,103.3334960000002,-24.358886999999868,105.89746099999957
348,57.05126999999993,106.6665039999998,113.20507799999996,113.9741210000002,68.84619099999964,122.30761700000039,-62.82055700000001,82.69238299999961,101.0258789999998,70.64111300000059,66.6665039999998,107.30761700000039,-2.8203119999998307,107.43603499999972
349,71.9228520000006,103.9741210000002,113.3334960000002,114.10253900000043,68.7177729999994,120.64111300000059,-64.48706099999981,82.43603499999972,100.0,77.05126999999993,80.76904300000024,112.17968800000017,24.230956999999762,104.48730499999965
350,87.05126999999993,100.12841800000024,113.46142599999985,110.38476599999922,66.41015599999992,118.0771479999994,-65.89746100000002,80.0,99.23095699999976,82.94873000000007,91.53857400000015,117.17968800000017,49.48730499999965,104.10253900000043
351,98.0771479999994,93.3334960000002,115.0,107.17968800000017,62.94873000000007,116.79492200000004,-65.76928699999962,77.69238299999961,100.64111300000059,90.0,97.30761700000039,123.20507799999996,71.0258789999998,107.69238299999961
352,104.35888699999941,83.84619099999964,119.35888699999941,106.53857400000015,60.64111300000059,118.58984400000008,-64.48706099999981,78.3334960000002,105.64111300000059,99.35888699999941,101.41015599999992,130.2563479999999,90.89746099999957,108.20507799999996
353,107.30761700000039,73.3334960000002,124.87158199999976,105.12841800000024,60.0,121.9228520000006,-63.33325200000036,82.43603499999972,111.79492200000004,108.84619099999964,107.43603499999972,136.6665039999998,111.0258789999998,103.7177729999994
354,107.69238299999961,64.10253900000043,128.0771479999994,98.7177729999994,60.0,123.0771479999994,-64.23071300000038,87.17968800000017,114.61523400000078,114.10253900000043,115.64111300000059,139.61523400000078,128.9741210000002,102.30761700000039
355,105.76904300000024,58.7177729999994,126.15380900000036,88.9741210000002,58.846190999999635,119.61523400000078,-67.69238299999961,89.10253900000043,110.12841800000024,112.05126999999993,122.43603499999972,138.3334960000002,139.87158199999976,107.56396500000028
356,102.17968800000017,58.0771479999994,119.74365200000011,83.0771479999994,57.17968800000017,113.3334960000002,-72.30761700000039,87.05126999999993,99.10253900000043,104.10253900000043,124.48730499999965,133.84619099999964,142.05126999999993,111.41015599999992
357,98.46142599999985,60.12841800000024,113.0771479999994,86.53857400000015,55.76904300000024,108.84619099999964,-75.1281740000004,82.82031300000017,86.2822270000006,95.64111300000059,121.2822270000006,128.84619099999964,136.9228520000006,107.69238299999961
358,95.51269500000035,60.51269500000035,109.87158199999976,96.41015599999992,54.35888699999941,109.10253900000043,-74.23071300000038,78.7177729999994,77.82031300000017,91.41015599999992,115.0,125.0,128.20507799999996,102.56396500000028
359,93.58984400000008,57.05126999999993,110.51269500000035,103.3334960000002,51.666503999999804,113.20507799999996,-70.76928699999962,76.79492200000004,76.6665039999998,93.0771479999994,109.74365200000011,123.20507799999996,119.74365200000011,104.35888699999941
360,93.0771479999994,51.025878999999804,112.69238299999961,100.51269500000035,48.333496000000196,117.94873000000007,-67.69238299999961,77.82031300000017,80.89746099999957,98.7177729999994,107.69238299999961,123.3334960000002,113.9741210000002,108.9741210000002
361,93.0771479999994,46.025878999999804,114.10253900000043,90.64111300000059,46.025878999999804,120.12841800000024,-67.69238299999961,81.41015599999992,86.9228520000006,104.61523400000078,108.46142599999985,123.84619099999964,110.76904300000024,109.10253900000043
362,92.17968800000017,43.7177729999994,114.61523400000078,83.0771479999994,45.897460999999566,118.20507799999996,-70.64111300000013,85.38476599999922,91.2822270000006,107.56396500000028,109.23095699999976,123.84619099999964,108.3334960000002,107.05126999999993
363,90.0,43.7177729999994,114.87158199999976,85.64111300000059,48.0771479999994,113.58984400000008,-73.97436500000003,87.30761700000039,92.30761700000039,107.56396500000028,108.20507799999996,122.94873000000007,106.2822270000006,108.9741210000002
364,88.3334960000002,45.0,115.38476599999922,98.20507799999996,51.153809000000365,110.0,-74.8718259999996,86.9228520000006,90.76904300000024,107.30761700000039,106.6665039999998,122.82031300000017,105.76904300000024,112.17968800000017
365,88.9741210000002,47.56396500000028,116.2822270000006,112.43603499999972,53.974121000000196,110.89746099999957,-72.56420900000057,85.64111300000059,89.23095699999976,108.3334960000002,106.6665039999998,124.23095699999976,107.69238299999961,108.9741210000002
366,90.64111300000059,50.897460999999566,117.05126999999993,117.43603499999972,54.61523400000078,115.51269500000035,-68.84619099999964,84.74365200000011,89.48730499999965,109.87158199999976,107.82031300000017,126.53857400000015,110.12841800000024,101.79492200000004
367,90.25634799999989,53.846190999999635,116.41015599999992,108.9741210000002,51.666503999999804,119.48730499999965,-66.92309599999999,83.84619099999964,91.15380900000036,111.0258789999998,108.20507799999996,127.43603499999972,110.38476599999922,100.0
368,86.79492200000004,55.38476599999922,114.35888699999941,94.10253900000043,46.666503999999804,118.7177729999994,-68.97436500000003,82.82031300000017,92.69238299999961,111.53857400000015,107.69238299999961,126.79492200000004,108.0771479999994,104.48730499999965
369,82.94873000000007,54.87158199999976,112.56396500000028,85.25634799999989,43.333496000000196,113.84619099999964,-74.23071300000038,81.79492200000004,92.69238299999961,112.82031300000017,108.84619099999964,126.41015599999992,105.64111300000059,106.15380900000036
370,81.15380900000036,52.05126999999993,112.94873000000007,89.35888699999941,43.7177729999994,108.46142599999985,-79.35888699999987,81.6665039999998,91.41015599999992,114.61523400000078,113.20507799999996,128.7177729999994,105.51269500000035,102.69238299999961
371,81.79492200000004,47.82031300000017,115.51269500000035,101.79492200000004,47.17968800000017,105.89746099999957,-80.38452099999995,82.17968800000017,90.25634799999989,115.76904300000024,118.7177729999994,133.46142599999985,107.43603499999972,101.9228520000006
372,83.58984400000008,44.35888699999941,118.3334960000002,112.43603499999972,51.666503999999804,107.17968800000017,-76.28198199999997,83.3334960000002,90.64111300000059,115.64111300000059,121.41015599999992,137.3076170000004,109.87158199999976,106.41015599999992
373,86.15380900000036,44.74365200000011,119.74365200000011,115.89746099999957,55.76904300000024,111.2822270000006,-69.35888699999987,85.12841800000024,93.3334960000002,115.25634799999989,119.10253900000043,138.0771479999994,111.6665039999998,108.0771479999994
374,88.9741210000002,48.7177729999994,119.74365200000011,114.48730499999965,58.333496000000196,115.76904300000024,-63.71801800000003,87.56396500000028,97.69238299999961,115.89746099999957,112.94873000000007,135.38476599999922,112.17968800000017,102.69238299999961
375,91.0258789999998,51.9228520000006,119.35888699999941,113.3334960000002,58.0771479999994,117.43603499999972,-62.30761700000039,89.35888699999941,101.41015599999992,117.43603499999972,107.17968800000017,131.2822270000006,110.64111300000059,98.58984400000008
376,91.2822270000006,50.12841800000024,119.74365200000011,114.74365200000011,54.74365200000011,115.64111300000059,-64.8718259999996,90.25634799999989,102.17968800000017,118.58984400000008,105.76904300000024,128.58984400000008,108.0771479999994,102.94873000000007
377,90.89746099999957,44.35888699999941,121.6665039999998,117.17968800000017,51.2822270000006,112.94873000000007,-67.82055700000001,91.15380900000036,100.64111300000059,119.10253900000043,109.48730499999965,129.7436520000001,106.79492200000004,109.48730499999965
378,92.05126999999993,40.64111300000059,125.0,117.94873000000007,50.897460999999566,112.30761700000039,-67.43579099999943,93.46142599999985,99.87158199999976,120.64111300000059,115.38476599999922,135.2563479999999,109.23095699999976,110.12841800000024
379,94.48730499999965,43.46142599999985,128.7177729999994,115.76904300000024,54.61523400000078,114.74365200000011,-63.07690400000001,97.56396500000028,103.3334960000002,124.87158199999976,119.23095699999976,142.6923829999996,115.0,107.94873000000007
380,96.2822270000006,51.9228520000006,130.6411130000006,112.30761700000039,59.35888699999941,118.46142599999985,-57.948729999999614,101.6665039999998,110.76904300000024,131.2822270000006,120.38476599999922,147.56396500000028,120.0,109.87158199999976
381,95.12841800000024,60.25634799999989,129.48730499999965,110.38476599999922,62.05126999999993,121.0258789999998,-56.41015600000037,103.58984400000008,118.3334960000002,136.9228520000006,121.15380900000036,146.53857400000015,120.51269500000035,112.94873000000007
382,90.38476599999922,62.30761700000039,125.38476599999922,109.48730499999965,60.897460999999566,120.89746099999957,-60.0,101.79492200000004,120.25634799999989,137.56396500000028,122.94873000000007,140.0,115.51269500000035,109.61523400000078
383,83.0771479999994,55.897460999999566,119.23095699999976,106.79492200000004,55.64111300000059,117.94873000000007,-66.02563499999997,96.2822270000006,113.9741210000002,131.2822270000006,123.20507799999996,131.2822270000006,106.15380900000036,102.82031300000017
