,EEG.AF3,EEG.F7,EEG.F3,EEG.FC5,EEG.T7,EEG.P7,EEG.O1,EEG.O2,EEG.P8,EEG.T8,EEG.FC6,EEG.F4,EEG.F8,EEG.AF4
0,223.58984400000008,216.2822270000006,136.53857400000015,148.7177729999994,91.53857400000015,129.7436520000001,70.0,98.46142599999985,109.74365200000011,80.25634799999989,5.897460999999566,128.7177729999994,81.15380900000036,113.58984400000008
1,220.89746099999957,226.2822270000006,135.76904300000024,147.82031300000017,96.15380900000036,133.7177729999994,71.53857400000015,97.05126999999993,106.0258789999998,75.25634799999989,-1.9228520000006029,125.0,63.974121000000196,110.89746099999957
2,214.7436520000001,231.0258789999998,135.89746099999957,144.87158199999976,95.12841800000024,131.6665039999998,72.69238299999961,98.20507799999996,102.94873000000007,70.89746099999957,-9.358886999999868,120.12841800000024,43.0771479999994,107.82031300000017
3,211.2822270000006,236.0258789999998,137.56396500000028,143.20507799999996,90.89746099999957,123.84619099999964,70.64111300000059,101.15380900000036,103.46142599999985,69.87158199999976,-12.179442999999992,118.20507799999996,26.282227000000603,110.76904300000024
4,215.12841800000024,247.17968800000017,140.76904300000024,145.38476599999922,88.20507799999996,115.38476599999922,65.89746099999957,105.51269500000035,108.58984400000008,73.9741210000002,-9.230713000000378,121.41015599999992,18.846190999999635,114.35888699999941
5,223.84619099999964,263.7177729999994,143.58984400000008,150.38476599999922,90.0,110.76904300000024,61.666503999999804,109.48730499999965,115.64111300000059,79.61523400000078,-6.153809000000365,126.9228520000006,16.922852000000603,112.17968800000017
6,229.10253900000043,278.20507799999996,143.9741210000002,153.9741210000002,93.9741210000002,110.0,59.87158199999976,110.0,119.10253900000043,79.48730499999965,-10.641113000000132,128.58984400000008,10.384765999999217,108.20507799999996
7,225.2563479999999,283.9741210000002,140.0,152.3076170000004,96.53857400000015,110.12841800000024,59.35888699999941,105.89746099999957,115.89746099999957,70.38476599999922,-24.74365200000011,123.0771479999994,-6.281981999999971,109.87158199999976
8,214.61523400000078,282.05126999999993,133.46142599999985,146.2822270000006,96.6665039999998,109.10253900000043,57.82031300000017,99.10253900000043,108.3334960000002,56.2822270000006,-41.41015600000037,113.3334960000002,-28.076904000000013,113.3334960000002
9,203.7177729999994,278.84619099999964,128.0771479999994,139.87158199999976,95.64111300000059,106.15380900000036,53.333496000000196,93.3334960000002,101.53857400000015,44.23095699999976,-51.53857400000015,105.25634799999989,-45.76928699999962,110.51269500000035
10,196.6665039999998,279.6152340000008,126.53857400000015,137.17968800000017,95.12841800000024,101.0258789999998,46.666503999999804,90.12841800000024,98.3334960000002,38.589844000000085,-52.69238299999961,101.6665039999998,-55.89746100000002,104.23095699999976
11,193.58984400000008,285.12841800000024,128.46142599999985,139.10253900000043,96.6665039999998,96.2822270000006,40.38476599999922,88.84619099999964,98.7177729999994,38.589844000000085,-49.35888699999987,101.41015599999992,-62.17944299999999,104.23095699999976
12,191.6665039999998,293.3334960000002,131.15380900000036,143.46142599999985,101.41015599999992,95.12841800000024,37.94873000000007,88.7177729999994,100.51269500000035,40.25634799999989,-47.564209000000574,101.79492200000004,-70.1281740000004,109.87158199999976
13,188.3334960000002,300.89746099999957,131.9228520000006,146.9228520000006,109.23095699999976,99.10253900000043,40.897460999999566,89.23095699999976,101.2822270000006,39.61523400000078,-50.64111300000013,99.74365200000011,-82.30761700000039,111.79492200000004
14,181.53857400000015,305.0,130.0,146.6665039999998,117.43603499999972,105.25634799999989,46.410155999999915,89.35888699999941,99.10253900000043,34.23095699999976,-57.948729999999614,94.23095699999976,-97.05127000000039,107.82031300000017
15,172.17968800000017,305.51269500000035,126.15380900000036,142.56396500000028,123.3334960000002,108.7177729999994,49.74365200000011,87.69238299999961,94.61523400000078,25.641113000000587,-66.15380900000036,86.41015599999992,-110.76928699999962,106.15380900000036
16,163.84619099999964,306.15380900000036,122.30761700000039,137.05126999999993,126.9228520000006,108.46142599999985,48.46142599999985,84.48730499999965,91.0258789999998,18.205077999999958,-70.76928699999962,79.87158199999976,-120.0,109.35888699999941
17,160.38476599999922,311.2822270000006,120.89746099999957,133.84619099999964,131.15380900000036,106.6665039999998,44.48730499999965,80.76904300000024,90.38476599999922,15.128418000000238,-70.51293900000019,77.30761700000039,-123.97436500000003,109.48730499999965
18,160.89746099999957,321.2822270000006,122.69238299999961,134.3588869999994,137.3076170000004,105.51269500000035,41.53857400000015,77.82031300000017,91.53857400000015,15.641113000000587,-67.43579099999943,78.20507799999996,-126.92309599999999,103.3334960000002
19,161.0258789999998,332.5639650000003,126.15380900000036,136.41015599999992,144.23095699999976,105.25634799999989,41.2822270000006,76.15380900000036,91.53857400000015,16.666503999999804,-65.25634799999989,79.87158199999976,-133.71801800000003,99.48730499999965
20,157.05126999999993,340.89746099999957,128.3334960000002,136.2822270000006,150.0,105.38476599999922,43.333496000000196,76.2822270000006,89.23095699999976,16.538574000000153,-65.0,80.51269500000035,-145.5129390000002,103.58984400000008
21,148.84619099999964,344.3588869999994,127.82031300000017,132.82031300000017,152.94873000000007,105.25634799999989,45.25634799999989,78.20507799999996,85.89746099999957,15.384765999999217,-65.76928699999962,79.35888699999941,-158.58984399999963,108.58984400000008
22,138.58984400000008,343.46142599999985,125.51269500000035,127.56396500000028,152.3076170000004,103.58984400000008,44.48730499999965,79.87158199999976,83.58984400000008,13.077147999999397,-68.20507799999996,76.0258789999998,-169.35888699999987,107.43603499999972
23,128.20507799999996,340.3847659999992,122.69238299999961,123.58984400000008,148.20507799999996,99.48730499999965,39.74365200000011,77.94873000000007,82.05126999999993,8.461425999999847,-73.46142599999985,70.38476599999922,-178.71801800000003,105.0
24,118.46142599999985,338.0771479999994,119.61523400000078,122.05126999999993,142.82031300000017,94.87158199999976,33.333496000000196,71.9228520000006,80.64111300000059,1.9228520000006029,-81.02563499999997,63.589844000000085,-188.84619099999964,107.94873000000007
25,110.64111300000059,338.46142599999985,116.2822270000006,121.9228520000006,140.12841800000024,92.94873000000007,29.102539000000434,64.87158199999976,79.10253900000043,-4.487060999999812,-86.28198199999997,58.20507799999996,-200.1281740000004,111.6665039999998
26,105.0,341.79492200000004,113.20507799999996,120.64111300000059,141.0258789999998,95.12841800000024,29.871581999999762,60.76904300000024,77.05126999999993,-9.230713000000378,-86.53857400000015,55.51269500000035,-211.15380900000036,109.35888699999941
27,99.87158199999976,345.12841800000024,111.0258789999998,116.53857400000015,142.3076170000004,98.3334960000002,33.846190999999635,60.12841800000024,74.23095699999976,-13.076904000000013,-83.84619099999964,54.61523400000078,-221.28198199999997,105.38476599999922
28,93.46142599999985,346.2822270000006,109.10253900000043,110.64111300000059,140.12841800000024,98.7177729999994,36.79492200000004,60.51269500000035,70.25634799999989,-17.820557000000008,-83.58984399999963,52.82031300000017,-230.76928699999962,107.82031300000017
29,86.0258789999998,346.53857400000015,106.9228520000006,106.79492200000004,135.2563479999999,95.12841800000024,35.76904300000024,59.23095699999976,66.2822270000006,-23.71801800000003,-88.71801800000003,49.102539000000434,-239.7436520000001,113.46142599999985
30,79.74365200000011,348.84619099999964,105.25634799999989,107.82031300000017,132.05126999999993,89.74365200000011,30.51269500000035,55.64111300000059,63.974121000000196,-29.358886999999868,-97.05127000000039,44.87158199999976,-246.79492200000004,113.20507799999996
31,75.76904300000024,354.10253900000043,104.87158199999976,112.05126999999993,134.3588869999994,85.0,22.82031300000017,50.897460999999566,63.333496000000196,-33.58984399999963,-103.71801800000003,42.05126999999993,-251.28198199999997,108.0771479999994
32,73.7177729999994,360.12841800000024,105.12841800000024,115.25634799999989,141.41015599999992,82.56396500000028,15.769043000000238,47.17968800000017,63.7177729999994,-35.64111300000013,-104.74365200000011,41.9228520000006,-252.9487299999996,107.56396500000028
33,73.0771479999994,365.51269500000035,104.61523400000078,114.74365200000011,149.7436520000001,82.82031300000017,12.56396500000028,46.666503999999804,64.23095699999976,-35.25634799999989,-100.25634799999989,44.102539000000434,-251.923096,112.30761700000039
34,73.84619099999964,370.3847659999992,103.58984400000008,112.17968800000017,154.7436520000001,85.12841800000024,14.230956999999762,49.35888699999941,64.87158199999976,-33.846190999999635,-93.84619099999964,47.17968800000017,-249.8718259999996,112.69238299999961
35,73.7177729999994,374.3588869999994,103.20507799999996,110.89746099999957,152.6923829999996,87.17968800000017,18.333496000000196,53.20507799999996,65.12841800000024,-34.74365200000011,-90.76928699999962,47.82031300000017,-251.02563499999997,106.41015599999992
36,69.48730499999965,375.3847659999992,103.7177729999994,111.2822270000006,142.82031300000017,86.9228520000006,22.17968800000017,55.12841800000024,64.74365200000011,-40.51293900000019,-93.46142599999985,44.23095699999976,-259.7436520000001,102.05126999999993
37,60.38476599999922,371.6665039999998,103.7177729999994,111.2822270000006,130.0,84.61523400000078,24.48730499999965,54.61523400000078,64.10253900000043,-49.61547900000005,-98.71801800000003,37.82031300000017,-275.38452099999995,103.84619099999964
38,49.87158199999976,363.84619099999964,102.82031300000017,108.84619099999964,121.15380900000036,83.3334960000002,26.794922000000042,54.102539000000434,64.23095699999976,-56.66674799999964,-99.48706099999981,32.30761700000039,-291.02563499999997,105.76904300000024
39,42.43603499999972,352.6923829999996,102.30761700000039,103.9741210000002,119.61523400000078,85.0,30.384765999999217,56.025878999999804,65.12841800000024,-57.82055700000001,-90.89746100000002,30.641113000000587,-297.820557,103.46142599999985
40,40.12841800000024,339.23095699999976,102.56396500000028,97.82031300000017,122.82031300000017,87.82031300000017,34.23095699999976,59.35888699999941,66.41015599999992,-53.20507799999996,-74.8718259999996,32.69238299999961,-291.53857400000015,102.30761700000039
41,42.56396500000028,325.76904300000024,102.69238299999961,93.0771479999994,127.17968800000017,89.35888699999941,36.9228520000006,62.05126999999993,67.17968800000017,-45.89746100000002,-57.051270000000386,36.025878999999804,-273.20507799999996,105.38476599999922
42,48.20507799999996,316.4101559999999,102.56396500000028,91.79492200000004,132.05126999999993,89.48730499999965,38.46142599999985,62.69238299999961,67.82031300000017,-38.846190999999635,-42.17944299999999,38.46142599999985,-248.46142599999985,107.05126999999993
43,54.61523400000078,312.4360349999997,103.20507799999996,93.20507799999996,138.7177729999994,89.48730499999965,40.38476599999922,61.79492200000004,68.58984400000008,-33.846190999999635,-32.17944299999999,39.74365200000011,-225.0,103.20507799999996
44,57.94873000000007,310.12841800000024,104.48730499999965,93.46142599999985,146.6665039999998,90.0,43.7177729999994,59.74365200000011,68.9741210000002,-31.923095999999987,-26.538574000000153,40.25634799999989,-210.0,101.0258789999998
45,56.2822270000006,303.9741210000002,104.74365200000011,89.61523400000078,153.20507799999996,90.25634799999989,47.30761700000039,57.17968800000017,68.9741210000002,-32.30761700000039,-22.69238299999961,40.51269500000035,-204.7436520000001,106.41015599999992
46,52.82031300000017,292.6923829999996,103.20507799999996,82.69238299999961,157.3076170000004,90.38476599999922,50.12841800000024,55.64111300000059,69.23095699999976,-32.69238299999961,-17.051270000000386,41.53857400000015,-203.33325200000036,112.82031300000017
47,51.79492200000004,279.23095699999976,101.0258789999998,76.2822270000006,159.3588869999994,91.2822270000006,52.56396500000028,56.53857400000015,70.38476599999922,-31.41015600000037,-7.564209000000574,43.974121000000196,-197.820557,111.2822270000006
48,53.7177729999994,266.0258789999998,99.61523400000078,72.17968800000017,160.76904300000024,93.46142599999985,56.153809000000365,59.61523400000078,71.6665039999998,-29.230713000000378,3.9741210000001956,46.666503999999804,-185.76928699999962,105.38476599999922
49,55.0,253.58984400000008,98.3334960000002,68.9741210000002,162.05126999999993,95.64111300000059,61.153809000000365,62.69238299999961,72.43603499999972,-28.076904000000013,13.333496000000196,47.82031300000017,-171.41015600000037,104.10253900000043
50,53.46142599999985,242.43603499999972,96.2822270000006,65.0,164.7436520000001,97.30761700000039,67.05126999999993,64.87158199999976,73.3334960000002,-27.69238299999961,18.205077999999958,47.30761700000039,-161.02563499999997,106.9228520000006
51,50.38476599999922,233.3334960000002,94.10253900000043,60.897460999999566,169.87158199999976,98.84619099999964,72.43603499999972,66.6665039999998,75.38476599999922,-26.153809000000365,20.769043000000238,46.79492200000004,-156.53857400000015,106.9228520000006
52,48.0771479999994,226.0258789999998,93.0771479999994,57.94873000000007,176.15380900000036,100.38476599999922,76.2822270000006,68.3334960000002,78.3334960000002,-22.30761700000039,25.128418000000238,47.94873000000007,-155.38452099999995,104.74365200000011
53,48.0771479999994,219.3588869999994,93.0771479999994,57.05126999999993,181.2822270000006,100.51269500000035,77.94873000000007,69.61523400000078,81.41015599999992,-16.923095999999987,32.94873000000007,51.025878999999804,-152.3076170000004,107.05126999999993
54,51.153809000000365,212.94873000000007,93.58984400000008,57.94873000000007,184.48730499999965,98.7177729999994,78.46142599999985,70.76904300000024,84.10253900000043,-11.41015600000037,43.20507799999996,55.51269500000035,-142.820557,112.17968800000017
55,56.666503999999804,207.6923829999996,94.74365200000011,60.12841800000024,187.3076170000004,96.6665039999998,80.0,72.43603499999972,86.6665039999998,-6.794922000000042,52.17968800000017,60.51269500000035,-126.53857400000015,111.41015599999992
56,62.56396500000028,203.0771479999994,97.17968800000017,62.82031300000017,190.89746099999957,95.51269500000035,83.3334960000002,75.25634799999989,88.20507799999996,-3.717772999999397,57.05126999999993,65.0,-107.94872999999961,104.87158199999976
57,66.0258789999998,197.82031300000017,100.25634799999989,64.35888699999941,193.7177729999994,94.87158199999976,87.56396500000028,78.20507799999996,88.46142599999985,-2.5639650000002803,57.43603499999972,67.82031300000017,-93.97436500000003,101.79492200000004
58,65.89746099999957,191.41015599999992,101.9228520000006,63.589844000000085,194.23095699999976,93.9741210000002,90.89746099999957,80.25634799999989,87.69238299999961,-2.1796869999998307,57.56396500000028,68.46142599999985,-86.41015600000037,105.25634799999989
59,64.61523400000078,185.38476599999922,101.6665039999998,60.64111300000059,193.84619099999964,93.84619099999964,93.20507799999996,81.9228520000006,87.69238299999961,-0.8974609999995664,63.0771479999994,68.46142599999985,-81.28198199999997,107.05126999999993
60,65.0,180.89746099999957,100.76904300000024,57.43603499999972,195.12841800000024,95.38476599999922,96.15380900000036,83.7177729999994,89.61523400000078,1.2822270000006029,75.0,69.10253900000043,-73.84619099999964,103.7177729999994
61,66.2822270000006,176.2822270000006,100.25634799999989,55.25634799999989,198.46142599999985,97.82031300000017,100.38476599999922,84.87158199999976,92.30761700000039,2.4360349999997197,88.3334960000002,70.25634799999989,-64.23071300000038,103.0771479999994
62,65.51269500000035,168.46142599999985,99.61523400000078,54.74365200000011,201.15380900000036,99.74365200000011,105.89746099999957,83.84619099999964,93.58984400000008,1.4101559999999154,96.41015599999992,70.64111300000059,-57.17944299999999,109.74365200000011
63,61.79492200000004,156.9228520000006,97.82031300000017,55.64111300000059,201.6665039999998,101.15380900000036,111.41015599999992,81.15380900000036,92.56396500000028,-0.769043000000238,96.79492200000004,69.87158199999976,-55.38452099999995,115.38476599999922
64,57.05126999999993,144.23095699999976,95.64111300000059,57.05126999999993,200.6411130000006,102.69238299999961,116.41015599999992,79.10253900000043,90.64111300000059,-2.4360349999997197,92.69238299999961,68.58984400000008,-57.051270000000386,112.82031300000017
65,53.333496000000196,133.0771479999994,94.35888699999941,57.56396500000028,199.61523400000078,104.10253900000043,120.64111300000059,79.23095699999976,89.23095699999976,-2.1796869999998307,89.48730499999965,67.43603499999972,-57.948729999999614,107.56396500000028
66,51.666503999999804,125.38476599999922,94.74365200000011,56.79492200000004,200.38476599999922,105.25634799999989,124.74365200000011,81.15380900000036,89.48730499999965,-0.769043000000238,90.12841800000024,66.9228520000006,-55.25634799999989,107.82031300000017
67,51.9228520000006,121.53857400000015,95.89746099999957,56.410155999999915,204.3588869999994,106.9228520000006,129.48730499999965,83.46142599999985,91.0258789999998,1.153809000000365,94.74365200000011,67.30761700000039,-49.10253899999998,110.25634799999989
68,53.46142599999985,120.76904300000024,96.9228520000006,58.46142599999985,212.05126999999993,110.38476599999922,135.0,85.51269500000035,93.20507799999996,3.077147999999397,100.89746099999957,68.3334960000002,-40.89746100000002,108.20507799999996
69,54.48730499999965,120.12841800000024,96.79492200000004,62.43603499999972,220.76904300000024,114.74365200000011,139.87158199999976,86.41015599999992,94.10253900000043,4.743652000000111,105.51269500000035,69.10253900000043,-33.07690400000001,105.12841800000024
70,52.56396500000028,116.9228520000006,94.61523400000078,65.25634799999989,227.05126999999993,117.17968800000017,142.94873000000007,85.89746099999957,92.69238299999961,5.897460999999566,106.9228520000006,68.20507799999996,-27.69238299999961,108.46142599999985
71,47.94873000000007,110.89746099999957,90.64111300000059,63.974121000000196,229.48730499999965,116.2822270000006,144.87158199999976,85.12841800000024,90.12841800000024,6.666503999999804,106.0258789999998,65.51269500000035,-24.61547900000005,114.23095699999976
72,44.23095699999976,105.0,87.30761700000039,59.61523400000078,230.0,112.94873000000007,146.9228520000006,85.89746099999957,88.46142599999985,8.333496000000196,105.0,62.94873000000007,-21.41015600000037,112.56396500000028
73,44.102539000000434,101.9228520000006,87.30761700000039,55.25634799999989,230.12841800000024,108.9741210000002,149.87158199999976,88.58984400000008,89.23095699999976,11.025878999999804,105.89746099999957,63.20507799999996,-17.051270000000386,104.23095699999976
74,47.43603499999972,101.41015599999992,90.76904300000024,53.846190999999635,230.0,104.74365200000011,152.43603499999972,91.2822270000006,92.17968800000017,14.487304999999651,108.58984400000008,66.53857400000015,-12.179442999999992,100.38476599999922
75,52.17968800000017,101.6665039999998,95.38476599999922,56.53857400000015,229.23095699999976,101.2822270000006,153.3334960000002,92.05126999999993,95.51269500000035,18.461425999999847,112.94873000000007,71.2822270000006,-7.179442999999992,104.10253900000043
76,57.05126999999993,102.17968800000017,99.35888699999941,62.05126999999993,228.9741210000002,100.25634799999989,153.3334960000002,91.2822270000006,97.94873000000007,23.461425999999847,119.61523400000078,75.64111300000059,-0.256347999999889,106.9228520000006
77,61.153809000000365,103.20507799999996,102.30761700000039,67.30761700000039,230.76904300000024,102.05126999999993,153.7177729999994,90.25634799999989,99.48730499999965,28.846190999999635,127.43603499999972,78.9741210000002,8.974121000000196,105.25634799999989
78,63.589844000000085,103.84619099999964,104.10253900000043,69.10253900000043,233.58984400000008,104.35888699999941,155.51269500000035,89.48730499999965,99.48730499999965,32.69238299999961,132.6923829999996,80.51269500000035,16.922852000000603,105.51269500000035
79,63.0771479999994,102.05126999999993,103.9741210000002,67.30761700000039,235.12841800000024,104.35888699999941,157.82031300000017,88.46142599999985,97.82031300000017,32.69238299999961,131.41015599999992,79.74365200000011,18.461425999999847,110.12841800000024
80,60.51269500000035,97.05126999999993,101.79492200000004,65.51269500000035,233.9741210000002,101.53857400000015,159.48730499999965,86.79492200000004,94.61523400000078,29.48730499999965,123.9741210000002,77.30761700000039,13.589844000000085,111.41015599999992
81,57.56396500000028,90.0,98.84619099999964,66.79492200000004,230.2563479999999,97.82031300000017,159.87158199999976,84.48730499999965,90.76904300000024,25.128418000000238,115.25634799999989,74.87158199999976,7.307617000000391,105.64111300000059
82,55.12841800000024,83.3334960000002,96.6665039999998,71.0258789999998,225.0,95.0,158.84619099999964,82.17968800000017,87.82031300000017,22.43603499999972,110.38476599999922,73.58984400000008,5.897460999999566,101.6665039999998
83,54.35888699999941,79.61523400000078,96.2822270000006,75.25634799999989,220.2563479999999,94.10253900000043,157.6923829999996,80.76904300000024,87.94873000000007,23.461425999999847,110.76904300000024,74.23095699999976,12.051269999999931,106.41015599999992
84,56.2822270000006,81.2822270000006,97.69238299999961,77.30761700000039,219.10253900000043,96.0258789999998,158.84619099999964,82.17968800000017,91.53857400000015,28.589844000000085,114.74365200000011,76.79492200000004,23.846190999999635,112.43603499999972
85,61.410155999999915,86.79492200000004,99.35888699999941,77.56396500000028,222.17968800000017,100.76904300000024,162.94873000000007,86.41015599999992,96.9228520000006,36.2822270000006,119.48730499999965,80.51269500000035,35.12841800000024,110.12841800000024
86,66.2822270000006,90.89746099999957,99.35888699999941,77.30761700000039,226.15380900000036,104.87158199999976,168.0771479999994,90.89746099999957,100.12841800000024,42.56396500000028,122.17968800000017,83.3334960000002,38.846190999999635,103.3334960000002
87,66.9228520000006,87.82031300000017,96.15380900000036,77.30761700000039,226.15380900000036,105.0,171.6665039999998,92.17968800000017,98.84619099999964,43.974121000000196,121.2822270000006,82.82031300000017,32.56396500000028,102.43603499999972
88,62.05126999999993,78.3334960000002,90.25634799999989,77.94873000000007,221.15380900000036,101.15380900000036,172.56396500000028,89.61523400000078,94.35888699999941,41.153809000000365,117.69238299999961,78.7177729999994,21.666503999999804,106.79492200000004
89,55.25634799999989,68.20507799999996,84.87158199999976,79.10253900000043,214.7436520000001,97.30761700000039,172.56396500000028,85.89746099999957,90.64111300000059,37.43603499999972,113.3334960000002,73.3334960000002,15.128418000000238,108.20507799999996
90,50.897460999999566,63.46142599999985,83.46142599999985,80.25634799999989,211.41015599999992,96.79492200000004,173.3334960000002,83.84619099999964,90.0,35.38476599999922,109.23095699999976,69.74365200000011,17.17968800000017,106.0258789999998
91,51.025878999999804,64.87158199999976,85.64111300000059,80.64111300000059,212.3076170000004,99.61523400000078,175.0,84.10253900000043,91.6665039999998,35.12841800000024,105.38476599999922,69.61523400000078,24.871581999999762,107.05126999999993
92,54.61523400000078,69.10253900000043,88.3334960000002,80.76904300000024,216.15380900000036,103.46142599999985,176.79492200000004,85.51269500000035,93.46142599999985,35.76904300000024,102.82031300000017,72.17968800000017,32.69238299999961,110.76904300000024
93,59.61523400000078,71.79492200000004,88.84619099999964,81.9228520000006,220.0,106.6665039999998,178.20507799999996,86.6665039999998,93.9741210000002,37.17968800000017,103.3334960000002,75.89746099999957,37.69238299999961,109.48730499999965
94,62.94873000000007,70.51269500000035,87.56396500000028,84.61523400000078,220.89746099999957,107.30761700000039,178.46142599999985,86.53857400000015,93.3334960000002,38.846190999999635,106.6665039999998,78.46142599999985,40.0,103.3334960000002
95,62.56396500000028,65.64111300000059,86.41015599999992,87.69238299999961,217.05126999999993,104.48730499999965,177.05126999999993,84.48730499999965,92.56396500000028,40.38476599999922,109.35888699999941,78.0771479999994,40.38476599999922,102.17968800000017
96,59.48730499999965,60.64111300000059,86.79492200000004,90.0,210.2563479999999,99.87158199999976,174.23095699999976,81.6665039999998,92.82031300000017,42.17968800000017,108.9741210000002,76.0258789999998,40.12841800000024,108.7177729999994
97,57.82031300000017,60.25634799999989,88.9741210000002,91.9228520000006,205.6411130000006,97.94873000000007,172.56396500000028,80.89746099999957,94.74365200000011,45.51269500000035,106.9228520000006,75.64111300000059,41.2822270000006,113.7177729999994
98,59.87158199999976,64.87158199999976,92.30761700000039,94.10253900000043,206.6665039999998,101.41015599999992,173.58984400000008,83.9741210000002,98.20507799999996,50.64111300000059,105.89746099999957,79.23095699999976,44.102539000000434,111.15380900000036
99,63.46142599999985,70.0,94.74365200000011,96.15380900000036,211.41015599999992,107.94873000000007,176.9228520000006,88.9741210000002,101.2822270000006,55.25634799999989,106.41015599999992,84.48730499999965,46.2822270000006,107.56396500000028
100,64.61523400000078,70.64111300000059,94.61523400000078,96.53857400000015,214.87158199999976,113.3334960000002,180.38476599999922,92.17968800000017,102.17968800000017,56.666503999999804,106.6665039999998,87.56396500000028,45.25634799999989,109.61523400000078
101,62.56396500000028,66.41015599999992,91.79492200000004,94.48730499999965,214.10253900000043,114.61523400000078,183.0771479999994,91.6665039999998,101.15380900000036,54.23095699999976,104.35888699999941,86.0258789999998,41.666503999999804,112.05126999999993
102,59.102539000000434,60.897460999999566,88.3334960000002,91.2822270000006,209.87158199999976,112.56396500000028,184.23095699999976,88.7177729999994,100.0,50.25634799999989,99.74365200000011,81.0258789999998,37.94873000000007,108.46142599999985
103,56.666503999999804,57.17968800000017,86.53857400000015,88.58984400000008,204.7436520000001,108.84619099999964,183.20507799999996,85.51269500000035,99.61523400000078,47.30761700000039,94.23095699999976,76.0258789999998,35.76904300000024,103.7177729999994
104,56.025878999999804,55.897460999999566,87.05126999999993,88.0771479999994,200.6411130000006,105.0,179.3588869999994,83.0771479999994,99.48730499999965,46.9228520000006,91.0258789999998,73.58984400000008,35.0,105.25634799999989
105,57.17968800000017,56.9228520000006,89.35888699999941,90.89746099999957,199.61523400000078,103.20507799999996,174.48730499999965,81.6665039999998,98.58984400000008,48.974121000000196,92.56396500000028,75.51269500000035,36.025878999999804,109.74365200000011
106,60.12841800000024,59.61523400000078,92.30761700000039,96.2822270000006,202.3076170000004,105.25634799999989,171.9228520000006,81.79492200000004,97.56396500000028,52.17968800000017,97.82031300000017,80.89746099999957,39.23095699999976,108.9741210000002
107,62.56396500000028,62.43603499999972,94.87158199999976,101.41015599999992,206.41015599999992,109.48730499999965,173.3334960000002,82.69238299999961,97.56396500000028,54.48730499999965,101.9228520000006,86.6665039999998,43.20507799999996,105.38476599999922
108,62.17968800000017,63.20507799999996,95.25634799999989,103.7177729999994,208.20507799999996,113.0771479999994,177.17968800000017,83.46142599999985,98.7177729999994,54.48730499999965,99.23095699999976,89.23095699999976,45.64111300000059,107.17968800000017
109,59.23095699999976,61.79492200000004,92.82031300000017,102.69238299999961,205.76904300000024,113.9741210000002,180.38476599999922,84.10253900000043,100.25634799999989,52.82031300000017,89.48730499999965,87.69238299999961,45.38476599999922,113.20507799999996
110,56.410155999999915,59.87158199999976,89.10253900000043,100.51269500000035,201.15380900000036,112.82031300000017,180.76904300000024,85.64111300000059,101.53857400000015,51.9228520000006,78.7177729999994,84.48730499999965,43.0771479999994,114.10253900000043
111,55.897460999999566,58.589844000000085,86.2822270000006,99.74365200000011,196.6665039999998,110.89746099999957,177.94873000000007,87.94873000000007,102.43603499999972,52.94873000000007,72.94873000000007,82.94873000000007,39.87158199999976,108.46142599999985
112,56.79492200000004,57.43603499999972,85.89746099999957,100.25634799999989,193.0771479999994,108.20507799999996,173.20507799999996,90.0,102.43603499999972,55.0,73.3334960000002,83.58984400000008,36.153809000000365,105.38476599999922
113,57.82031300000017,56.410155999999915,87.82031300000017,101.15380900000036,189.87158199999976,105.12841800000024,168.20507799999996,90.0,101.15380900000036,56.2822270000006,76.6665039999998,85.51269500000035,32.94873000000007,108.46142599999985
114,59.35888699999941,56.79492200000004,91.15380900000036,102.43603499999972,187.94873000000007,103.20507799999996,164.48730499999965,88.46142599999985,99.35888699999941,56.025878999999804,79.74365200000011,87.82031300000017,32.69238299999961,110.64111300000059
115,62.17968800000017,59.48730499999965,94.74365200000011,104.23095699999976,187.82031300000017,102.94873000000007,163.0771479999994,86.6665039999998,98.0771479999994,54.61523400000078,81.0258789999998,90.12841800000024,36.79492200000004,108.0771479999994
116,65.12841800000024,62.43603499999972,97.56396500000028,106.53857400000015,188.0771479999994,103.3334960000002,163.3334960000002,85.0,97.30761700000039,52.56396500000028,80.51269500000035,91.9228520000006,42.43603499999972,107.05126999999993
117,67.05126999999993,63.846190999999635,98.58984400000008,109.10253900000043,187.43603499999972,103.58984400000008,163.84619099999964,83.7177729999994,96.53857400000015,51.153809000000365,78.7177729999994,92.30761700000039,45.76904300000024,111.41015599999992
118,68.46142599999985,64.23095699999976,98.58984400000008,112.30761700000039,186.9228520000006,104.61523400000078,164.48730499999965,83.3334960000002,96.2822270000006,51.666503999999804,78.20507799999996,91.6665039999998,45.897460999999566,113.3334960000002
119,70.51269500000035,65.64111300000059,98.84619099999964,115.76904300000024,187.82031300000017,106.9228520000006,165.38476599999922,84.48730499999965,97.30761700000039,55.0,80.51269500000035,91.0258789999998,44.74365200000011,107.94873000000007
120,72.30761700000039,67.69238299999961,99.48730499999965,118.58984400000008,189.23095699999976,109.23095699999976,165.76904300000024,86.15380900000036,99.48730499999965,59.61523400000078,84.48730499999965,90.76904300000024,44.23095699999976,102.82031300000017
121,72.30761700000039,68.84619099999964,99.48730499999965,119.35888699999941,188.58984400000008,109.61523400000078,164.48730499999965,86.79492200000004,101.2822270000006,62.56396500000028,86.41015599999992,90.76904300000024,44.61523400000078,106.41015599999992
122,70.76904300000024,68.0771479999994,97.69238299999961,118.58984400000008,184.87158199999976,107.94873000000007,161.41015599999992,86.0258789999998,101.41015599999992,62.69238299999961,83.9741210000002,90.64111300000059,45.64111300000059,113.58984400000008
123,69.61523400000078,66.2822270000006,94.61523400000078,117.56396500000028,180.12841800000024,105.89746099999957,157.56396500000028,84.23095699999976,100.12841800000024,61.025878999999804,77.69238299999961,90.51269500000035,46.666503999999804,114.23095699999976
124,69.35888699999941,64.23095699999976,92.05126999999993,116.53857400000015,176.0258789999998,103.58984400000008,154.10253900000043,81.79492200000004,98.3334960000002,60.0,70.76904300000024,90.0,46.79492200000004,109.87158199999976
125,69.10253900000043,62.69238299999961,91.0258789999998,115.12841800000024,173.46142599999985,100.89746099999957,151.0258789999998,78.46142599999985,96.53857400000015,60.51269500000035,65.64111300000059,88.84619099999964,44.74365200000011,109.10253900000043
126,67.94873000000007,62.56396500000028,91.6665039999998,113.46142599999985,172.6923829999996,98.84619099999964,148.58984400000008,75.64111300000059,95.76904300000024,62.43603499999972,63.974121000000196,87.43603499999972,41.53857400000015,111.53857400000015
127,66.53857400000015,65.38476599999922,93.3334960000002,112.56396500000028,173.7177729999994,98.9741210000002,146.9228520000006,75.12841800000024,96.41015599999992,65.0,65.51269500000035,86.2822270000006,39.61523400000078,109.48730499999965
128,65.12841800000024,69.74365200000011,94.35888699999941,112.56396500000028,175.12841800000024,101.0258789999998,146.41015599999992,76.9228520000006,97.82031300000017,66.79492200000004,69.10253900000043,85.64111300000059,39.35888699999941,103.3334960000002
129,62.69238299999961,71.9228520000006,92.69238299999961,112.43603499999972,174.87158199999976,102.43603499999972,145.89746099999957,78.58984400000008,98.3334960000002,66.41015599999992,72.05126999999993,84.10253900000043,38.46142599999985,101.6665039999998
130,58.974121000000196,69.87158199999976,87.94873000000007,112.05126999999993,172.56396500000028,101.9228520000006,144.7436520000001,78.46142599999985,97.05126999999993,64.10253900000043,73.0771479999994,81.41015599999992,35.897460999999566,105.64111300000059
131,56.53857400000015,65.76904300000024,82.94873000000007,112.94873000000007,170.51269500000035,100.51269500000035,142.6923829999996,77.69238299999961,95.38476599999922,62.30761700000039,73.46142599999985,78.46142599999985,34.102539000000434,107.56396500000028
132,57.30761700000039,62.94873000000007,81.2822270000006,115.89746099999957,170.38476599999922,100.12841800000024,140.38476599999922,77.69238299999961,95.25634799999989,63.333496000000196,73.9741210000002,77.30761700000039,35.12841800000024,105.12841800000024
133,60.64111300000059,62.56396500000028,83.84619099999964,118.9741210000002,170.38476599999922,100.25634799999989,137.94873000000007,78.46142599999985,96.79492200000004,66.15380900000036,74.23095699999976,78.7177729999994,37.69238299999961,105.51269500000035
134,63.46142599999985,63.20507799999996,87.94873000000007,119.48730499999965,168.46142599999985,99.74365200000011,135.38476599999922,78.84619099999964,98.0771479999994,67.69238299999961,73.46142599999985,81.79492200000004,38.589844000000085,111.2822270000006
135,64.10253900000043,64.23095699999976,90.38476599999922,117.17968800000017,164.7436520000001,98.7177729999994,132.82031300000017,77.82031300000017,97.69238299999961,66.15380900000036,72.05126999999993,85.25634799999989,36.79492200000004,113.9741210000002
136,63.0771479999994,65.51269500000035,90.12841800000024,113.46142599999985,161.15380900000036,97.94873000000007,130.0,75.64111300000059,95.0,62.17968800000017,70.64111300000059,87.69238299999961,32.94873000000007,108.3334960000002
137,61.025878999999804,66.15380900000036,87.82031300000017,110.25634799999989,158.7177729999994,96.79492200000004,126.15380900000036,72.56396500000028,90.89746099999957,57.94873000000007,69.10253900000043,88.20507799999996,28.974121000000196,102.17968800000017
138,58.589844000000085,64.87158199999976,85.0,108.0771479999994,156.9228520000006,94.48730499999965,120.89746099999957,69.74365200000011,87.43603499999972,55.64111300000059,66.79492200000004,86.53857400000015,26.410155999999915,103.9741210000002
139,57.56396500000028,62.69238299999961,83.20507799999996,107.43603499999972,155.76904300000024,92.30761700000039,116.2822270000006,69.35888699999941,87.17968800000017,56.666503999999804,63.46142599999985,83.9741210000002,27.43603499999972,108.84619099999964
140,58.846190999999635,61.79492200000004,84.23095699999976,108.7177729999994,155.76904300000024,92.05126999999993,115.0,73.0771479999994,91.15380900000036,61.2822270000006,60.51269500000035,82.30761700000039,32.69238299999961,108.46142599999985
141,61.410155999999915,63.20507799999996,87.43603499999972,111.0258789999998,155.89746099999957,93.0771479999994,117.17968800000017,78.9741210000002,96.79492200000004,66.9228520000006,59.74365200000011,82.43603499999972,38.974121000000196,105.0
142,62.56396500000028,64.87158199999976,90.38476599999922,112.94873000000007,154.87158199999976,92.82031300000017,119.61523400000078,82.43603499999972,100.0,70.25634799999989,61.410155999999915,83.46142599999985,41.410155999999915,106.0258789999998
143,60.897460999999566,64.61523400000078,90.64111300000059,113.9741210000002,152.3076170000004,90.0,118.84619099999964,80.38476599999922,98.0771479999994,68.46142599999985,64.61523400000078,84.23095699999976,37.82031300000017,109.48730499999965
144,57.69238299999961,62.43603499999972,88.3334960000002,114.35888699999941,149.87158199999976,86.79492200000004,114.87158199999976,73.58984400000008,91.9228520000006,62.05126999999993,66.41015599999992,83.9741210000002,30.51269500000035,107.82031300000017
145,54.61523400000078,59.23095699999976,85.64111300000059,113.9741210000002,148.58984400000008,85.64111300000059,109.61523400000078,66.2822270000006,85.38476599999922,54.102539000000434,63.974121000000196,82.56396500000028,24.230956999999762,102.94873000000007
146,52.82031300000017,56.53857400000015,84.48730499999965,112.43603499999972,147.94873000000007,87.30761700000039,106.0258789999998,61.9228520000006,81.6665039999998,49.102539000000434,57.17968800000017,80.38476599999922,21.922852000000603,103.3334960000002
147,53.0771479999994,55.897460999999566,85.38476599999922,110.64111300000059,147.43603499999972,90.38476599999922,104.61523400000078,62.17968800000017,82.05126999999993,49.48730499999965,50.51269500000035,78.9741210000002,23.974121000000196,109.23095699999976
148,55.897460999999566,58.46142599999985,88.46142599999985,110.0,147.56396500000028,93.20507799999996,104.23095699999976,66.0258789999998,85.12841800000024,54.61523400000078,49.87158199999976,79.61523400000078,28.461425999999847,111.41015599999992
149,59.74365200000011,62.56396500000028,92.17968800000017,110.51269500000035,148.0771479999994,94.10253900000043,102.69238299999961,70.12841800000024,88.20507799999996,60.51269500000035,56.410155999999915,82.43603499999972,32.30761700000039,107.43603499999972
150,61.79492200000004,65.12841800000024,93.9741210000002,110.89746099999957,147.3076170000004,91.9228520000006,98.46142599999985,70.89746099999957,88.46142599999985,62.69238299999961,64.48730499999965,85.25634799999989,32.56396500000028,105.25634799999989
151,60.25634799999989,64.23095699999976,92.05126999999993,109.61523400000078,145.0,87.82031300000017,92.43603499999972,66.9228520000006,86.0258789999998,59.87158199999976,67.56396500000028,86.0258789999998,29.871581999999762,108.0771479999994
152,57.30761700000039,61.79492200000004,87.43603499999972,107.05126999999993,142.94873000000007,85.12841800000024,87.82031300000017,61.153809000000365,82.82031300000017,55.12841800000024,64.10253900000043,84.74365200000011,27.82031300000017,108.7177729999994
153,55.897460999999566,60.51269500000035,83.7177729999994,105.51269500000035,142.56396500000028,85.89746099999957,87.30761700000039,58.20507799999996,81.6665039999998,52.05126999999993,57.94873000000007,83.20507799999996,29.358886999999413,103.46142599999985
154,57.17968800000017,61.2822270000006,83.46142599999985,105.89746099999957,142.82031300000017,88.84619099999964,90.25634799999989,59.87158199999976,82.82031300000017,52.43603499999972,54.35888699999941,82.82031300000017,32.94873000000007,99.87158199999976
155,60.51269500000035,63.589844000000085,86.2822270000006,108.0771479999994,142.82031300000017,91.2822270000006,93.84619099999964,64.48730499999965,85.38476599999922,55.64111300000059,55.897460999999566,83.46142599999985,35.38476599999922,103.84619099999964
156,65.12841800000024,67.05126999999993,90.25634799999989,110.76904300000024,142.94873000000007,92.17968800000017,95.38476599999922,69.35888699999941,87.30761700000039,59.87158199999976,61.53857400000015,84.87158199999976,35.38476599999922,108.58984400000008
157,68.84619099999964,70.89746099999957,93.3334960000002,112.82031300000017,144.3588869999994,92.30761700000039,94.87158199999976,71.9228520000006,87.94873000000007,63.20507799999996,67.05126999999993,86.6665039999998,34.61523400000078,106.79492200000004
158,69.23095699999976,73.20507799999996,94.48730499999965,113.3334960000002,146.6665039999998,92.17968800000017,93.0771479999994,71.0258789999998,86.79492200000004,63.589844000000085,67.30761700000039,87.56396500000028,34.35888699999941,102.56396500000028
159,65.76904300000024,73.20507799999996,94.48730499999965,112.30761700000039,149.3588869999994,92.43603499999972,91.41015599999992,67.94873000000007,84.48730499999965,60.897460999999566,61.666503999999804,87.56396500000028,34.74365200000011,103.7177729999994
160,62.30761700000039,72.94873000000007,94.87158199999976,111.53857400000015,152.94873000000007,94.35888699999941,91.0258789999998,66.15380900000036,82.94873000000007,57.82031300000017,55.0,88.46142599999985,36.153809000000365,107.82031300000017
161,63.589844000000085,75.38476599999922,97.17968800000017,112.17968800000017,157.56396500000028,98.7177729999994,92.17968800000017,68.3334960000002,83.84619099999964,58.20507799999996,54.102539000000434,92.17968800000017,38.974121000000196,107.43603499999972
162,68.84619099999964,79.61523400000078,100.0,113.20507799999996,161.2822270000006,103.58984400000008,93.46142599999985,73.20507799999996,86.79492200000004,62.56396500000028,60.25634799999989,97.43603499999972,42.30761700000039,105.0
163,73.3334960000002,82.30761700000039,100.12841800000024,112.17968800000017,161.0258789999998,105.51269500000035,92.69238299999961,76.79492200000004,89.35888699999941,68.20507799999996,67.94873000000007,100.12841800000024,43.846190999999635,107.30761700000039
164,72.69238299999961,81.53857400000015,96.2822270000006,108.9741210000002,156.79492200000004,103.46142599999985,89.74365200000011,76.41015599999992,90.12841800000024,71.41015599999992,71.0258789999998,97.56396500000028,43.0771479999994,112.05126999999993
165,67.30761700000039,78.58984400000008,89.74365200000011,105.76904300000024,151.53857400000015,99.48730499999965,85.76904300000024,72.82031300000017,89.35888699999941,70.25634799999989,67.94873000000007,91.15380900000036,41.2822270000006,110.38476599999922
166,60.0,74.87158199999976,84.23095699999976,104.10253900000043,147.82031300000017,95.76904300000024,82.05126999999993,67.94873000000007,88.0771479999994,64.48730499999965,60.64111300000059,83.9741210000002,38.333496000000196,102.56396500000028
167,52.69238299999961,70.89746099999957,81.41015599999992,102.69238299999961,145.2563479999999,92.56396500000028,78.3334960000002,63.7177729999994,86.79492200000004,55.38476599999922,52.43603499999972,77.82031300000017,33.333496000000196,98.7177729999994
168,46.9228520000006,67.05126999999993,80.64111300000059,99.48730499999965,142.82031300000017,89.48730499999965,74.35888699999941,60.897460999999566,85.64111300000059,46.79492200000004,46.2822270000006,72.69238299999961,27.56396500000028,102.30761700000039
169,44.48730499999965,65.51269500000035,80.12841800000024,95.0,140.6411130000006,87.56396500000028,70.64111300000059,60.897460999999566,85.25634799999989,42.94873000000007,44.87158199999976,69.10253900000043,25.128418000000238,105.51269500000035
170,45.897460999999566,67.30761700000039,79.10253900000043,91.79492200000004,139.23095699999976,87.05126999999993,67.82031300000017,63.0771479999994,86.2822270000006,45.38476599999922,48.46142599999985,67.94873000000007,28.205077999999958,103.84619099999964
171,49.102539000000434,70.38476599999922,77.56396500000028,91.6665039999998,137.82031300000017,86.79492200000004,65.89746099999957,66.0258789999998,87.82031300000017,51.666503999999804,54.61523400000078,69.74365200000011,34.102539000000434,103.58984400000008
172,52.17968800000017,72.43603499999972,76.79492200000004,94.10253900000043,136.53857400000015,86.6665039999998,65.0,68.3334960000002,89.48730499999965,57.94873000000007,60.38476599999922,74.10253900000043,39.23095699999976,108.0771479999994
173,55.51269500000035,73.84619099999964,78.46142599999985,97.69238299999961,137.43603499999972,88.0771479999994,66.15380900000036,70.76904300000024,92.17968800000017,62.82031300000017,65.25634799999989,80.25634799999989,43.46142599999985,110.25634799999989
174,59.74365200000011,76.2822270000006,82.69238299999961,100.51269500000035,141.2822270000006,92.17968800000017,69.48730499999965,73.84619099999964,96.6665039999998,66.6665039999998,69.23095699999976,87.05126999999993,48.7177729999994,104.87158199999976
175,63.333496000000196,78.9741210000002,87.69238299999961,100.89746099999957,145.38476599999922,96.79492200000004,72.82031300000017,76.6665039999998,100.89746099999957,68.58984400000008,70.76904300000024,92.05126999999993,54.35888699999941,99.48730499999965
176,63.846190999999635,79.74365200000011,90.0,98.84619099999964,145.38476599999922,98.0771479999994,73.20507799999996,77.30761700000039,102.30761700000039,67.30761700000039,68.58984400000008,92.69238299999961,56.9228520000006,101.9228520000006
177,62.17968800000017,78.84619099999964,88.84619099999964,96.6665039999998,141.2822270000006,95.76904300000024,70.0,75.51269500000035,99.87158199999976,64.10253900000043,64.74365200000011,89.74365200000011,55.0,107.69238299999961
178,62.43603499999972,79.10253900000043,86.6665039999998,97.30761700000039,137.43603499999972,92.82031300000017,65.64111300000059,73.46142599999985,96.0258789999998,62.17968800000017,63.974121000000196,86.9228520000006,51.666503999999804,107.94873000000007
179,67.05126999999993,82.30761700000039,87.05126999999993,101.2822270000006,137.17968800000017,91.6665039999998,62.82031300000017,72.69238299999961,93.58984400000008,64.48730499999965,68.84619099999964,87.82031300000017,52.05126999999993,104.61523400000078
180,74.23095699999976,86.2822270000006,90.76904300000024,106.15380900000036,140.2563479999999,92.30761700000039,61.53857400000015,73.58984400000008,93.7177729999994,70.89746099999957,77.17968800000017,92.30761700000039,57.82031300000017,105.12841800000024
181,80.12841800000024,88.46142599999985,95.38476599999922,109.23095699999976,143.58984400000008,93.20507799999996,60.51269500000035,75.25634799999989,96.41015599999992,78.46142599999985,84.23095699999976,98.20507799999996,66.53857400000015,107.94873000000007
182,82.69238299999961,88.20507799999996,98.3334960000002,110.0,145.2563479999999,93.58984400000008,58.7177729999994,77.30761700000039,100.51269500000035,84.23095699999976,86.9228520000006,102.56396500000028,73.9741210000002,105.89746099999957
183,82.17968800000017,86.6665039999998,98.58984400000008,108.58984400000008,144.3588869999994,92.56396500000028,56.410155999999915,79.10253900000043,104.61523400000078,85.89746099999957,85.51269500000035,104.35888699999941,76.6665039999998,100.76904300000024
184,79.87158199999976,85.51269500000035,96.79492200000004,106.0258789999998,141.41015599999992,89.87158199999976,54.102539000000434,78.9741210000002,106.41015599999992,83.20507799999996,81.79492200000004,103.58984400000008,74.61523400000078,101.9228520000006
185,77.56396500000028,86.0258789999998,94.10253900000043,103.58984400000008,137.82031300000017,86.41015599999992,52.43603499999972,77.05126999999993,104.87158199999976,78.9741210000002,78.9741210000002,101.15380900000036,71.53857400000015,109.23095699999976
186,77.30761700000039,88.9741210000002,92.30761700000039,103.20507799999996,136.2822270000006,85.0,52.30761700000039,75.25634799999989,102.05126999999993,77.56396500000028,79.61523400000078,98.7177729999994,71.9228520000006,111.9228520000006
187,79.23095699999976,92.94873000000007,92.56396500000028,104.87158199999976,137.6923829999996,86.79492200000004,53.46142599999985,75.89746099999957,101.15380900000036,81.41015599999992,83.84619099999964,97.30761700000039,75.51269500000035,106.53857400000015
188,80.38476599999922,95.25634799999989,94.35888699999941,106.6665039999998,140.38476599999922,89.74365200000011,54.102539000000434,78.58984400000008,103.58984400000008,88.0771479999994,88.58984400000008,97.05126999999993,76.6665039999998,101.79492200000004
189,78.58984400000008,94.10253900000043,95.38476599999922,106.53857400000015,142.43603499999972,91.53857400000015,52.56396500000028,81.2822270000006,106.9228520000006,91.9228520000006,90.25634799999989,97.05126999999993,70.0,103.9741210000002
190,74.87158199999976,91.79492200000004,94.48730499999965,104.61523400000078,144.48730499999965,92.05126999999993,49.74365200000011,81.9228520000006,107.30761700000039,88.7177729999994,88.58984400000008,96.6665039999998,56.79492200000004,107.30761700000039
191,72.56396500000028,91.2822270000006,92.82031300000017,102.69238299999961,147.6923829999996,93.3334960000002,48.589844000000085,80.25634799999989,102.94873000000007,79.10253900000043,85.25634799999989,96.15380900000036,45.12841800000024,106.41015599999992
192,73.58984400000008,93.46142599999985,92.17968800000017,101.6665039999998,151.0258789999998,96.0258789999998,50.51269500000035,77.17968800000017,95.25634799999989,68.20507799999996,82.69238299999961,95.64111300000059,42.56396500000028,105.76904300000024
193,77.17968800000017,97.56396500000028,93.20507799999996,101.9228520000006,152.6923829999996,99.10253900000043,54.102539000000434,74.23095699999976,89.10253900000043,62.05126999999993,81.6665039999998,95.76904300000024,50.897460999999566,109.87158199999976
194,81.9228520000006,102.43603499999972,95.25634799999989,102.69238299999961,152.82031300000017,101.41015599999992,56.2822270000006,73.58984400000008,88.84619099999964,64.74365200000011,82.30761700000039,97.17968800000017,65.12841800000024,112.94873000000007
195,86.15380900000036,107.94873000000007,97.30761700000039,103.0771479999994,152.6923829999996,102.43603499999972,55.25634799999989,76.53857400000015,94.48730499999965,74.10253900000043,83.58984400000008,100.0,76.6665039999998,108.9741210000002
196,87.30761700000039,112.17968800000017,97.94873000000007,101.0258789999998,153.0771479999994,101.41015599999992,51.666503999999804,80.76904300000024,101.15380900000036,82.82031300000017,84.48730499999965,102.82031300000017,78.9741210000002,103.84619099999964
197,84.35888699999941,113.20507799999996,96.15380900000036,96.15380900000036,152.43603499999972,98.58984400000008,47.30761700000039,82.30761700000039,102.82031300000017,84.10253900000043,83.9741210000002,103.46142599999985,71.53857400000015,106.2822270000006
198,79.48730499999965,111.2822270000006,92.82031300000017,90.38476599999922,150.51269500000035,95.38476599999922,44.23095699999976,79.87158199999976,98.9741210000002,78.84619099999964,83.9741210000002,101.0258789999998,62.05126999999993,113.20507799999996
199,77.43603499999972,109.35888699999941,90.76904300000024,87.69238299999961,147.82031300000017,93.7177729999994,43.0771479999994,76.41015599999992,95.25634799999989,75.51269500000035,87.05126999999993,98.3334960000002,59.35888699999941,114.23095699999976
200,79.87158199999976,109.10253900000043,92.05126999999993,89.35888699999941,145.6411130000006,94.10253900000043,43.0771479999994,76.2822270000006,99.35888699999941,81.9228520000006,93.46142599999985,98.3334960000002,66.0258789999998,109.10253900000043
201,84.87158199999976,110.64111300000059,96.15380900000036,93.20507799999996,145.0,95.12841800000024,42.94873000000007,80.89746099999957,112.43603499999972,98.46142599999985,100.76904300000024,102.17968800000017,76.2822270000006,107.05126999999993
202,88.84619099999964,113.58984400000008,100.51269500000035,96.6665039999998,146.79492200000004,96.2822270000006,42.69238299999961,87.56396500000028,128.0771479999994,116.0258789999998,105.89746099999957,108.58984400000008,83.20507799999996,109.61523400000078
203,90.12841800000024,117.94873000000007,102.56396500000028,98.46142599999985,151.15380900000036,97.94873000000007,43.974121000000196,92.05126999999993,135.89746099999957,123.0771479999994,107.94873000000007,114.48730499999965,83.0771479999994,109.74365200000011
204,87.69238299999961,121.41015599999992,100.76904300000024,98.0771479999994,155.76904300000024,100.0,46.9228520000006,90.64111300000059,129.23095699999976,113.7177729999994,106.15380900000036,115.64111300000059,75.51269500000035,105.64111300000059
205,81.53857400000015,120.89746099999957,95.38476599999922,94.87158199999976,156.2822270000006,101.53857400000015,49.61523400000078,82.30761700000039,110.38476599999922,91.41015599999992,100.0,109.87158199999976,62.05126999999993,104.23095699999976
206,74.10253900000043,116.53857400000015,88.58984400000008,88.84619099999964,151.9228520000006,101.9228520000006,49.61523400000078,70.51269500000035,88.9741210000002,67.30761700000039,91.41015599999992,98.7177729999994,46.53857400000015,107.82031300000017
207,68.84619099999964,112.82031300000017,83.7177729999994,82.43603499999972,146.0258789999998,102.43603499999972,46.9228520000006,61.53857400000015,75.25634799999989,51.9228520000006,84.23095699999976,87.82031300000017,34.74365200000011,109.23095699999976
208,67.82031300000017,114.23095699999976,82.82031300000017,78.58984400000008,142.94873000000007,104.23095699999976,44.102539000000434,59.61523400000078,72.43603499999972,48.20507799999996,81.79492200000004,82.56396500000028,29.615234000000783,104.61523400000078
209,69.10253900000043,120.64111300000059,84.87158199999976,77.43603499999972,144.10253900000043,106.79492200000004,43.974121000000196,64.10253900000043,75.89746099999957,50.51269500000035,83.46142599999985,84.10253900000043,29.230956999999762,101.9228520000006
210,70.12841800000024,128.7177729999994,87.30761700000039,77.43603499999972,147.94873000000007,108.84619099999964,47.05126999999993,70.0,78.7177729999994,50.76904300000024,87.43603499999972,88.84619099999964,29.48730499999965,106.2822270000006
211,70.38476599999922,135.0,87.82031300000017,76.53857400000015,151.79492200000004,110.12841800000024,51.410155999999915,73.0771479999994,76.79492200000004,45.51269500000035,93.84619099999964,91.9228520000006,28.077147999999397,111.0258789999998
212,70.38476599999922,138.7177729999994,86.0258789999998,73.7177729999994,153.3334960000002,110.0,54.48730499999965,72.94873000000007,71.41015599999992,37.30761700000039,104.23095699999976,90.64111300000059,24.871581999999762,108.20507799999996
213,70.0,140.0,83.3334960000002,68.84619099999964,150.38476599999922,107.30761700000039,53.846190999999635,71.53857400000015,66.9228520000006,33.0771479999994,119.48730499999965,85.76904300000024,21.666503999999804,102.43603499999972
214,70.12841800000024,141.0258789999998,81.6665039999998,63.333496000000196,143.7177729999994,101.2822270000006,49.102539000000434,71.9228520000006,69.35888699999941,40.0,139.10253900000043,81.41015599999992,22.82031300000017,102.17968800000017
215,73.0771479999994,144.48730499999965,82.94873000000007,59.74365200000011,137.94873000000007,94.87158199999976,42.94873000000007,76.6665039999998,82.69238299999961,61.53857400000015,161.6665039999998,82.69238299999961,34.102539000000434,105.25634799999989
216,80.25634799999989,152.3076170000004,87.43603499999972,59.61523400000078,138.3334960000002,92.30761700000039,40.38476599999922,86.0258789999998,104.23095699999976,92.17968800000017,184.87158199999976,91.41015599999992,56.666503999999804,103.7177729999994
217,89.48730499999965,161.6665039999998,93.20507799999996,61.2822270000006,145.2563479999999,95.64111300000059,44.48730499999965,96.53857400000015,124.74365200000011,118.84619099999964,205.2563479999999,103.20507799999996,82.43603499999972,98.9741210000002
218,95.0,168.20507799999996,96.6665039999998,61.53857400000015,154.3588869999994,102.56396500000028,53.846190999999635,102.94873000000007,132.82031300000017,128.0771479999994,218.84619099999964,110.89746099999957,97.82031300000017,98.58984400000008
219,92.82031300000017,169.7436520000001,95.76904300000024,58.589844000000085,161.0258789999998,109.35888699999941,63.0771479999994,102.30761700000039,123.7177729999994,115.0,224.7436520000001,109.35888699999941,93.3334960000002,101.2822270000006
220,83.9741210000002,168.46142599999985,90.64111300000059,53.7177729999994,164.7436520000001,114.10253900000043,67.30761700000039,96.15380900000036,102.43603499999972,86.9228520000006,224.48730499999965,100.0,72.43603499999972,99.23095699999976
221,73.46142599999985,168.84619099999964,84.87158199999976,49.48730499999965,168.0771479999994,116.9228520000006,65.64111300000059,88.3334960000002,79.48730499999965,57.69238299999961,220.89746099999957,88.9741210000002,48.846190999999635,91.9228520000006
222,67.94873000000007,174.61523400000078,82.17968800000017,48.7177729999994,172.6923829999996,118.9741210000002,61.9228520000006,82.30761700000039,63.846190999999635,39.48730499999965,217.82031300000017,83.0771479999994,38.333496000000196,88.7177729999994
223,72.05126999999993,188.0771479999994,84.74365200000011,52.43603499999972,178.0771479999994,121.9228520000006,61.53857400000015,81.2822270000006,59.48730499999965,37.30761700000039,221.15380900000036,85.0,47.05126999999993,92.43603499999972
224,84.61523400000078,206.9228520000006,91.41015599999992,59.102539000000434,181.79492200000004,126.0258789999998,66.6665039999998,86.41015599999992,64.74365200000011,47.30761700000039,237.17968800000017,92.94873000000007,67.56396500000028,95.38476599999922
225,97.56396500000028,224.61523400000078,98.20507799999996,64.10253900000043,180.2563479999999,128.3334960000002,74.35888699999941,95.12841800000024,73.46142599999985,59.102539000000434,267.05126999999993,100.89746099999957,82.94873000000007,93.84619099999964
226,100.25634799999989,233.0771479999994,100.12841800000024,61.9228520000006,171.0258789999998,124.23095699999976,78.46142599999985,101.41015599999992,76.2822270000006,60.897460999999566,304.48730499999965,102.05126999999993,79.61523400000078,94.23095699999976
227,89.10253900000043,229.3588869999994,95.38476599999922,51.53857400000015,157.3076170000004,113.84619099999964,76.53857400000015,100.51269500000035,67.56396500000028,47.94873000000007,339.3588869999994,94.23095699999976,59.48730499999965,100.12841800000024
228,71.0258789999998,217.82031300000017,86.2822270000006,36.666503999999804,146.2822270000006,104.23095699999976,72.30761700000039,94.23095699999976,51.153809000000365,28.205077999999958,366.0258789999998,81.9228520000006,40.25634799999989,103.58984400000008
229,58.333496000000196,205.0,77.30761700000039,22.94873000000007,144.10253900000043,102.69238299999961,71.53857400000015,88.84619099999964,38.46142599999985,17.30761700000039,385.2563479999999,72.94873000000007,42.56396500000028,98.7177729999994
230,57.82031300000017,194.3588869999994,73.0771479999994,13.717772999999397,148.9741210000002,109.61523400000078,76.6665039999998,90.25634799999989,39.35888699999941,26.282227000000603,401.4101559999999,72.82031300000017,73.20507799999996,92.17968800000017
231,67.56396500000028,185.2563479999999,74.61523400000078,10.0,153.9741210000002,118.20507799999996,85.12841800000024,99.10253900000043,53.974121000000196,52.94873000000007,418.46142599999985,81.15380900000036,121.2822270000006,93.20507799999996
232,81.0258789999998,176.6665039999998,80.64111300000059,10.897460999999566,153.7177729999994,121.53857400000015,91.9228520000006,111.2822270000006,73.0771479999994,83.20507799999996,437.4360349999997,93.7177729999994,167.56396500000028,98.84619099999964
233,92.56396500000028,168.9741210000002,87.82031300000017,14.487304999999651,147.82031300000017,117.05126999999993,93.46142599999985,120.89746099999957,85.51269500000035,102.56396500000028,455.2563479999999,106.41015599999992,197.05126999999993,101.53857400000015
234,99.74365200000011,161.2822270000006,92.94873000000007,17.69238299999961,139.3588869999994,107.69238299999961,89.48730499999965,122.94873000000007,84.35888699999941,103.84619099999964,466.4101559999999,115.89746099999957,205.89746099999957,102.05126999999993
235,102.43603499999972,152.6923829999996,95.12841800000024,18.205077999999958,131.9228520000006,99.10253900000043,84.35888699999941,116.6665039999998,70.12841800000024,89.10253900000043,466.15380900000036,120.0,200.0,106.0258789999998
236,103.3334960000002,143.58984400000008,95.25634799999989,16.794922000000042,128.0771479999994,97.43603499999972,83.84619099999964,106.79492200000004,50.51269500000035,68.3334960000002,456.53857400000015,119.35888699999941,190.76904300000024,110.76904300000024
237,105.89746099999957,136.15380900000036,94.61523400000078,15.641113000000587,128.0771479999994,104.23095699999976,91.41015599999992,101.79492200000004,37.17968800000017,54.74365200000011,445.51269500000035,117.56396500000028,190.0,110.25634799999989
238,111.41015599999992,131.2822270000006,94.35888699999941,16.410155999999915,128.7177729999994,114.10253900000043,103.0771479999994,105.64111300000059,39.35888699999941,58.46142599999985,440.6411130000006,118.58984400000008,202.6923829999996,106.79492200000004
239,118.7177729999994,126.79492200000004,94.87158199999976,18.589844000000085,126.41015599999992,119.23095699999976,110.89746099999957,116.53857400000015,58.333496000000196,81.0258789999998,442.05126999999993,123.9741210000002,226.15380900000036,108.7177729999994
240,126.2822270000006,120.64111300000059,97.05126999999993,21.794922000000042,121.15380900000036,116.41015599999992,110.51269500000035,128.9741210000002,87.17968800000017,114.35888699999941,442.82031300000017,133.20507799999996,252.94873000000007,115.38476599999922
241,133.9741210000002,112.94873000000007,100.76904300000024,25.384765999999217,116.41015599999992,110.25634799999989,105.12841800000024,138.20507799999996,113.7177729999994,144.7436520000001,433.7177729999994,144.3588869999994,274.7436520000001,118.20507799999996
242,139.7436520000001,104.35888699999941,104.61523400000078,28.333496000000196,114.35888699999941,106.9228520000006,101.15380900000036,141.15380900000036,126.53857400000015,158.3334960000002,408.20507799999996,153.84619099999964,284.10253900000043,115.12841800000024
243,140.51269500000035,95.0,106.0258789999998,29.230956999999762,113.58984400000008,108.7177729999994,102.82031300000017,136.2822270000006,119.87158199999976,147.82031300000017,365.0,157.56396500000028,277.94873000000007,113.20507799999996
244,136.79492200000004,86.6665039999998,105.0,29.230956999999762,111.79492200000004,113.7177729999994,109.48730499999965,125.51269500000035,98.20507799999996,118.46142599999985,312.82031300000017,154.87158199999976,262.3076170000004,115.12841800000024
245,135.12841800000024,83.46142599999985,103.9741210000002,31.538574000000153,109.23095699999976,118.58984400000008,118.0771479999994,115.38476599999922,76.53857400000015,89.61523400000078,267.3076170000004,151.15380900000036,251.41015599999992,115.25634799999989
246,141.53857400000015,87.43603499999972,105.25634799999989,37.82031300000017,106.2822270000006,120.38476599999922,125.0,113.20507799999996,70.64111300000059,81.9228520000006,242.17968800000017,153.0771479999994,256.15380900000036,112.69238299999961
247,154.87158199999976,93.84619099999964,108.9741210000002,45.64111300000059,101.15380900000036,117.30761700000039,127.30761700000039,119.61523400000078,85.64111300000059,101.53857400000015,237.05126999999993,162.05126999999993,273.0771479999994,114.23095699999976
248,168.0771479999994,94.61523400000078,112.82031300000017,51.53857400000015,91.9228520000006,109.87158199999976,124.61523400000078,129.10253900000043,112.17968800000017,134.23095699999976,238.9741210000002,172.17968800000017,288.7177729999994,121.53857400000015
249,174.87158199999976,86.53857400000015,114.61523400000078,54.35888699999941,81.15380900000036,102.43603499999972,120.12841800000024,135.6411130000006,134.87158199999976,159.87158199999976,233.9741210000002,177.3076170000004,293.46142599999985,126.15380900000036
250,175.2563479999999,73.58984400000008,114.48730499999965,55.64111300000059,73.9741210000002,99.61523400000078,118.3334960000002,137.43603499999972,145.2563479999999,169.10253900000043,219.87158199999976,177.56396500000028,290.0,123.20507799999996
251,173.46142599999985,62.69238299999961,113.84619099999964,57.82031300000017,72.56396500000028,101.15380900000036,120.12841800000024,135.6411130000006,146.2822270000006,168.9741210000002,204.23095699999976,176.9228520000006,288.20507799999996,118.84619099999964
252,173.58984400000008,56.53857400000015,114.23095699999976,61.410155999999915,73.84619099999964,103.20507799999996,122.69238299999961,132.43603499999972,146.79492200000004,171.79492200000004,194.48730499999965,178.46142599999985,293.84619099999964,119.35888699999941
253,177.56396500000028,53.974121000000196,115.51269500000035,65.76904300000024,74.10253900000043,103.7177729999994,122.82031300000017,129.48730499999965,152.05126999999993,181.6665039999998,190.51269500000035,181.6665039999998,305.3847659999992,120.76904300000024
254,183.58984400000008,51.2822270000006,116.2822270000006,69.74365200000011,72.82031300000017,103.84619099999964,122.05126999999993,128.46142599999985,159.10253900000043,191.15380900000036,185.0,184.10253900000043,315.0,118.84619099999964
255,187.82031300000017,45.38476599999922,115.76904300000024,72.30761700000039,70.64111300000059,105.0,123.3334960000002,129.23095699999976,160.76904300000024,189.48730499999965,170.51269500000035,183.3334960000002,315.3847659999992,118.7177729999994
256,187.94873000000007,36.53857400000015,114.23095699999976,74.48730499999965,67.56396500000028,106.2822270000006,128.3334960000002,130.12841800000024,154.23095699999976,175.6411130000006,148.0771479999994,179.3588869999994,306.9228520000006,124.48730499999965
257,186.53857400000015,29.230956999999762,113.58984400000008,78.46142599999985,65.38476599999922,107.17968800000017,134.87158199999976,131.15380900000036,145.6411130000006,161.9228520000006,128.3334960000002,176.41015599999992,298.9741210000002,128.9741210000002
258,189.10253900000043,28.717772999999397,115.51269500000035,86.2822270000006,67.56396500000028,108.84619099999964,140.51269500000035,134.48730499999965,145.0,163.7177729999994,122.69238299999961,180.0,302.4360349999997,124.74365200000011
259,196.6665039999998,34.48730499999965,120.0,96.0258789999998,76.15380900000036,112.69238299999961,144.10253900000043,140.76904300000024,155.2563479999999,184.3588869999994,132.17968800000017,191.2822270000006,318.20507799999996,117.30761700000039
260,203.58984400000008,39.48730499999965,124.61523400000078,103.58984400000008,87.69238299999961,117.43603499999972,145.89746099999957,146.53857400000015,169.10253900000043,210.2563479999999,144.61523400000078,202.94873000000007,335.6411130000006,116.53857400000015
261,204.3588869999994,36.79492200000004,125.64111300000059,107.43603499999972,96.6665039999998,121.53857400000015,147.56396500000028,148.0771479999994,175.51269500000035,223.58984400000008,146.15380900000036,206.79492200000004,343.0771479999994,120.25634799999989
262,199.10253900000043,26.282227000000603,122.56396500000028,109.10253900000043,99.74365200000011,124.74365200000011,150.6411130000006,145.51269500000035,171.2822270000006,219.3588869999994,133.9741210000002,200.89746099999957,339.87158199999976,119.48730499999965
263,192.82031300000017,12.948730000000069,117.43603499999972,111.2822270000006,96.9228520000006,127.17968800000017,155.12841800000024,142.43603499999972,162.3076170000004,207.17968800000017,117.05126999999993,191.6665039999998,335.0,115.0
264,189.23095699999976,1.6665039999998044,113.84619099999964,114.23095699999976,88.0771479999994,127.05126999999993,158.84619099999964,141.9228520000006,157.05126999999993,200.51269500000035,106.2822270000006,186.2822270000006,336.15380900000036,115.38476599999922
265,188.7177729999994,-5.769286999999622,112.94873000000007,117.05126999999993,72.82031300000017,122.69238299999961,160.2563479999999,143.84619099999964,158.7177729999994,205.12841800000024,106.2822270000006,187.17968800000017,344.48730499999965,119.61523400000078
266,190.12841800000024,-8.58984399999963,114.48730499999965,120.38476599999922,52.69238299999961,116.41015599999992,160.6411130000006,147.43603499999972,165.6411130000006,218.58984400000008,113.9741210000002,192.43603499999972,355.3847659999992,117.94873000000007
267,192.6923829999996,-7.564209000000574,117.69238299999961,126.0258789999998,31.922852000000603,113.0771479999994,162.56396500000028,152.17968800000017,174.7436520000001,235.12841800000024,122.05126999999993,198.58984400000008,365.0,109.61523400000078
268,194.48730499999965,-5.512939000000188,120.76904300000024,134.87158199999976,13.846190999999635,114.23095699999976,167.05126999999993,156.6665039999998,183.20507799999996,249.87158199999976,123.3334960000002,202.17968800000017,370.2563479999999,105.25634799999989
269,193.46142599999985,-5.769286999999622,121.9228520000006,146.15380900000036,-1.2822270000006029,116.53857400000015,171.41015599999992,158.84619099999964,188.20507799999996,259.6152340000008,115.38476599999922,200.6411130000006,370.6411130000006,109.23095699999976
270,189.7436520000001,-8.846190999999635,119.61523400000078,158.58984400000008,-13.846190999999635,116.79492200000004,173.46142599999985,157.94873000000007,188.20507799999996,263.3334960000002,101.6665039999998,194.7436520000001,367.94873000000007,112.82031300000017
271,186.41015599999992,-11.666747999999643,114.87158199999976,171.6665039999998,-24.358886999999868,115.38476599999922,173.7177729999994,155.51269500000035,183.84619099999964,263.9741210000002,89.74365200000011,188.20507799999996,365.89746099999957,110.38476599999922
272,185.76904300000024,-12.179442999999992,110.64111300000059,183.84619099999964,-34.35888699999987,113.9741210000002,174.23095699999976,153.84619099999964,177.82031300000017,266.53857400000015,83.58984400000008,184.3588869999994,367.17968800000017,108.58984400000008
273,186.2822270000006,-12.051270000000386,109.10253900000043,193.7177729999994,-47.051270000000386,112.56396500000028,175.76904300000024,154.48730499999965,174.61523400000078,275.51269500000035,82.43603499999972,183.46142599999985,370.89746099999957,112.82031300000017
274,185.51269500000035,-13.846190999999635,110.12841800000024,201.53857400000015,-64.8718259999996,111.2822270000006,177.94873000000007,157.6923829999996,177.6923829999996,291.79492200000004,83.3334960000002,183.20507799999996,375.0,116.15380900000036
275,182.94873000000007,-17.820557000000008,111.6665039999998,208.9741210000002,-87.05127000000039,110.89746099999957,181.0258789999998,162.3076170000004,186.41015599999992,311.2822270000006,84.74365200000011,181.9228520000006,377.5639650000003,111.53857400000015
276,179.61523400000078,-22.179442999999992,111.6665039999998,217.56396500000028,-111.02563499999997,111.79492200000004,184.87158199999976,165.0,194.48730499999965,325.76904300000024,85.89746099999957,179.48730499999965,376.79492200000004,105.89746099999957
277,176.0258789999998,-26.28198199999997,108.9741210000002,226.53857400000015,-135.2563479999999,112.05126999999993,188.58984400000008,162.17968800000017,193.58984400000008,328.20507799999996,84.10253900000043,175.38476599999922,371.2822270000006,108.3334960000002
278,173.46142599999985,-28.333252000000357,104.48730499999965,235.2563479999999,-157.43579099999943,110.0,190.38476599999922,153.9741210000002,181.9228520000006,319.87158199999976,78.84619099999964,170.38476599999922,363.3334960000002,114.61523400000078
279,174.23095699999976,-26.153809000000365,101.15380900000036,243.9741210000002,-173.71801800000003,107.17968800000017,190.2563479999999,145.76904300000024,168.58984400000008,312.3076170000004,73.46142599999985,167.94873000000007,359.23095699999976,113.58984400000008
280,179.23095699999976,-19.74365200000011,101.41015599999992,252.56396500000028,-182.179443,106.79492200000004,189.48730499999965,144.23095699999976,164.7436520000001,316.4101559999999,72.82031300000017,171.0258789999998,363.46142599999985,106.53857400000015
281,184.3588869999994,-13.58984399999963,104.48730499999965,259.23095699999976,-184.4870609999998,110.12841800000024,189.7436520000001,150.0,172.17968800000017,330.3847659999992,76.53857400000015,177.43603499999972,372.17968800000017,104.48730499999965
282,184.7436520000001,-13.076904000000013,106.79492200000004,262.05126999999993,-185.5129390000002,115.25634799999989,191.41015599999992,157.82031300000017,182.6923829999996,341.4101559999999,78.84619099999964,181.53857400000015,375.51269500000035,109.10253900000043
283,179.23095699999976,-17.69238299999961,105.51269500000035,262.94873000000007,-188.71801800000003,120.51269500000035,194.87158199999976,162.82031300000017,187.6923829999996,339.87158199999976,74.74365200000011,179.7436520000001,368.0771479999994,111.15380900000036
284,173.0771479999994,-21.41015600000037,101.9228520000006,265.6411130000006,-194.61547900000005,124.48730499999965,199.10253900000043,164.3588869999994,187.05126999999993,329.7436520000001,65.64111300000059,174.87158199999976,353.84619099999964,107.17968800000017
285,171.53857400000015,-19.74365200000011,99.74365200000011,271.6665039999998,-203.33325200000036,125.51269500000035,201.41015599999992,164.61523400000078,186.9228520000006,323.9741210000002,56.2822270000006,171.79492200000004,341.6665039999998,105.25634799999989
286,174.87158199999976,-13.58984399999963,100.38476599999922,277.6923829999996,-213.58984399999963,122.56396500000028,199.48730499999965,164.7436520000001,190.6411130000006,329.10253900000043,50.38476599999922,172.17968800000017,336.6665039999998,110.12841800000024
287,179.3588869999994,-7.051270000000386,102.30761700000039,279.48730499999965,-222.56420900000057,117.30761700000039,194.3588869999994,163.84619099999964,195.6411130000006,339.87158199999976,47.82031300000017,173.58984400000008,337.17968800000017,114.61523400000078
288,181.2822270000006,-3.4614259999998467,102.69238299999961,275.89746099999957,-226.66674799999964,113.58984400000008,189.87158199999976,161.6665039999998,196.2822270000006,344.3588869999994,45.76904300000024,172.56396500000028,336.9228520000006,112.05126999999993
289,178.9741210000002,-3.9741210000001956,100.76904300000024,268.84619099999964,-224.23071300000038,113.20507799999996,189.3588869999994,157.94873000000007,190.2563479999999,335.6411130000006,41.025878999999804,167.94873000000007,330.89746099999957,108.0771479999994
290,173.46142599999985,-7.307617000000391,97.82031300000017,261.2822270000006,-217.6923829999996,114.87158199999976,192.05126999999993,153.7177729999994,179.87158199999976,317.5639650000003,32.17968800000017,160.76904300000024,318.7177729999994,109.74365200000011
291,167.82031300000017,-10.38452099999995,95.89746099999957,255.2563479999999,-209.7436520000001,116.6665039999998,194.48730499999965,151.15380900000036,170.89746099999957,301.0258789999998,22.05126999999993,154.3588869999994,306.4101559999999,113.0771479999994
292,165.89746099999957,-9.8718259999996,96.6665039999998,251.53857400000015,-200.64111300000013,117.82031300000017,194.10253900000043,152.05126999999993,167.3076170000004,294.87158199999976,16.153809000000365,152.6923829999996,300.89746099999957,110.0
293,168.58984400000008,-5.38452099999995,100.12841800000024,248.20507799999996,-190.5129390000002,117.43603499999972,190.76904300000024,155.76904300000024,167.43603499999972,298.0771479999994,17.17968800000017,156.41015599999992,302.6923829999996,103.58984400000008
294,172.05126999999993,0.38476599999921746,103.46142599999985,242.56396500000028,-180.89746100000002,115.0,186.15380900000036,158.58984400000008,166.2822270000006,301.2822270000006,22.17968800000017,160.89746099999957,304.7436520000001,102.82031300000017
295,172.3076170000004,4.102539000000434,104.35888699999941,234.3588869999994,-171.923096,111.2822270000006,182.94873000000007,157.6923829999996,160.38476599999922,296.0258789999998,25.897460999999566,161.15380900000036,300.0,107.69238299999961
296,169.23095699999976,6.025878999999804,102.56396500000028,225.51269500000035,-161.79492200000004,109.23095699999976,182.6923829999996,154.3588869999994,151.9228520000006,282.5639650000003,25.641113000000587,156.15380900000036,289.10253900000043,109.35888699999941
297,165.51269500000035,7.692382999999609,101.15380900000036,218.84619099999964,-148.20507799999996,110.51269500000035,184.7436520000001,151.9228520000006,146.15380900000036,267.6923829999996,23.461425999999847,149.87158199999976,279.23095699999976,105.25634799999989
298,163.20507799999996,9.230956999999762,102.69238299999961,214.3588869999994,-132.56420900000057,113.3334960000002,185.89746099999957,152.17968800000017,146.2822270000006,258.3334960000002,23.846190999999635,146.15380900000036,277.17968800000017,102.43603499999972
299,162.6923829999996,10.256347999999889,106.41015599999992,210.2563479999999,-118.33325200000036,114.61523400000078,184.10253900000043,153.9741210000002,150.51269500000035,256.79492200000004,30.384765999999217,146.41015599999992,284.48730499999965,104.74365200000011
300,163.7177729999994,10.769043000000238,108.9741210000002,204.61523400000078,-107.82055700000001,114.35888699999941,180.76904300000024,155.89746099999957,154.48730499999965,260.2563479999999,43.0771479999994,148.9741210000002,297.82031300000017,106.0258789999998
301,165.12841800000024,12.051269999999931,108.7177729999994,197.17968800000017,-101.02563499999997,113.7177729999994,178.3334960000002,156.9228520000006,154.61523400000078,262.5639650000003,57.43603499999972,151.41015599999992,310.6411130000006,102.43603499999972
302,165.38476599999922,14.487304999999651,106.53857400000015,189.10253900000043,-97.05127000000039,112.43603499999972,176.6665039999998,156.15380900000036,150.0,258.7177729999994,66.9228520000006,151.41015599999992,316.79492200000004,99.74365200000011
303,163.20507799999996,17.94873000000007,104.61523400000078,181.41015599999992,-93.58984399999963,110.51269500000035,173.9741210000002,153.9741210000002,143.46142599999985,247.82031300000017,68.84619099999964,148.9741210000002,314.6152340000008,103.20507799999996
304,159.7436520000001,21.794922000000042,105.0,174.3588869999994,-86.92309599999999,109.61523400000078,170.51269500000035,152.94873000000007,138.84619099999964,234.10253900000043,66.6665039999998,146.0258789999998,307.94873000000007,107.94873000000007
305,156.9228520000006,24.74365200000011,107.69238299999961,167.05126999999993,-75.1281740000004,112.05126999999993,169.3588869999994,155.2563479999999,138.0771479999994,222.82031300000017,65.76904300000024,144.87158199999976,302.3076170000004,106.9228520000006
306,155.12841800000024,25.0,110.64111300000059,158.46142599999985,-60.51293900000019,116.9228520000006,172.43603499999972,160.12841800000024,139.23095699999976,215.6411130000006,68.58984400000008,145.6411130000006,299.6152340000008,103.0771479999994
307,152.94873000000007,21.794922000000042,111.2822270000006,149.61523400000078,-47.948729999999614,120.89746099999957,177.94873000000007,164.48730499999965,140.0,211.0258789999998,73.46142599999985,146.41015599999992,298.46142599999985,103.9741210000002
308,150.51269500000035,17.94873000000007,109.10253900000043,142.82031300000017,-39.74365200000011,121.41015599999992,182.3076170000004,165.76904300000024,138.9741210000002,207.6923829999996,78.9741210000002,146.15380900000036,298.20507799999996,108.3334960000002
309,148.84619099999964,17.30761700000039,107.05126999999993,139.23095699999976,-34.61547900000005,119.35888699999941,182.17968800000017,164.10253900000043,137.17968800000017,205.0,85.25634799999989,145.51269500000035,299.7436520000001,109.61523400000078
310,147.17968800000017,19.871581999999762,107.94873000000007,137.43603499999972,-30.89746100000002,116.53857400000015,177.3076170000004,160.51269500000035,134.87158199999976,202.05126999999993,91.6665039999998,145.2563479999999,302.4360349999997,108.0771479999994
311,143.9741210000002,22.30761700000039,111.79492200000004,135.12841800000024,-28.333252000000357,114.35888699999941,169.87158199999976,156.79492200000004,132.6923829999996,198.3334960000002,97.05126999999993,145.2563479999999,303.9741210000002,109.87158199999976
312,140.51269500000035,22.94873000000007,116.2822270000006,131.9228520000006,-26.41015600000037,113.9741210000002,164.23095699999976,155.12841800000024,132.43603499999972,194.87158199999976,101.79492200000004,145.76904300000024,304.10253900000043,114.61523400000078
313,139.87158199999976,22.94873000000007,118.7177729999994,129.61523400000078,-24.74365200000011,116.2822270000006,163.58984400000008,157.56396500000028,136.15380900000036,194.61523400000078,107.43603499999972,147.82031300000017,306.0258789999998,114.23095699999976
314,142.94873000000007,23.333496000000196,118.9741210000002,129.10253900000043,-23.71801800000003,119.61523400000078,167.17968800000017,163.3334960000002,143.7177729999994,198.7177729999994,113.84619099999964,151.15380900000036,311.9228520000006,106.9228520000006
315,146.41015599999992,22.94873000000007,117.69238299999961,129.3588869999994,-25.0,120.89746099999957,170.89746099999957,168.7177729999994,151.6665039999998,205.2563479999999,118.58984400000008,153.0771479999994,319.87158199999976,100.89746099999957
316,147.43603499999972,21.153809000000365,115.51269500000035,129.23095699999976,-28.076904000000013,119.10253900000043,172.05126999999993,170.6411130000006,156.2822270000006,210.51269500000035,119.35888699999941,151.6665039999998,325.3847659999992,101.41015599999992
317,145.38476599999922,18.589844000000085,113.0771479999994,128.9741210000002,-30.512939000000188,116.6665039999998,170.76904300000024,168.7177729999994,156.15380900000036,212.3076170000004,116.9228520000006,147.56396500000028,325.51269500000035,103.46142599999985
318,141.15380900000036,16.538574000000153,110.76904300000024,128.58984400000008,-30.769286999999622,116.2822270000006,169.23095699999976,165.0,151.79492200000004,209.48730499999965,112.56396500000028,142.6923829999996,319.3588869999994,102.69238299999961
319,135.12841800000024,14.102539000000434,108.46142599999985,127.69238299999961,-30.38452099999995,117.30761700000039,168.0771479999994,160.89746099999957,145.0,202.6923829999996,106.79492200000004,138.7177729999994,308.20507799999996,103.20507799999996
320,128.58984400000008,10.512695000000349,106.41015599999992,126.0258789999998,-31.41015600000037,117.56396500000028,166.6665039999998,157.82031300000017,139.10253900000043,195.2563479999999,101.53857400000015,136.6665039999998,296.2822270000006,108.7177729999994
321,124.87158199999976,7.948730000000069,105.64111300000059,124.61523400000078,-33.07690400000001,116.2822270000006,164.23095699999976,156.9228520000006,137.3076170000004,192.05126999999993,100.51269500000035,137.56396500000028,290.76904300000024,113.46142599999985
322,125.64111300000059,8.205077999999958,107.43603499999972,124.48730499999965,-33.71801800000003,114.10253900000043,160.6411130000006,158.3334960000002,140.0,195.89746099999957,105.51269500000035,141.15380900000036,295.6411130000006,110.76904300000024
323,128.58984400000008,9.615234000000783,111.15380900000036,125.0,-32.948729999999614,112.05126999999993,156.0258789999998,160.38476599999922,144.87158199999976,204.10253900000043,113.20507799999996,144.7436520000001,307.5639650000003,105.38476599999922
324,129.61523400000078,9.487304999999651,114.35888699999941,124.74365200000011,-31.538574000000153,111.41015599999992,151.53857400000015,161.41015599999992,148.3334960000002,211.41015599999992,117.69238299999961,145.89746099999957,318.84619099999964,106.15380900000036
325,128.46142599999985,8.846190999999635,115.51269500000035,124.61523400000078,-28.846190999999635,113.58984400000008,148.46142599999985,161.6665039999998,150.0,215.38476599999922,116.53857400000015,144.61523400000078,324.3588869999994,112.05126999999993
326,128.58984400000008,11.410155999999915,115.12841800000024,125.64111300000059,-24.230713000000378,118.46142599999985,147.94873000000007,162.3076170000004,151.79492200000004,216.79492200000004,111.79492200000004,143.7177729999994,325.3847659999992,114.23095699999976
327,131.9228520000006,17.17968800000017,115.0,127.05126999999993,-18.461425999999847,122.82031300000017,148.7177729999994,163.20507799999996,154.61523400000078,217.17968800000017,106.53857400000015,144.48730499999965,326.9228520000006,111.79492200000004
328,137.43603499999972,21.153809000000365,116.15380900000036,126.53857400000015,-14.358886999999868,123.9741210000002,149.7436520000001,163.7177729999994,157.17968800000017,217.3076170000004,103.20507799999996,147.17968800000017,333.20507799999996,111.15380900000036
329,142.56396500000028,18.461425999999847,118.20507799999996,123.46142599999985,-12.307617000000391,123.20507799999996,150.6411130000006,163.9741210000002,157.94873000000007,218.0771479999994,103.84619099999964,151.41015599999992,345.2563479999999,113.7177729999994
330,145.76904300000024,8.974121000000196,120.25634799999989,120.0,-10.769286999999622,123.7177729999994,152.3076170000004,164.7436520000001,156.79492200000004,219.48730499999965,109.10253900000043,156.2822270000006,358.7177729999994,112.82031300000017
331,146.2822270000006,-2.1796869999998307,122.17968800000017,118.46142599999985,-8.58984399999963,126.2822270000006,154.23095699999976,165.12841800000024,154.23095699999976,219.87158199999976,116.2822270000006,159.87158199999976,366.2822270000006,107.17968800000017
332,145.12841800000024,-7.051270000000386,123.84619099999964,119.87158199999976,-5.38452099999995,129.3588869999994,154.23095699999976,163.46142599999985,150.38476599999922,216.0258789999998,120.76904300000024,160.12841800000024,362.3076170000004,105.12841800000024
333,146.53857400000015,0.769043000000238,125.51269500000035,123.58984400000008,-0.512695000000349,131.15380900000036,150.6411130000006,158.84619099999964,145.38476599999922,208.0771479999994,120.89746099999957,158.0771479999994,350.12841800000024,110.0
334,155.76904300000024,22.43603499999972,127.82031300000017,127.94873000000007,7.43603499999972,131.53857400000015,144.3588869999994,152.82031300000017,140.2563479999999,199.23095699999976,118.84619099999964,157.3076170000004,339.3588869999994,113.7177729999994
335,174.23095699999976,50.76904300000024,131.2822270000006,131.79492200000004,17.30761700000039,130.38476599999922,137.05126999999993,146.6665039999998,135.76904300000024,192.17968800000017,117.82031300000017,159.7436520000001,337.17968800000017,109.87158199999976
336,196.53857400000015,75.25634799999989,135.2563479999999,133.9741210000002,25.25634799999989,127.43603499999972,129.87158199999976,141.2822270000006,131.9228520000006,186.79492200000004,118.3334960000002,165.0,341.9228520000006,104.35888699999941
337,215.89746099999957,90.76904300000024,137.94873000000007,135.12841800000024,29.230956999999762,124.74365200000011,124.61523400000078,137.17968800000017,129.3588869999994,181.79492200000004,118.58984400000008,170.6411130000006,346.15380900000036,104.48730499999965
338,228.84619099999964,100.12841800000024,138.7177729999994,136.2822270000006,30.641113000000587,125.12841800000024,122.56396500000028,135.51269500000035,128.9741210000002,177.3076170000004,117.17968800000017,175.0,343.5898440000001,107.05126999999993
339,235.76904300000024,109.74365200000011,138.46142599999985,137.3076170000004,31.794922000000042,128.7177729999994,123.84619099999964,136.0258789999998,130.2563479999999,173.58984400000008,113.84619099999964,176.6665039999998,332.94873000000007,105.0
340,239.3588869999994,122.69238299999961,138.58984400000008,137.05126999999993,32.94873000000007,131.9228520000006,125.64111300000059,136.53857400000015,130.89746099999957,169.61523400000078,109.23095699999976,174.87158199999976,317.82031300000017,101.6665039999998
341,242.82031300000017,137.3076170000004,139.87158199999976,134.61523400000078,33.589844000000085,131.53857400000015,124.35888699999941,135.12841800000024,129.3588869999994,165.0,105.76904300000024,171.41015599999992,304.7436520000001,104.87158199999976
342,248.84619099999964,150.6411130000006,142.43603499999972,132.3076170000004,34.74365200000011,128.0771479999994,119.23095699999976,132.56396500000028,126.53857400000015,160.76904300000024,105.38476599999922,169.3588869999994,297.94873000000007,111.6665039999998
343,257.05126999999993,160.2563479999999,145.6411130000006,132.82031300000017,37.56396500000028,124.48730499999965,111.79492200000004,130.38476599999922,124.35888699999941,157.43603499999972,106.9228520000006,170.2563479999999,295.6411130000006,112.30761700000039
344,264.7436520000001,166.0258789999998,148.84619099999964,137.17968800000017,41.53857400000015,122.17968800000017,105.0,129.23095699999976,124.23095699999976,153.9741210000002,106.41015599999992,172.6923829999996,291.0258789999998,106.9228520000006
345,270.12841800000024,171.0258789999998,151.6665039999998,142.82031300000017,45.25634799999989,121.53857400000015,100.89746099999957,128.46142599999985,125.76904300000024,148.84619099999964,101.79492200000004,174.87158199999976,279.7436520000001,105.12841800000024
346,274.48730499999965,179.7436520000001,153.9741210000002,146.53857400000015,48.974121000000196,122.94873000000007,100.76904300000024,128.0771479999994,127.69238299999961,142.82031300000017,95.89746099999957,177.05126999999993,263.9741210000002,109.23095699999976
347,279.48730499999965,193.84619099999964,156.2822270000006,146.53857400000015,53.46142599999985,126.0258789999998,103.84619099999964,128.20507799999996,128.7177729999994,137.17968800000017,92.43603499999972,180.2563479999999,249.48730499999965,110.89746099999957
348,285.12841800000024,210.0,158.7177729999994,143.46142599999985,58.0771479999994,128.7177729999994,107.43603499999972,127.94873000000007,127.56396500000028,131.9228520000006,91.9228520000006,183.58984400000008,238.7177729999994,106.6665039999998
349,290.3847659999992,224.48730499999965,160.76904300000024,140.12841800000024,62.17968800000017,128.9741210000002,108.3334960000002,126.15380900000036,124.35888699999941,127.17968800000017,91.79492200000004,185.89746099999957,231.0258789999998,104.48730499999965
350,296.15380900000036,236.9228520000006,162.3076170000004,139.61523400000078,67.30761700000039,127.56396500000028,105.0,122.94873000000007,121.53857400000015,124.10253900000043,90.38476599999922,187.43603499999972,225.2563479999999,109.35888699999941
351,303.20507799999996,249.48730499999965,163.84619099999964,142.82031300000017,76.15380900000036,126.9228520000006,98.20507799999996,119.61523400000078,120.76904300000024,123.46142599999985,88.7177729999994,189.61523400000078,220.76904300000024,114.10253900000043
352,309.7436520000001,262.05126999999993,165.12841800000024,147.3076170000004,87.82031300000017,127.17968800000017,89.23095699999976,116.15380900000036,120.64111300000059,122.56396500000028,87.56396500000028,191.9228520000006,214.61523400000078,111.9228520000006
353,311.2822270000006,271.2822270000006,164.87158199999976,149.23095699999976,97.69238299999961,126.2822270000006,80.51269500000035,111.53857400000015,118.0771479999994,117.43603499999972,85.89746099999957,191.79492200000004,202.56396500000028,108.20507799999996
354,306.0258789999998,274.87158199999976,161.9228520000006,146.6665039999998,102.94873000000007,123.84619099999964,75.12841800000024,106.0258789999998,112.94873000000007,107.17968800000017,81.79492200000004,187.43603499999972,183.9741210000002,109.61523400000078
355,296.4101559999999,274.3588869999994,157.56396500000028,141.41015599999992,104.61523400000078,121.41015599999992,74.61523400000078,101.9228520000006,107.69238299999961,95.38476599999922,74.74365200000011,179.7436520000001,163.3334960000002,111.6665039999998
356,286.79492200000004,273.20507799999996,154.3588869999994,137.05126999999993,105.64111300000059,119.87158199999976,77.05126999999993,100.38476599999922,105.0,86.6665039999998,65.64111300000059,171.53857400000015,145.76904300000024,107.69238299999961
357,279.7436520000001,273.7177729999994,153.84619099999964,135.2563479999999,107.17968800000017,118.20507799999996,78.3334960000002,100.12841800000024,104.48730499999965,82.30761700000039,56.2822270000006,164.48730499999965,132.94873000000007,102.56396500000028
358,275.76904300000024,277.17968800000017,155.12841800000024,135.89746099999957,109.74365200000011,116.0258789999998,75.64111300000059,99.35888699999941,104.48730499999965,81.0258789999998,48.7177729999994,159.7436520000001,123.3334960000002,104.74365200000011
359,274.3588869999994,283.9741210000002,155.89746099999957,137.3076170000004,114.10253900000043,114.74365200000011,70.51269500000035,97.56396500000028,103.46142599999985,79.61523400000078,44.23095699999976,157.3076170000004,113.84619099999964,110.89746099999957
360,272.82031300000017,291.79492200000004,155.0,137.94873000000007,119.87158199999976,115.12841800000024,66.2822270000006,95.64111300000059,101.2822270000006,75.64111300000059,41.53857400000015,156.0258789999998,101.53857400000015,111.15380900000036
361,267.17968800000017,296.9228520000006,152.56396500000028,136.6665039999998,125.12841800000024,115.64111300000059,64.87158199999976,93.84619099999964,98.3334960000002,68.7177729999994,37.30761700000039,153.7177729999994,84.35888699999941,105.89746099999957
362,256.6665039999998,297.05126999999993,149.48730499999965,134.10253900000043,127.94873000000007,114.10253900000043,65.64111300000059,92.69238299999961,96.15380900000036,61.9228520000006,31.282227000000603,149.7436520000001,64.35888699999941,104.74365200000011
363,245.6411130000006,294.7436520000001,147.6923829999996,131.6665039999998,129.61523400000078,111.6665039999998,66.9228520000006,93.46142599999985,96.9228520000006,59.61523400000078,26.666503999999804,145.38476599999922,48.0771479999994,109.10253900000043
364,238.84619099999964,294.3588869999994,148.46142599999985,131.0258789999998,131.9228520000006,110.89746099999957,67.94873000000007,96.41015599999992,100.64111300000059,61.79492200000004,26.153809000000365,142.17968800000017,40.25634799999989,110.38476599999922
365,236.15380900000036,297.3076170000004,150.51269500000035,132.17968800000017,134.61523400000078,112.82031300000017,67.82031300000017,99.10253900000043,104.10253900000043,63.7177729999994,27.94873000000007,139.48730499999965,37.17968800000017,106.2822270000006
366,232.56396500000028,301.15380900000036,150.38476599999922,133.46142599999985,135.89746099999957,115.25634799999989,65.89746099999957,97.94873000000007,103.9741210000002,59.74365200000011,26.666503999999804,134.87158199999976,29.74365200000011,104.87158199999976
367,224.87158199999976,303.9741210000002,146.0258789999998,133.58984400000008,135.6411130000006,115.76904300000024,62.94873000000007,92.05126999999993,100.25634799999989,50.25634799999989,20.25634799999989,128.0771479999994,13.333496000000196,109.23095699999976
368,214.3588869999994,305.12841800000024,139.61523400000078,132.05126999999993,135.6411130000006,114.35888699999941,60.25634799999989,84.23095699999976,95.89746099999957,40.51269500000035,11.410155999999915,121.6665039999998,-7.564209000000574,111.53857400000015
369,204.10253900000043,305.12841800000024,135.6411130000006,129.23095699999976,137.17968800000017,111.2822270000006,58.46142599999985,77.56396500000028,93.0771479999994,34.87158199999976,4.358886999999413,117.82031300000017,-25.1281740000004,107.05126999999993
370,195.2563479999999,304.3588869999994,135.2563479999999,125.25634799999989,139.23095699999976,107.69238299999961,56.79492200000004,73.3334960000002,91.53857400000015,32.69238299999961,0.512695000000349,116.0258789999998,-35.1281740000004,103.3334960000002
371,187.6923829999996,303.5898440000001,136.15380900000036,120.89746099999957,140.89746099999957,105.51269500000035,55.12841800000024,71.6665039999998,90.51269500000035,30.897460999999566,-1.9228520000006029,114.35888699999941,-39.23071300000038,106.0258789999998
372,180.89746099999957,304.7436520000001,135.2563479999999,117.05126999999993,143.46142599999985,107.17968800000017,55.12841800000024,72.82031300000017,89.61523400000078,27.43603499999972,-5.769286999999622,111.15380900000036,-42.30761700000039,109.23095699999976
373,174.7436520000001,307.82031300000017,132.94873000000007,114.48730499999965,147.82031300000017,112.56396500000028,57.30761700000039,76.41015599999992,88.58984400000008,22.17968800000017,-12.564209000000574,105.76904300000024,-49.61547900000005,106.41015599999992
374,167.56396500000028,310.76904300000024,130.6411130000006,113.3334960000002,153.84619099999964,117.43603499999972,59.61523400000078,80.0,87.82031300000017,16.794922000000042,-20.89746100000002,99.35888699999941,-63.71801800000003,103.20507799999996
375,158.7177729999994,311.53857400000015,129.3588869999994,113.3334960000002,161.0258789999998,118.20507799999996,59.102539000000434,81.6665039999998,87.43603499999972,13.333496000000196,-27.435790999999426,94.10253900000043,-81.79492200000004,106.6665039999998
376,149.7436520000001,311.15380900000036,129.10253900000043,114.35888699999941,168.84619099999964,115.38476599999922,55.51269500000035,80.89746099999957,88.0771479999994,12.948730000000069,-29.230713000000378,91.79492200000004,-97.69238299999961,111.79492200000004
377,142.05126999999993,310.89746099999957,129.3588869999994,115.12841800000024,175.76904300000024,111.53857400000015,51.025878999999804,78.84619099999964,89.10253900000043,13.333496000000196,-27.820557000000008,91.6665039999998,-107.43579099999943,109.74365200000011
378,135.0,310.0,129.48730499999965,114.23095699999976,178.84619099999964,108.46142599999985,47.94873000000007,75.76904300000024,88.7177729999994,10.256347999999889,-27.69238299999961,90.51269500000035,-113.07690400000001,103.7177729999994
379,126.41015599999992,307.05126999999993,127.43603499999972,111.0258789999998,177.43603499999972,105.76904300000024,46.2822270000006,71.9228520000006,86.2822270000006,2.3076170000003913,-31.666747999999643,86.2822270000006,-119.48706099999981,102.82031300000017
380,116.41015599999992,303.3334960000002,122.56396500000028,106.79492200000004,175.2563479999999,103.46142599999985,45.38476599999922,68.84619099999964,83.20507799999996,-6.794922000000042,-37.82055700000001,79.74365200000011,-128.97436500000003,106.53857400000015
381,107.30761700000039,301.6665039999998,116.9228520000006,103.7177729999994,176.2822270000006,102.17968800000017,45.25634799999989,67.94873000000007,82.05126999999993,-12.179442999999992,-42.82055700000001,73.20507799999996,-140.2563479999999,106.9228520000006
382,100.0,302.05126999999993,113.3334960000002,102.17968800000017,180.51269500000035,101.53857400000015,45.897460999999566,68.7177729999994,82.94873000000007,-12.948729999999614,-45.38452099999995,68.0771479999994,-150.2563479999999,103.84619099999964
383,93.3334960000002,302.3076170000004,112.82031300000017,100.25634799999989,183.0771479999994,100.64111300000059,46.666503999999804,68.9741210000002,84.48730499999965,-11.666747999999643,-47.435790999999426,64.61523400000078,-157.0512700000004,104.74365200000011
