,EEG.AF3,EEG.F7,EEG.F3,EEG.FC5,EEG.T7,EEG.P7,EEG.O1,EEG.O2,EEG.P8,EEG.T8,EEG.FC6,EEG.F4,EEG.F8,EEG.AF4
0,105.0,62.17968800000017,104.61523400000078,192.82031300000017,39.102539000000434,99.48730499999965,15.897460999999566,81.15380900000036,153.0771479999994,138.84619099999964,5.769043000000238,111.79492200000004,130.51269500000035,106.6665039999998
1,125.64111300000059,88.9741210000002,113.0771479999994,205.89746099999957,33.974121000000196,90.25634799999989,20.25634799999989,97.05126999999993,173.58984400000008,154.7436520000001,4.743652000000111,126.41015599999992,138.58984400000008,104.87158199999976
2,142.56396500000028,110.38476599999922,118.46142599999985,220.2563479999999,28.333496000000196,82.43603499999972,24.48730499999965,106.41015599999992,184.87158199999976,165.76904300000024,2.3076170000003913,135.2563479999999,144.61523400000078,108.3334960000002
3,147.94873000000007,115.89746099999957,117.56396500000028,233.7177729999994,23.205077999999958,81.2822270000006,26.025878999999804,105.64111300000059,184.23095699999976,168.58984400000008,-3.846190999999635,132.94873000000007,141.9228520000006,112.94873000000007
4,143.3334960000002,107.05126999999993,112.56396500000028,246.9228520000006,20.0,88.46142599999985,24.230956999999762,98.0771479999994,176.15380900000036,165.12841800000024,-13.974365000000034,122.69238299999961,128.9741210000002,111.41015599999992
5,136.79492200000004,95.76904300000024,108.58984400000008,261.15380900000036,16.922852000000603,98.84619099999964,20.641113000000587,89.74365200000011,168.58984400000008,160.6411130000006,-26.41015600000037,113.3334960000002,112.05126999999993,107.30761700000039
6,136.15380900000036,94.61523400000078,109.10253900000043,276.53857400000015,10.641113000000587,103.58984400000008,17.56396500000028,85.38476599999922,167.17968800000017,160.0,-38.71801800000003,111.53857400000015,99.87158199999976,108.58984400000008
7,143.9741210000002,108.20507799999996,113.0771479999994,292.17968800000017,-0.38476599999921746,98.84619099999964,16.410155999999915,85.64111300000059,171.41015599999992,164.3588869999994,-50.0,116.6665039999998,96.79492200000004,113.20507799999996
8,155.76904300000024,130.6411130000006,117.05126999999993,307.4360349999997,-12.564209000000574,88.9741210000002,16.922852000000603,87.30761700000039,176.15380900000036,170.2563479999999,-60.76928699999962,122.94873000000007,99.61523400000078,112.69238299999961
9,164.23095699999976,151.6665039999998,117.94873000000007,320.51269500000035,-20.0,82.30761700000039,17.43603499999972,86.6665039999998,176.2822270000006,172.6923829999996,-72.82055700000001,124.35888699999941,99.23095699999976,107.43603499999972
10,164.10253900000043,163.9741210000002,114.10253900000043,327.82031300000017,-19.74365200000011,83.7177729999994,16.410155999999915,81.6665039999998,170.51269500000035,169.7436520000001,-85.25634799999989,118.3334960000002,88.3334960000002,105.64111300000059
11,156.6665039999998,168.46142599999985,106.41015599999992,326.6665039999998,-14.230713000000378,91.6665039999998,12.948730000000069,73.20507799999996,162.3076170000004,163.46142599999985,-95.0,107.69238299999961,66.9228520000006,107.56396500000028
12,149.10253900000043,170.89746099999957,98.20507799999996,319.3588869999994,-9.230713000000378,101.15380900000036,8.077147999999397,65.51269500000035,155.89746099999957,158.0771479999994,-98.20507799999996,98.46142599999985,43.846190999999635,106.53857400000015
13,147.82031300000017,176.0258789999998,94.35888699999941,311.79492200000004,-9.102538999999979,107.30761700000039,3.9741210000001956,62.17968800000017,154.10253900000043,156.6665039999998,-95.51293900000019,96.15380900000036,30.128418000000238,102.05126999999993
14,153.46142599999985,183.20507799999996,96.9228520000006,307.94873000000007,-14.230713000000378,107.69238299999961,3.3334960000001956,65.12841800000024,156.9228520000006,159.48730499999965,-92.17944299999999,100.89746099999957,30.0,102.05126999999993
15,161.6665039999998,190.2563479999999,104.10253900000043,307.17968800000017,-20.1281740000004,102.94873000000007,7.051269999999931,73.3334960000002,162.94873000000007,165.38476599999922,-94.61547900000005,108.0771479999994,38.589844000000085,106.9228520000006
16,167.6923829999996,197.05126999999993,111.79492200000004,306.15380900000036,-19.230713000000378,96.2822270000006,12.307617000000391,83.7177729999994,168.9741210000002,170.89746099999957,-103.58984399999963,111.9228520000006,46.79492200000004,107.69238299999961
17,169.23095699999976,205.76904300000024,116.41015599999992,302.05126999999993,-5.769286999999622,91.41015599999992,14.358886999999413,90.76904300000024,170.89746099999957,171.53857400000015,-115.0,110.64111300000059,46.53857400000015,101.6665039999998
18,166.0258789999998,217.6923829999996,115.76904300000024,292.4360349999997,19.74365200000011,90.64111300000059,10.384765999999217,88.84619099999964,165.38476599999922,163.0771479999994,-123.20507799999996,105.38476599999922,34.61523400000078,97.82031300000017
19,158.7177729999994,231.53857400000015,109.10253900000043,275.89746099999957,50.12841800000024,94.48730499999965,2.4360349999997197,77.43603499999972,153.46142599999985,146.2822270000006,-125.38452099999995,98.20507799999996,15.0,101.0258789999998
20,151.2822270000006,247.05126999999993,99.87158199999976,254.7436520000001,76.2822270000006,101.2822270000006,-3.846190999999635,63.333496000000196,141.41015599999992,128.7177729999994,-121.66674799999964,92.17968800000017,-3.3334960000001956,103.9741210000002
21,148.58984400000008,264.48730499999965,94.87158199999976,234.7436520000001,92.82031300000017,108.58984400000008,-4.487060999999812,55.897460999999566,136.2822270000006,119.87158199999976,-112.94872999999961,90.51269500000035,-11.666747999999643,101.2822270000006
22,153.3334960000002,283.46142599999985,99.10253900000043,221.79492200000004,99.74365200000011,112.56396500000028,0.0,59.35888699999941,140.89746099999957,124.10253900000043,-101.53857400000015,94.87158199999976,-7.948729999999614,100.12841800000024
23,162.43603499999972,300.76904300000024,110.51269500000035,217.43603499999972,99.23095699999976,109.61523400000078,4.743652000000111,68.7177729999994,151.0258789999998,136.79492200000004,-91.02563499999997,102.69238299999961,2.0512699999999313,105.38476599999922
24,170.6411130000006,312.5639650000003,122.56396500000028,217.94873000000007,93.9741210000002,99.87158199999976,4.871581999999762,75.25634799999989,159.23095699999976,148.46142599999985,-83.46142599999985,110.12841800000024,11.282227000000603,109.61523400000078
25,175.12841800000024,318.20507799999996,130.2563479999999,217.6923829999996,87.30761700000039,88.46142599999985,0.12841800000023795,75.0,160.0,152.3076170000004,-78.20507799999996,115.25634799999989,17.17968800000017,105.51269500000035
26,176.6665039999998,320.6411130000006,133.58984400000008,212.43603499999972,82.30761700000039,82.17968800000017,-4.358886999999868,71.2822270000006,154.10253900000043,148.0771479999994,-73.33325200000036,118.58984400000008,21.666503999999804,99.61523400000078
27,176.15380900000036,322.82031300000017,134.23095699999976,201.6665039999998,80.12841800000024,83.20507799999996,-2.4360349999997197,70.38476599999922,147.6923829999996,140.6411130000006,-69.10253899999998,120.51269500000035,24.358886999999413,100.76904300000024
28,173.58984400000008,327.05126999999993,132.94873000000007,187.94873000000007,80.38476599999922,89.23095699999976,6.666503999999804,74.74365200000011,145.6411130000006,134.23095699999976,-67.82055700000001,119.87158199999976,21.794922000000042,104.10253900000043
29,168.9741210000002,333.9741210000002,129.7436520000001,175.0,83.58984400000008,95.76904300000024,16.794922000000042,80.38476599999922,146.9228520000006,128.9741210000002,-70.64111300000013,115.12841800000024,10.641113000000587,101.2822270000006
30,162.17968800000017,341.79492200000004,124.74365200000011,165.2563479999999,89.74365200000011,99.87158199999976,21.025878999999804,80.25634799999989,145.2563479999999,121.15380900000036,-75.64111300000013,106.79492200000004,-7.564209000000574,96.9228520000006
31,154.48730499999965,346.6665039999998,118.7177729999994,157.6923829999996,97.69238299999961,100.51269500000035,17.56396500000028,71.41015599999992,136.2822270000006,107.94873000000007,-78.84619099999964,97.94873000000007,-25.89746100000002,100.25634799999989
32,147.43603499999972,346.2822270000006,113.7177729999994,150.12841800000024,105.12841800000024,98.9741210000002,11.922852000000603,58.589844000000085,122.69238299999961,92.05126999999993,-77.05127000000039,92.05126999999993,-35.76928699999962,107.30761700000039
33,143.9741210000002,343.46142599999985,112.56396500000028,141.79492200000004,111.9228520000006,98.84619099999964,11.666503999999804,51.666503999999804,112.05126999999993,79.74365200000011,-68.20507799999996,91.6665039999998,-32.30761700000039,106.2822270000006
34,145.2563479999999,344.48730499999965,117.05126999999993,132.82031300000017,120.51269500000035,104.48730499999965,20.25634799999989,56.410155999999915,109.87158199999976,74.87158199999976,-53.20507799999996,96.2822270000006,-18.076904000000013,99.35888699999941
35,148.58984400000008,352.94873000000007,125.0,122.56396500000028,132.82031300000017,116.53857400000015,34.35888699999941,67.94873000000007,113.7177729999994,75.12841800000024,-36.79492200000004,102.05126999999993,-3.2050779999999577,98.84619099999964
36,148.9741210000002,366.4101559999999,130.76904300000024,108.58984400000008,147.17968800000017,130.6411130000006,47.05126999999993,76.15380900000036,116.2822270000006,74.87158199999976,-24.10253899999998,104.10253900000043,2.6923829999996087,105.51269500000035
37,146.0258789999998,380.3847659999992,132.17968800000017,90.0,158.9741210000002,140.12841800000024,53.7177729999994,76.53857400000015,114.10253900000043,72.30761700000039,-15.512939000000188,102.05126999999993,-0.12841800000023795,106.9228520000006
38,144.87158199999976,393.46142599999985,132.43603499999972,69.35888699999941,164.3588869999994,140.51269500000035,56.153809000000365,75.38476599999922,111.6665039999998,72.69238299999961,-5.256347999999889,101.41015599999992,-2.5639650000002803,100.12841800000024
39,150.0,406.79492200000004,136.15380900000036,49.87158199999976,162.43603499999972,132.6923829999996,59.35888699999941,82.05126999999993,116.15380900000036,81.15380900000036,11.538574000000153,107.43603499999972,3.3334960000001956,96.53857400000015
40,159.10253900000043,421.6665039999998,142.94873000000007,33.846190999999635,157.6923829999996,121.6665039999998,65.64111300000059,97.43603499999972,128.46142599999985,96.0258789999998,34.23095699999976,119.48730499999965,16.538574000000153,101.53857400000015
41,165.12841800000024,437.3076170000004,148.58984400000008,21.666503999999804,158.0771479999994,115.0,72.43603499999972,113.20507799999996,141.6665039999998,108.9741210000002,58.589844000000085,131.0258789999998,28.974121000000196,104.87158199999976
42,164.23095699999976,451.6665039999998,149.87158199999976,14.358886999999413,170.0,117.82031300000017,76.41015599999992,119.61523400000078,146.79492200000004,112.43603499999972,81.41015599999992,137.17968800000017,34.87158199999976,99.61523400000078
43,157.82031300000017,462.05126999999993,148.20507799999996,12.307617000000391,191.53857400000015,128.84619099999964,77.30761700000039,114.61523400000078,141.15380900000036,105.51269500000035,100.51269500000035,137.17968800000017,35.25634799999989,93.7177729999994
44,151.0258789999998,466.2822270000006,146.0258789999998,12.948730000000069,213.0771479999994,141.0258789999998,78.7177729999994,103.9741210000002,129.3588869999994,93.20507799999996,115.0,133.7177729999994,34.74365200000011,95.38476599999922
45,148.0771479999994,464.87158199999976,145.12841800000024,11.153809000000365,224.61523400000078,147.94873000000007,84.87158199999976,96.9228520000006,118.84619099999964,83.3334960000002,127.69238299999961,130.2563479999999,36.9228520000006,97.82031300000017
46,150.12841800000024,462.5639650000003,145.51269500000035,3.5898440000000846,223.46142599999985,148.20507799999996,96.15380900000036,99.61523400000078,114.35888699999941,81.9228520000006,146.2822270000006,130.0,42.05126999999993,93.58984400000008
47,154.7436520000001,464.7436520000001,147.05126999999993,-8.205077999999958,215.2563479999999,144.87158199999976,109.35888699999941,111.53857400000015,115.64111300000059,90.38476599999922,177.82031300000017,134.61523400000078,49.102539000000434,88.9741210000002
48,158.20507799999996,473.20507799999996,148.7177729999994,-20.25634799999989,208.7177729999994,140.2563479999999,119.48730499999965,125.76904300000024,118.58984400000008,103.9741210000002,221.9228520000006,142.05126999999993,56.9228520000006,93.20507799999996
49,158.58984400000008,486.0258789999998,149.48730499999965,-29.230713000000378,211.0258789999998,135.38476599999922,123.58984400000008,133.84619099999964,117.56396500000028,115.0,269.48730499999965,148.20507799999996,66.9228520000006,101.2822270000006
50,157.82031300000017,499.7436520000001,149.3588869999994,-33.71801800000003,225.38476599999922,131.53857400000015,122.69238299999961,133.0771479999994,110.12841800000024,117.05126999999993,309.7436520000001,150.12841800000024,81.2822270000006,101.6665039999998
51,159.23095699999976,510.89746099999957,149.61523400000078,-33.07690400000001,249.23095699999976,130.51269500000035,120.76904300000024,127.05126999999993,98.46142599999985,108.84619099999964,336.15380900000036,148.20507799999996,99.48730499999965,96.53857400000015
52,162.56396500000028,515.8974609999996,150.76904300000024,-28.461425999999847,275.6411130000006,131.79492200000004,122.17968800000017,122.43603499999972,87.17968800000017,94.48730499999965,348.7177729999994,144.10253900000043,116.41015599999992,97.56396500000028
53,164.61523400000078,513.0771479999994,151.2822270000006,-22.69238299999961,298.20507799999996,133.20507799999996,128.7177729999994,123.20507799999996,80.25634799999989,80.25634799999989,352.5639650000003,139.48730499999965,127.94873000000007,105.89746099999957
54,163.46142599999985,504.87158199999976,150.76904300000024,-19.74365200000011,316.4101559999999,133.0771479999994,139.48730499999965,129.23095699999976,78.46142599999985,71.15380900000036,356.2822270000006,136.0258789999998,135.89746099999957,110.25634799999989
55,161.2822270000006,496.2822270000006,150.0,-21.923095999999987,334.48730499999965,131.41015599999992,151.9228520000006,137.43603499999972,80.38476599999922,68.58984400000008,366.9228520000006,135.6411130000006,146.53857400000015,106.6665039999998
56,160.76904300000024,490.76904300000024,150.0,-30.0,357.3076170000004,128.7177729999994,163.0771479999994,143.46142599999985,83.20507799999996,69.74365200000011,385.76904300000024,138.20507799999996,163.46142599999985,103.9741210000002
57,162.3076170000004,487.6923829999996,149.7436520000001,-42.69238299999961,386.2822270000006,126.41015599999992,171.53857400000015,144.61523400000078,83.3334960000002,68.9741210000002,407.05126999999993,140.0,183.84619099999964,108.58984400000008
58,164.61523400000078,485.6411130000006,147.43603499999972,-56.66674799999964,420.76904300000024,126.2822270000006,177.43603499999972,140.6411130000006,78.46142599999985,61.53857400000015,422.05126999999993,136.53857400000015,201.0258789999998,113.7177729999994
59,166.15380900000036,483.9741210000002,142.6923829999996,-68.33325200000036,458.0771479999994,129.87158199999976,182.6923829999996,133.9741210000002,69.10253900000043,46.666503999999804,426.2822270000006,127.69238299999961,211.41015599999992,113.0771479999994
60,165.89746099999957,482.05126999999993,137.43603499999972,-75.1281740000004,493.7177729999994,135.0,189.23095699999976,128.7177729999994,59.23095699999976,29.48730499999965,422.6923829999996,117.30761700000039,217.17968800000017,111.0258789999998
61,164.7436520000001,478.20507799999996,133.58984400000008,-75.89746100000002,521.9228520000006,137.3076170000004,198.46142599999985,128.7177729999994,54.61523400000078,18.333496000000196,418.46142599999985,110.64111300000059,225.38476599999922,113.7177729999994
62,165.51269500000035,471.6665039999998,131.9228520000006,-69.74365200000011,541.5385740000002,134.3588869999994,209.7436520000001,135.12841800000024,57.82031300000017,18.077147999999397,419.6152340000008,110.0,241.6665039999998,116.79492200000004
63,170.51269500000035,463.3334960000002,132.05126999999993,-56.92309599999999,556.5385740000002,129.3588869999994,221.2822270000006,144.61523400000078,65.64111300000059,26.666503999999804,426.79492200000004,114.48730499999965,265.3847659999992,113.84619099999964
64,178.3334960000002,455.3847659999992,132.56396500000028,-41.41015600000037,571.794922,127.05126999999993,231.41015599999992,151.6665039999998,72.30761700000039,36.79492200000004,437.4360349999997,120.12841800000024,287.82031300000017,108.0771479999994
65,185.0,448.9741210000002,132.6923829999996,-30.38452099999995,588.0771479999994,128.7177729999994,240.2563479999999,153.3334960000002,75.0,42.69238299999961,447.5639650000003,123.20507799999996,298.0771479999994,108.3334960000002
66,187.3076170000004,443.9741210000002,132.43603499999972,-29.10253899999998,601.794922,131.6665039999998,249.48730499999965,151.53857400000015,75.12841800000024,44.102539000000434,455.12841800000024,122.56396500000028,292.6923829999996,113.84619099999964
67,185.51269500000035,439.48730499999965,132.56396500000028,-36.41015600000037,609.1025390000004,132.94873000000007,260.0,150.6411130000006,76.41015599999992,43.846190999999635,458.46142599999985,119.87158199999976,278.0771479999994,115.89746099999957
68,181.53857400000015,434.23095699999976,133.7177729999994,-46.153809000000365,608.5898440000001,131.41015599999992,270.12841800000024,152.6923829999996,79.87158199999976,44.35888699999941,456.15380900000036,117.56396500000028,264.7436520000001,112.56396500000028
69,177.43603499999972,426.9228520000006,135.2563479999999,-50.76928699999962,600.7690430000002,127.69238299999961,277.17968800000017,155.2563479999999,83.7177729999994,46.666503999999804,447.5639650000003,116.6665039999998,258.7177729999994,111.41015599999992
70,175.12841800000024,417.94873000000007,135.51269500000035,-44.8718259999996,588.205078,123.20507799999996,279.23095699999976,155.51269500000035,85.76904300000024,50.38476599999922,433.84619099999964,116.6665039999998,259.48730499999965,116.0258789999998
71,175.76904300000024,408.5898440000001,134.23095699999976,-27.564209000000574,574.2309569999998,119.48730499999965,277.05126999999993,152.17968800000017,85.51269500000035,55.38476599999922,417.82031300000017,116.53857400000015,263.3334960000002,119.48730499999965
72,178.3334960000002,399.3588869999994,131.6665039999998,-3.9741210000001956,561.1538090000004,117.43603499999972,274.87158199999976,146.41015599999992,84.23095699999976,60.0,401.79492200000004,115.51269500000035,265.76904300000024,116.15380900000036
73,178.58984400000008,388.0771479999994,127.69238299999961,16.153809000000365,547.5639650000003,116.41015599999992,276.4101559999999,139.48730499999965,82.94873000000007,60.76904300000024,386.0258789999998,112.17968800000017,262.5639650000003,110.76904300000024
74,172.17968800000017,372.82031300000017,122.05126999999993,26.666503999999804,531.0258789999998,115.38476599999922,282.4360349999997,132.6923829999996,81.6665039999998,55.38476599999922,370.89746099999957,106.15380900000036,250.6411130000006,109.87158199999976
75,160.0,354.87158199999976,115.38476599999922,30.0,510.89746099999957,114.48730499999965,290.12841800000024,127.43603499999972,80.0,44.48730499999965,358.0771479999994,98.84619099999964,231.15380900000036,112.05126999999993
76,147.56396500000028,339.23095699999976,110.12841800000024,34.74365200000011,488.5898440000001,113.9741210000002,295.3847659999992,124.35888699999941,77.94873000000007,33.589844000000085,349.3588869999994,93.0771479999994,209.61523400000078,112.05126999999993
77,140.51269500000035,329.6152340000008,108.3334960000002,46.2822270000006,466.4101559999999,113.3334960000002,296.2822270000006,122.56396500000028,77.17968800000017,30.0,343.20507799999996,91.0258789999998,192.56396500000028,111.0258789999998
78,140.38476599999922,326.4101559999999,110.25634799999989,63.46142599999985,444.6152340000008,111.6665039999998,293.9741210000002,120.12841800000024,79.87158199999976,38.20507799999996,335.3847659999992,92.56396500000028,184.61523400000078,113.46142599999985
79,144.3588869999994,326.2822270000006,113.7177729999994,80.51269500000035,422.94873000000007,109.48730499999965,291.53857400000015,117.56396500000028,87.05126999999993,56.2822270000006,322.6923829999996,96.15380900000036,185.76904300000024,117.82031300000017
80,147.6923829999996,323.7177729999994,116.0258789999998,93.3334960000002,401.6665039999998,108.58984400000008,291.6665039999998,116.6665039999998,97.05126999999993,75.51269500000035,305.12841800000024,99.35888699999941,191.15380900000036,117.30761700000039
81,145.38476599999922,314.6152340000008,115.0,101.53857400000015,380.89746099999957,109.74365200000011,294.87158199999976,117.94873000000007,104.74365200000011,84.74365200000011,283.84619099999964,99.23095699999976,192.3076170000004,111.9228520000006
82,135.12841800000024,298.9741210000002,109.61523400000078,108.20507799999996,361.2822270000006,111.6665039999998,299.6152340000008,119.35888699999941,104.87158199999976,77.05126999999993,259.87158199999976,93.58984400000008,181.79492200000004,109.10253900000043
83,119.61523400000078,282.4360349999997,101.0258789999998,116.6665039999998,343.9741210000002,113.7177729999994,303.84619099999964,118.58984400000008,95.76904300000024,54.61523400000078,234.7436520000001,82.56396500000028,158.7177729999994,111.9228520000006
84,104.23095699999976,272.17968800000017,92.17968800000017,128.46142599999985,330.12841800000024,116.53857400000015,306.4101559999999,115.51269500000035,80.25634799999989,28.077147999999397,212.3076170000004,69.87158199999976,130.38476599999922,114.87158199999976
85,93.0771479999994,269.3588869999994,86.79492200000004,141.53857400000015,318.84619099999964,119.87158199999976,307.17968800000017,111.41015599999992,65.0,8.974121000000196,196.2822270000006,60.0,107.94873000000007,113.20507799999996
86,86.9228520000006,269.23095699999976,86.15380900000036,152.43603499999972,307.6923829999996,121.2822270000006,306.53857400000015,107.43603499999972,56.153809000000365,3.5898440000000846,187.17968800000017,55.76904300000024,99.87158199999976,110.76904300000024
87,85.0,267.5639650000003,88.84619099999964,158.46142599999985,295.89746099999957,119.48730499999965,304.3588869999994,104.35888699999941,56.025878999999804,10.0,183.84619099999964,57.17968800000017,106.2822270000006,111.6665039999998
88,86.0258789999998,264.6152340000008,92.17968800000017,159.10253900000043,285.12841800000024,115.64111300000059,300.51269500000035,102.82031300000017,61.9228520000006,20.641113000000587,184.10253900000043,61.79492200000004,118.46142599999985,113.20507799999996
89,87.56396500000028,263.46142599999985,93.9741210000002,153.9741210000002,278.0771479999994,111.9228520000006,295.51269500000035,102.56396500000028,68.9741210000002,27.05126999999993,185.38476599999922,65.64111300000059,123.3334960000002,111.15380900000036
90,86.15380900000036,265.12841800000024,93.3334960000002,143.0771479999994,274.87158199999976,109.61523400000078,290.76904300000024,102.69238299999961,72.69238299999961,25.641113000000587,185.2563479999999,65.38476599999922,112.30761700000039,108.46142599999985
91,80.25634799999989,267.6923829999996,91.6665039999998,128.84619099999964,274.6152340000008,108.84619099999964,287.3076170000004,102.82031300000017,72.43603499999972,19.102539000000434,182.43603499999972,61.666503999999804,89.74365200000011,110.0
92,73.0771479999994,269.87158199999976,91.41015599999992,116.0258789999998,277.05126999999993,110.0,285.6411130000006,103.84619099999964,70.64111300000059,14.358886999999413,178.58984400000008,58.20507799999996,70.76904300000024,113.3334960000002
93,69.61523400000078,271.53857400000015,94.10253900000043,108.84619099999964,281.0258789999998,112.69238299999961,285.12841800000024,106.9228520000006,70.38476599999922,16.410155999999915,176.6665039999998,58.974121000000196,69.48730499999965,112.56396500000028
94,71.9228520000006,270.89746099999957,98.3334960000002,106.53857400000015,283.46142599999985,114.23095699999976,284.7436520000001,110.64111300000059,72.17968800000017,24.74365200000011,179.3588869999994,64.10253900000043,87.56396500000028,108.7177729999994
95,78.20507799999996,266.0258789999998,100.89746099999957,105.38476599999922,280.89746099999957,111.9228520000006,283.46142599999985,111.6665039999998,74.35888699999941,33.333496000000196,187.3076170000004,70.89746099999957,114.61523400000078,107.69238299999961
96,85.12841800000024,257.17968800000017,100.25634799999989,101.79492200000004,273.3334960000002,106.2822270000006,280.12841800000024,108.20507799999996,74.61523400000078,36.2822270000006,199.3588869999994,76.41015599999992,137.43603499999972,110.64111300000059
97,90.12841800000024,247.43603499999972,97.43603499999972,93.46142599999985,263.9741210000002,101.2822270000006,274.6152340000008,101.53857400000015,71.53857400000015,31.282227000000603,212.17968800000017,78.9741210000002,149.10253900000043,111.79492200000004
98,92.30761700000039,239.10253900000043,95.12841800000024,80.76904300000024,256.4101559999999,99.61523400000078,268.0771479999994,94.61523400000078,65.89746099999957,22.56396500000028,221.9228520000006,78.84619099999964,151.15380900000036,109.74365200000011
99,92.82031300000017,232.3076170000004,95.25634799999989,66.79492200000004,252.56396500000028,101.0258789999998,262.17968800000017,91.0258789999998,61.153809000000365,17.43603499999972,226.6665039999998,78.20507799999996,151.0258789999998,109.23095699999976
100,95.89746099999957,227.17968800000017,98.84619099999964,58.20507799999996,252.6923829999996,104.35888699999941,259.10253900000043,93.20507799999996,62.05126999999993,22.69238299999961,228.58984400000008,80.51269500000035,156.53857400000015,111.79492200000004
101,105.38476599999922,224.48730499999965,105.89746099999957,59.61523400000078,256.4101559999999,108.58984400000008,260.89746099999957,101.53857400000015,70.64111300000059,38.846190999999635,232.56396500000028,88.7177729999994,171.0258789999998,112.17968800000017
102,120.38476599999922,224.23095699999976,114.23095699999976,68.46142599999985,261.2822270000006,113.0771479999994,267.3076170000004,113.20507799999996,84.48730499999965,59.61523400000078,241.2822270000006,101.41015599999992,190.2563479999999,107.30761700000039
103,134.7436520000001,223.58984400000008,120.51269500000035,75.25634799999989,263.9741210000002,117.05126999999993,274.87158199999976,123.20507799999996,97.30761700000039,75.76904300000024,252.6923829999996,113.3334960000002,206.41015599999992,103.3334960000002
104,142.56396500000028,220.38476599999922,122.43603499999972,72.43603499999972,263.3334960000002,120.38476599999922,278.46142599999985,127.69238299999961,104.23095699999976,81.9228520000006,263.0771479999994,119.35888699999941,215.6411130000006,105.89746099999957
105,143.46142599999985,214.10253900000043,120.38476599999922,61.53857400000015,261.0258789999998,123.9741210000002,276.15380900000036,127.17968800000017,104.23095699999976,80.38476599999922,270.2563479999999,119.23095699999976,221.0258789999998,110.64111300000059
106,141.79492200000004,206.9228520000006,116.9228520000006,51.666503999999804,259.10253900000043,127.43603499999972,270.89746099999957,125.51269500000035,101.53857400000015,78.46142599999985,274.7436520000001,117.05126999999993,227.43603499999972,110.76904300000024
107,142.3076170000004,200.6411130000006,113.9741210000002,50.25634799999989,257.3076170000004,129.23095699999976,267.4360349999997,126.2822270000006,101.0258789999998,82.05126999999993,277.6923829999996,116.79492200000004,236.0258789999998,108.7177729999994
108,146.79492200000004,194.61523400000078,113.20507799999996,57.43603499999972,254.23095699999976,128.20507799999996,267.6923829999996,130.6411130000006,105.51269500000035,91.41015599999992,280.76904300000024,120.64111300000059,243.9741210000002,110.51269500000035
109,154.48730499999965,187.94873000000007,115.25634799999989,67.17968800000017,249.61523400000078,125.51269500000035,269.7436520000001,137.05126999999993,113.46142599999985,102.43603499999972,284.23095699999976,127.43603499999972,249.87158199999976,114.87158199999976
110,162.6923829999996,178.9741210000002,118.9741210000002,72.69238299999961,244.3588869999994,122.94873000000007,269.6152340000008,141.79492200000004,120.89746099999957,110.0,287.17968800000017,134.61523400000078,255.0,114.35888699999941
111,168.0771479999994,167.05126999999993,122.05126999999993,71.79492200000004,238.7177729999994,120.76904300000024,266.0258789999998,141.79492200000004,123.7177729999994,112.05126999999993,286.6665039999998,139.3588869999994,261.0258789999998,109.23095699999976
112,168.9741210000002,153.3334960000002,122.43603499999972,67.56396500000028,232.6923829999996,118.58984400000008,260.51269500000035,136.79492200000004,121.0258789999998,110.12841800000024,281.2822270000006,140.2563479999999,268.20507799999996,107.17968800000017
113,166.79492200000004,140.38476599999922,120.38476599999922,65.64111300000059,226.6665039999998,116.79492200000004,256.2822270000006,130.76904300000024,116.15380900000036,108.0771479999994,273.46142599999985,139.23095699999976,275.76904300000024,110.76904300000024
114,165.0,130.51269500000035,118.0771479999994,68.58984400000008,221.53857400000015,115.38476599999922,255.38476599999922,128.58984400000008,113.7177729999994,109.23095699999976,267.94873000000007,138.84619099999964,283.3334960000002,113.46142599999985
115,164.61523400000078,122.56396500000028,116.79492200000004,73.84619099999964,216.15380900000036,113.7177729999994,256.6665039999998,131.2822270000006,116.0258789999998,113.9741210000002,267.5639650000003,139.7436520000001,290.89746099999957,111.79492200000004
116,165.2563479999999,113.46142599999985,116.15380900000036,76.9228520000006,208.84619099999964,111.15380900000036,256.9228520000006,135.89746099999957,121.53857400000015,120.12841800000024,270.12841800000024,140.89746099999957,297.82031300000017,111.2822270000006
117,165.76904300000024,101.6665039999998,115.25634799999989,76.6665039999998,199.61523400000078,108.46142599999985,254.3588869999994,138.3334960000002,126.15380900000036,124.74365200000011,272.4360349999997,141.41015599999992,304.10253900000043,115.12841800000024
118,167.05126999999993,87.94873000000007,114.10253900000043,76.15380900000036,190.6411130000006,107.30761700000039,250.2563479999999,137.17968800000017,127.43603499999972,126.41015599999992,272.6923829999996,142.17968800000017,309.7436520000001,117.43603499999972
119,170.0,75.0,113.58984400000008,78.46142599999985,183.9741210000002,107.82031300000017,248.0771479999994,133.84619099999964,126.15380900000036,125.38476599999922,270.6411130000006,144.7436520000001,314.6152340000008,113.20507799999996
120,174.48730499999965,65.51269500000035,114.61523400000078,82.94873000000007,179.48730499999965,108.9741210000002,248.7177729999994,131.15380900000036,125.64111300000059,123.84619099999964,267.17968800000017,148.9741210000002,318.5898440000001,108.0771479999994
121,179.3588869999994,61.025878999999804,116.9228520000006,86.53857400000015,175.51269500000035,110.12841800000024,250.0,130.89746099999957,128.3334960000002,124.35888699999941,263.20507799999996,153.46142599999985,322.17968800000017,108.58984400000008
122,182.94873000000007,60.76904300000024,119.10253900000043,87.17968800000017,170.2563479999999,110.89746099999957,248.20507799999996,132.94873000000007,133.46142599999985,128.46142599999985,258.9741210000002,155.6411130000006,325.76904300000024,111.41015599999992
123,183.0771479999994,60.12841800000024,119.35888699999941,86.41015599999992,162.56396500000028,110.89746099999957,242.17968800000017,135.2563479999999,138.46142599999985,135.38476599999922,253.7177729999994,154.10253900000043,328.46142599999985,109.74365200000011
124,179.3588869999994,54.102539000000434,117.17968800000017,87.56396500000028,152.17968800000017,109.61523400000078,234.48730499999965,135.76904300000024,141.0258789999998,142.43603499999972,247.43603499999972,150.2563479999999,328.5898440000001,105.38476599999922
125,174.48730499999965,41.79492200000004,114.87158199999976,94.23095699999976,141.15380900000036,107.56396500000028,229.61523400000078,134.87158199999976,140.76904300000024,146.6665039999998,243.9741210000002,148.20507799999996,326.9228520000006,105.89746099999957
126,173.3334960000002,27.56396500000028,115.12841800000024,105.12841800000024,131.2822270000006,107.30761700000039,229.3588869999994,135.51269500000035,139.48730499999965,146.6665039999998,246.53857400000015,151.53857400000015,327.3076170000004,110.12841800000024
127,177.43603499999972,16.025878999999804,118.3334960000002,114.74365200000011,121.6665039999998,108.9741210000002,232.43603499999972,140.12841800000024,139.3588869999994,143.84619099999964,253.3334960000002,159.48730499999965,331.9228520000006,110.89746099999957
128,182.82031300000017,7.43603499999972,121.41015599999992,117.17968800000017,107.56396500000028,110.0,234.87158199999976,147.17968800000017,142.17968800000017,141.9228520000006,256.53857400000015,166.15380900000036,339.23095699999976,107.30761700000039
129,184.10253900000043,-1.0258789999998044,120.89746099999957,112.17968800000017,86.41015599999992,108.7177729999994,233.3334960000002,152.82031300000017,147.56396500000028,145.2563479999999,250.51269500000035,166.41015599999992,344.87158199999976,106.41015599999992
130,179.10253900000043,-11.41015600000037,116.15380900000036,106.41015599999992,62.05126999999993,106.2822270000006,228.58984400000008,154.10253900000043,153.20507799999996,155.2563479999999,236.9228520000006,159.87158199999976,346.9228520000006,110.0
131,170.2563479999999,-23.846190999999635,109.74365200000011,106.53857400000015,42.69238299999961,106.2822270000006,224.23095699999976,150.89746099999957,155.6411130000006,169.3588869999994,223.0771479999994,150.38476599999922,345.89746099999957,111.6665039999998
132,161.6665039999998,-37.30761700000039,105.51269500000035,113.3334960000002,33.333496000000196,110.0,223.58984400000008,146.0258789999998,153.7177729999994,181.79492200000004,215.38476599999922,142.3076170000004,343.3334960000002,108.9741210000002
133,156.6665039999998,-50.0,105.89746099999957,121.9228520000006,32.82031300000017,116.0258789999998,227.17968800000017,143.0771479999994,149.61523400000078,188.7177729999994,216.15380900000036,139.23095699999976,341.53857400000015,107.94873000000007
134,157.43603499999972,-59.48706099999981,110.38476599999922,127.43603499999972,36.025878999999804,121.9228520000006,232.6923829999996,144.7436520000001,146.79492200000004,190.2563479999999,222.82031300000017,142.43603499999972,343.0771479999994,111.53857400000015
135,162.82031300000017,-65.1281740000004,115.51269500000035,127.69238299999961,38.333496000000196,126.0258789999998,237.05126999999993,150.6411130000006,147.43603499999972,190.12841800000024,230.76904300000024,150.0,349.48730499999965,113.84619099999964
136,167.56396500000028,-68.84619099999964,117.69238299999961,123.9741210000002,37.56396500000028,127.43603499999972,238.20507799999996,157.3076170000004,150.6411130000006,191.9228520000006,234.87158199999976,157.05126999999993,358.5898440000001,110.64111300000059
137,166.9228520000006,-74.10253899999998,115.51269500000035,118.9741210000002,34.23095699999976,125.76904300000024,235.76904300000024,160.2563479999999,154.23095699999976,197.3076170000004,233.3334960000002,160.12841800000024,365.76904300000024,107.82031300000017
138,161.0258789999998,-81.53857400000015,111.2822270000006,115.0,30.384765999999217,123.46142599999985,231.53857400000015,158.58984400000008,157.3076170000004,206.15380900000036,229.87158199999976,159.7436520000001,369.6152340000008,110.64111300000059
139,154.87158199999976,-88.07690400000001,108.9741210000002,113.20507799999996,27.05126999999993,123.3334960000002,227.6923829999996,155.38476599999922,159.87158199999976,216.53857400000015,230.51269500000035,160.2563479999999,372.4360349999997,114.48730499999965
140,152.6923829999996,-92.05127000000039,110.12841800000024,112.05126999999993,23.333496000000196,125.51269500000035,225.38476599999922,154.3588869999994,162.05126999999993,225.0,237.6923829999996,164.10253900000043,377.05126999999993,112.69238299999961
141,154.3588869999994,-95.38452099999995,112.94873000000007,110.0,18.846190999999635,127.05126999999993,224.3588869999994,156.15380900000036,163.0771479999994,228.84619099999964,246.79492200000004,169.7436520000001,383.3334960000002,108.84619099999964
142,155.12841800000024,-102.17944299999999,114.61523400000078,107.17968800000017,15.512695000000349,125.51269500000035,223.20507799999996,159.10253900000043,162.3076170000004,227.94873000000007,249.87158199999976,173.84619099999964,388.84619099999964,109.48730499999965
143,151.2822270000006,-114.23071300000038,113.46142599999985,105.89746099999957,17.69238299999961,121.6665039999998,220.51269500000035,160.89746099999957,161.0258789999998,224.7436520000001,241.41015599999992,173.9741210000002,391.79492200000004,112.43603499999972
144,142.56396500000028,-130.0,110.12841800000024,107.82031300000017,25.641113000000587,117.43603499999972,216.2822270000006,160.2563479999999,161.79492200000004,222.17968800000017,220.76904300000024,169.87158199999976,391.6665039999998,111.15380900000036
145,132.05126999999993,-146.41015600000037,105.76904300000024,112.05126999999993,33.974121000000196,113.3334960000002,210.51269500000035,157.43603499999972,166.9228520000006,222.05126999999993,191.9228520000006,163.84619099999964,389.23095699999976,107.17968800000017
146,124.35888699999941,-160.38452099999995,102.82031300000017,115.38476599999922,35.51269500000035,108.84619099999964,204.23095699999976,154.10253900000043,176.6665039999998,225.0,163.46142599999985,159.23095699999976,386.79492200000004,108.0771479999994
147,122.43603499999972,-169.35888699999987,103.20507799999996,115.12841800000024,28.461425999999847,104.87158199999976,199.48730499999965,153.3334960000002,188.84619099999964,231.0258789999998,144.23095699999976,159.10253900000043,385.89746099999957,113.46142599999985
148,124.35888699999941,-173.97436500000003,106.9228520000006,112.05126999999993,16.794922000000042,103.0771479999994,197.56396500000028,156.79492200000004,198.84619099999964,237.43603499999972,138.46142599999985,162.6923829999996,385.3847659999992,115.89746099999957
149,124.23095699999976,-178.46142599999985,111.2822270000006,110.0,5.769043000000238,103.7177729999994,198.46142599999985,162.6923829999996,202.05126999999993,239.61523400000078,142.17968800000017,166.15380900000036,379.6152340000008,113.58984400000008
150,118.0771479999994,-186.02563499999997,113.58984400000008,112.82031300000017,-0.38476599999921746,105.64111300000059,199.3588869999994,167.05126999999993,196.53857400000015,234.48730499999965,146.41015599999992,165.12841800000024,364.23095699999976,112.94873000000007
151,108.0771479999994,-194.7436520000001,112.82031300000017,121.0258789999998,-0.38476599999921746,107.56396500000028,198.7177729999994,167.17968800000017,185.38476599999922,224.10253900000043,145.0,159.7436520000001,342.17968800000017,115.89746099999957
152,101.0258789999998,-198.58984399999963,110.89746099999957,129.7436520000001,4.6152340000007825,109.61523400000078,196.41015599999992,165.0,176.2822270000006,215.2563479999999,138.0771479999994,153.58984400000008,322.4360349999997,115.76904300000024
153,101.2822270000006,-193.58984399999963,109.74365200000011,132.3076170000004,10.256347999999889,111.6665039999998,194.23095699999976,163.9741210000002,175.0,212.82031300000017,130.6411130000006,150.76904300000024,312.17968800000017,110.38476599999922
154,107.30761700000039,-181.79492200000004,109.35888699999941,126.15380900000036,12.43603499999972,113.3334960000002,193.20507799999996,166.6665039999998,181.79492200000004,216.6665039999998,126.15380900000036,151.2822270000006,310.12841800000024,106.6665039999998
155,113.9741210000002,-169.10253899999998,108.7177729999994,116.2822270000006,11.410155999999915,115.12841800000024,193.84619099999964,172.3076170000004,190.6411130000006,221.41015599999992,124.48730499999965,152.3076170000004,308.7177729999994,109.23095699999976
156,116.2822270000006,-160.5129390000002,106.53857400000015,110.89746099999957,10.384765999999217,118.20507799999996,195.89746099999957,178.0771479999994,195.6411130000006,221.79492200000004,121.9228520000006,150.6411130000006,300.51269500000035,111.6665039999998
157,113.58984400000008,-157.3076170000004,103.58984400000008,113.0771479999994,12.051269999999931,122.56396500000028,198.7177729999994,180.89746099999957,193.84619099999964,216.53857400000015,115.0,145.38476599999922,283.84619099999964,108.84619099999964
158,107.94873000000007,-156.923096,101.53857400000015,118.7177729999994,15.897460999999566,126.79492200000004,200.89746099999957,178.58984400000008,187.05126999999993,208.20507799999996,104.10253900000043,138.58984400000008,263.0771479999994,105.0
159,103.20507799999996,-154.61547900000005,101.6665039999998,120.25634799999989,19.74365200000011,129.48730499999965,200.51269500000035,172.05126999999993,178.9741210000002,200.6411130000006,94.74365200000011,134.3588869999994,245.76904300000024,106.2822270000006
160,102.30761700000039,-148.33325200000036,103.84619099999964,115.64111300000059,22.82031300000017,130.2563479999999,196.79492200000004,165.12841800000024,173.46142599999985,197.17968800000017,92.17968800000017,135.6411130000006,236.41015599999992,109.61523400000078
161,104.10253900000043,-140.76928699999962,105.51269500000035,108.84619099999964,24.48730499999965,129.10253900000043,190.38476599999922,161.6665039999998,172.43603499999972,198.20507799999996,95.64111300000059,141.0258789999998,232.56396500000028,109.23095699999976
162,104.61523400000078,-137.179443,103.9741210000002,106.41015599999992,23.333496000000196,125.0,182.6923829999996,162.17968800000017,175.12841800000024,201.41015599999992,97.94873000000007,145.38476599999922,227.43603499999972,107.56396500000028
163,101.15380900000036,-139.4870609999998,98.3334960000002,111.2822270000006,18.846190999999635,118.46142599999985,174.3588869999994,164.3588869999994,177.82031300000017,203.7177729999994,93.3334960000002,144.23095699999976,216.6665039999998,110.38476599999922
164,95.38476599999922,-144.61547900000005,91.79492200000004,121.0258789999998,13.077147999999397,112.17968800000017,166.0258789999998,165.38476599999922,177.3076170000004,202.43603499999972,82.82031300000017,137.3076170000004,202.05126999999993,114.61523400000078
165,91.6665039999998,-146.923096,88.46142599999985,130.2563479999999,9.102539000000434,108.84619099999964,159.23095699999976,163.9741210000002,173.20507799999996,197.94873000000007,72.69238299999961,129.10253900000043,188.9741210000002,113.46142599999985
166,90.89746099999957,-144.8718259999996,89.48730499999965,134.61523400000078,8.333496000000196,108.7177729999994,155.0,160.76904300000024,167.82031300000017,192.17968800000017,67.82031300000017,124.10253900000043,180.2563479999999,108.58984400000008
167,90.89746099999957,-140.64111300000013,92.43603499999972,134.61523400000078,9.615234000000783,109.87158199999976,152.94873000000007,157.17968800000017,163.84619099999964,187.56396500000028,67.30761700000039,123.3334960000002,174.87158199999976,108.46142599999985
168,90.0,-137.820557,93.7177729999994,134.3588869999994,11.410155999999915,110.12841800000024,151.2822270000006,154.3588869999994,161.53857400000015,184.10253900000043,66.6665039999998,124.35888699999941,169.48730499999965,114.10253900000043
169,87.69238299999961,-137.179443,92.30761700000039,136.2822270000006,12.82031300000017,109.10253900000043,148.3334960000002,152.17968800000017,159.3588869999994,180.76904300000024,62.82031300000017,123.7177729999994,162.17968800000017,117.30761700000039
170,84.61523400000078,-137.6923829999996,89.87158199999976,137.17968800000017,13.333496000000196,107.43603499999972,145.0,149.7436520000001,155.12841800000024,176.0258789999998,56.79492200000004,120.38476599999922,152.43603499999972,114.23095699999976
171,81.0258789999998,-137.3076170000004,89.10253900000043,131.15380900000036,13.205077999999958,106.2822270000006,142.6923829999996,147.82031300000017,148.84619099999964,169.7436520000001,51.9228520000006,115.64111300000059,140.89746099999957,110.51269500000035
172,77.94873000000007,-134.4870609999998,90.38476599999922,117.82031300000017,13.461425999999847,107.05126999999993,142.17968800000017,148.84619099999964,143.3334960000002,162.94873000000007,50.38476599999922,112.56396500000028,129.23095699999976,109.74365200000011
173,76.53857400000015,-129.23071300000038,92.05126999999993,103.7177729999994,15.769043000000238,109.35888699999941,141.6665039999998,154.7436520000001,141.6665039999998,157.94873000000007,51.153809000000365,112.82031300000017,119.61523400000078,108.0771479999994
174,75.89746099999957,-124.10253899999998,91.9228520000006,97.05126999999993,20.51269500000035,110.89746099999957,138.7177729999994,162.6923829999996,144.3588869999994,155.12841800000024,50.25634799999989,114.48730499999965,112.69238299999961,103.84619099999964
175,74.23095699999976,-121.53857400000015,89.10253900000043,100.64111300000059,25.769043000000238,109.23095699999976,132.43603499999972,166.2822270000006,148.46142599999985,153.46142599999985,44.74365200000011,114.23095699999976,107.56396500000028,103.20507799999996
176,70.51269500000035,-121.41015600000037,85.51269500000035,109.74365200000011,29.230956999999762,104.74365200000011,123.84619099999964,161.15380900000036,149.7436520000001,151.15380900000036,36.153809000000365,110.51269500000035,102.94873000000007,108.84619099999964
177,66.6665039999998,-120.25634799999989,83.46142599999985,116.41015599999992,30.51269500000035,100.76904300000024,115.89746099999957,150.51269500000035,146.41015599999992,147.56396500000028,30.384765999999217,105.64111300000059,98.58984400000008,113.46142599999985
178,65.0,-116.02563499999997,84.23095699999976,115.76904300000024,30.51269500000035,100.38476599999922,111.15380900000036,141.6665039999998,141.9228520000006,144.10253900000043,31.794922000000042,103.3334960000002,95.0,110.51269500000035
179,65.12841800000024,-110.89746100000002,86.2822270000006,108.3334960000002,30.51269500000035,102.94873000000007,110.0,140.2563479999999,141.0258789999998,142.82031300000017,38.974121000000196,104.74365200000011,92.30761700000039,105.0
180,65.64111300000059,-108.71801800000003,87.05126999999993,99.61523400000078,31.538574000000153,105.64111300000059,110.25634799999989,145.51269500000035,144.87158199999976,144.10253900000043,44.61523400000078,107.69238299999961,90.38476599999922,105.0
181,65.38476599999922,-110.51293900000019,85.51269500000035,96.2822270000006,34.102539000000434,106.79492200000004,108.7177729999994,151.2822270000006,149.23095699999976,145.89746099999957,43.589844000000085,108.7177729999994,89.10253900000043,108.58984400000008
182,65.12841800000024,-113.33325200000036,82.43603499999972,99.61523400000078,38.46142599999985,106.9228520000006,104.35888699999941,151.41015599999992,149.23095699999976,145.0,36.53857400000015,105.51269500000035,87.30761700000039,109.10253900000043
183,65.12841800000024,-114.61547900000005,79.87158199999976,105.38476599999922,43.20507799999996,106.9228520000006,99.35888699999941,144.3588869999994,143.84619099999964,140.6411130000006,29.102539000000434,99.35888699999941,83.58984400000008,107.69238299999961
184,65.25634799999989,-113.84619099999964,78.7177729999994,107.82031300000017,46.666503999999804,107.17968800000017,96.9228520000006,135.12841800000024,137.3076170000004,135.38476599999922,26.282227000000603,93.46142599999985,77.05126999999993,110.0
185,65.12841800000024,-112.56420900000057,78.84619099999964,105.64111300000059,48.0771479999994,107.56396500000028,97.94873000000007,130.76904300000024,134.7436520000001,132.56396500000028,29.230956999999762,90.51269500000035,69.74365200000011,113.7177729999994
186,64.10253900000043,-112.30761700000039,79.23095699999976,101.79492200000004,47.82031300000017,108.0771479999994,100.12841800000024,134.7436520000001,137.82031300000017,132.6923829999996,33.46142599999985,91.2822270000006,64.23095699999976,111.9228520000006
187,61.53857400000015,-114.61547900000005,79.10253900000043,99.35888699999941,46.410155999999915,107.94873000000007,100.51269500000035,143.58984400000008,142.56396500000028,133.3334960000002,33.974121000000196,93.0771479999994,61.2822270000006,106.41015599999992
188,57.56396500000028,-119.10253899999998,77.94873000000007,99.35888699999941,44.35888699999941,106.6665039999998,97.30761700000039,149.61523400000078,143.7177729999994,130.51269500000035,28.461425999999847,92.69238299999961,58.846190999999635,105.89746099999957
189,53.974121000000196,-123.71801800000003,76.41015599999992,101.15380900000036,43.46142599999985,105.0,91.9228520000006,147.82031300000017,139.10253900000043,123.3334960000002,20.384765999999217,89.35888699999941,55.64111300000059,111.41015599999992
190,52.56396500000028,-125.1281740000004,75.25634799999989,103.46142599999985,46.2822270000006,104.74365200000011,87.56396500000028,139.87158199999976,131.15380900000036,114.74365200000011,16.282227000000603,84.74365200000011,51.666503999999804,114.10253900000043
191,53.333496000000196,-122.43579099999943,74.87158199999976,104.74365200000011,53.0771479999994,106.2822270000006,86.0258789999998,131.79492200000004,124.87158199999976,109.10253900000043,19.358886999999413,81.79492200000004,47.94873000000007,110.0
192,54.61523400000078,-116.92309599999999,75.0,104.35888699999941,61.666503999999804,107.56396500000028,86.79492200000004,128.58984400000008,123.84619099999964,109.10253900000043,27.30761700000039,81.79492200000004,45.76904300000024,106.41015599999992
193,55.51269500000035,-111.02563499999997,75.76904300000024,103.46142599999985,68.7177729999994,107.17968800000017,87.82031300000017,130.89746099999957,127.30761700000039,113.46142599999985,35.38476599999922,84.23095699999976,45.76904300000024,108.20507799999996
194,56.410155999999915,-106.15380900000036,77.43603499999972,103.58984400000008,72.30761700000039,105.64111300000059,87.05126999999993,135.6411130000006,131.53857400000015,117.56396500000028,40.51269500000035,87.17968800000017,48.0771479999994,110.38476599999922
195,57.69238299999961,-103.20507799999996,79.35888699999941,104.48730499999965,71.79492200000004,104.35888699999941,84.23095699999976,139.23095699999976,133.20507799999996,118.0771479999994,42.69238299999961,89.48730499999965,50.51269500000035,108.3334960000002
196,58.333496000000196,-103.07690400000001,80.25634799999989,103.0771479999994,67.56396500000028,103.0771479999994,80.0,139.3588869999994,131.41015599999992,113.9741210000002,43.333496000000196,89.74365200000011,49.35888699999941,106.2822270000006
197,57.43603499999972,-104.61547900000005,79.23095699999976,97.56396500000028,61.9228520000006,101.0258789999998,75.38476599999922,136.41015599999992,128.0771479999994,108.20507799999996,43.7177729999994,88.0771479999994,42.82031300000017,108.9741210000002
198,56.025878999999804,-105.25634799999989,77.30761700000039,89.48730499999965,58.46142599999985,98.46142599999985,71.2822270000006,133.20507799999996,125.38476599999922,103.7177729999994,44.61523400000078,86.0258789999998,34.48730499999965,111.15380900000036
199,55.76904300000024,-102.30761700000039,75.76904300000024,83.58984400000008,59.74365200000011,96.41015599999992,68.46142599999985,131.79492200000004,123.84619099999964,101.9228520000006,45.38476599999922,85.51269500000035,30.128418000000238,107.05126999999993
200,57.17968800000017,-96.41015600000037,75.25634799999989,83.7177729999994,64.10253900000043,95.38476599999922,67.30761700000039,131.9228520000006,122.43603499999972,102.17968800000017,45.12841800000024,87.05126999999993,32.17968800000017,101.79492200000004
201,59.102539000000434,-90.51293900000019,75.51269500000035,89.35888699999941,68.46142599999985,94.87158199999976,67.56396500000028,132.05126999999993,120.12841800000024,102.30761700000039,43.974121000000196,88.9741210000002,37.69238299999961,103.46142599999985
202,61.153809000000365,-87.43579099999943,76.0258789999998,96.6665039999998,70.64111300000059,94.61523400000078,68.0771479999994,131.6665039999998,117.82031300000017,101.6665039999998,43.846190999999635,89.48730499999965,41.666503999999804,109.10253900000043
203,62.82031300000017,-87.30761700000039,76.41015599999992,100.51269500000035,71.41015599999992,95.25634799999989,67.94873000000007,131.2822270000006,117.43603499999972,101.0258789999998,45.897460999999566,88.20507799999996,41.79492200000004,110.0
204,63.589844000000085,-89.10253899999998,76.53857400000015,98.58984400000008,71.53857400000015,96.41015599999992,66.9228520000006,131.79492200000004,120.25634799999989,101.6665039999998,49.102539000000434,86.15380900000036,38.846190999999635,106.41015599999992
205,62.82031300000017,-91.41015600000037,75.76904300000024,92.82031300000017,71.41015599999992,97.17968800000017,65.76904300000024,133.0771479999994,125.12841800000024,103.58984400000008,51.79492200000004,84.74365200000011,35.38476599999922,105.76904300000024
206,60.51269500000035,-92.56420900000057,74.23095699999976,88.9741210000002,71.79492200000004,96.9228520000006,64.74365200000011,134.23095699999976,129.61523400000078,105.51269500000035,53.333496000000196,85.38476599999922,33.589844000000085,108.84619099999964
207,57.94873000000007,-92.17944299999999,72.69238299999961,90.89746099999957,73.20507799999996,96.6665039999998,63.846190999999635,134.7436520000001,131.15380900000036,106.15380900000036,55.12841800000024,87.56396500000028,33.333496000000196,108.84619099999964
208,55.38476599999922,-91.66674799999964,72.05126999999993,97.05126999999993,75.25634799999989,96.79492200000004,62.69238299999961,134.23095699999976,128.84619099999964,104.48730499999965,57.17968800000017,89.61523400000078,32.43603499999972,104.61523400000078
209,52.82031300000017,-92.69238299999961,72.69238299999961,101.41015599999992,77.05126999999993,97.17968800000017,61.410155999999915,132.05126999999993,123.58984400000008,100.25634799999989,57.56396500000028,89.87158199999976,28.461425999999847,102.94873000000007
210,51.410155999999915,-93.84619099999964,73.9741210000002,99.74365200000011,79.48730499999965,98.0771479999994,61.153809000000365,129.7436520000001,118.0771479999994,94.87158199999976,54.74365200000011,88.58984400000008,22.56396500000028,106.15380900000036
211,52.82031300000017,-91.79492200000004,75.89746099999957,94.23095699999976,83.9741210000002,100.25634799999989,62.69238299999961,129.48730499999965,115.12841800000024,91.15380900000036,49.87158199999976,88.20507799999996,19.48730499999965,107.94873000000007
212,56.9228520000006,-85.25634799999989,78.3334960000002,91.41015599999992,90.51269500000035,103.20507799999996,65.38476599999922,132.43603499999972,116.0258789999998,90.64111300000059,46.153809000000365,90.0,21.666503999999804,105.64111300000059
213,60.897460999999566,-77.17944299999999,80.76904300000024,95.12841800000024,95.64111300000059,105.0,66.79492200000004,136.0258789999998,119.23095699999976,92.17968800000017,45.64111300000059,92.69238299999961,26.922852000000603,105.76904300000024
214,61.53857400000015,-72.17944299999999,82.17968800000017,102.94873000000007,96.53857400000015,104.10253900000043,65.0,136.79492200000004,121.15380900000036,93.20507799999996,48.0771479999994,93.84619099999964,30.25634799999989,111.2822270000006
215,58.846190999999635,-71.53857400000015,81.53857400000015,108.9741210000002,93.20507799999996,101.79492200000004,60.25634799999989,133.46142599999985,120.0,92.17968800000017,50.897460999999566,92.30761700000039,29.74365200000011,115.0
216,56.153809000000365,-73.46142599999985,79.74365200000011,109.35888699999941,89.23095699999976,100.0,55.0,128.0771479999994,116.9228520000006,90.0,51.9228520000006,89.10253900000043,27.05126999999993,110.38476599999922
217,56.153809000000365,-75.0,78.84619099999964,105.12841800000024,87.43603499999972,99.35888699999941,52.43603499999972,123.58984400000008,114.74365200000011,87.94873000000007,50.897460999999566,86.2822270000006,24.74365200000011,103.9741210000002
218,59.35888699999941,-74.48706099999981,80.25634799999989,101.79492200000004,88.46142599999985,99.48730499999965,52.94873000000007,122.05126999999993,114.48730499999965,87.43603499999972,50.12841800000024,86.0258789999998,23.846190999999635,103.58984400000008
219,63.589844000000085,-71.53857400000015,83.46142599999985,103.58984400000008,91.15380900000036,99.74365200000011,54.61523400000078,123.7177729999994,115.76904300000024,88.7177729999994,52.43603499999972,89.10253900000043,24.102539000000434,106.6665039999998
220,66.79492200000004,-67.69238299999961,86.2822270000006,109.23095699999976,93.46142599999985,99.61523400000078,55.0,127.17968800000017,116.53857400000015,91.41015599999992,58.46142599999985,93.7177729999994,23.846190999999635,106.41015599999992
221,66.9228520000006,-65.64111300000013,86.9228520000006,112.05126999999993,93.46142599999985,98.3334960000002,53.846190999999635,129.48730499999965,115.76904300000024,93.58984400000008,65.12841800000024,97.05126999999993,21.922852000000603,104.74365200000011
222,63.846190999999635,-67.43579099999943,84.74365200000011,107.05126999999993,91.0258789999998,95.64111300000059,51.79492200000004,128.46142599999985,113.3334960000002,92.82031300000017,67.82031300000017,96.9228520000006,18.589844000000085,108.20507799999996
223,59.23095699999976,-72.30761700000039,81.0258789999998,96.0258789999998,87.69238299999961,93.20507799999996,50.0,124.23095699999976,109.87158199999976,89.10253900000043,65.12841800000024,94.10253900000043,15.897460999999566,113.46142599999985
224,55.76904300000024,-77.56420900000057,77.94873000000007,85.89746099999957,85.89746099999957,92.69238299999961,49.102539000000434,119.48730499999965,107.30761700000039,84.48730499999965,59.61523400000078,90.89746099999957,15.769043000000238,111.9228520000006
225,53.974121000000196,-81.41015600000037,76.9228520000006,82.30761700000039,86.0258789999998,94.23095699999976,48.974121000000196,117.17968800000017,106.6665039999998,81.9228520000006,55.64111300000059,88.58984400000008,16.922852000000603,103.9741210000002
226,52.82031300000017,-83.58984399999963,77.69238299999961,85.12841800000024,86.2822270000006,95.76904300000024,48.974121000000196,117.56396500000028,107.94873000000007,82.94873000000007,56.53857400000015,87.43603499999972,17.05126999999993,99.87158199999976
227,52.17968800000017,-83.71801800000003,78.46142599999985,90.25634799999989,85.89746099999957,96.41015599999992,48.20507799999996,119.61523400000078,109.87158199999976,86.9228520000006,63.20507799999996,86.9228520000006,15.897460999999566,103.0771479999994
228,53.46142599999985,-81.15380900000036,77.94873000000007,94.23095699999976,86.0258789999998,97.05126999999993,46.79492200000004,121.79492200000004,111.41015599999992,91.53857400000015,73.7177729999994,87.69238299999961,15.256347999999889,106.6665039999998
229,56.666503999999804,-76.28198199999997,76.79492200000004,96.0258789999998,87.56396500000028,98.20507799999996,45.897460999999566,123.20507799999996,112.43603499999972,94.35888699999941,84.23095699999976,89.87158199999976,16.538574000000153,107.05126999999993
230,60.12841800000024,-71.28198199999997,76.6665039999998,96.79492200000004,89.61523400000078,99.48730499999965,46.2822270000006,123.3334960000002,113.7177729999994,94.35888699999941,90.0,92.69238299999961,18.589844000000085,108.84619099999964
231,61.9228520000006,-68.33325200000036,79.10253900000043,97.43603499999972,91.0258789999998,100.64111300000059,47.82031300000017,122.43603499999972,115.38476599999922,92.56396500000028,89.10253900000043,94.61523400000078,19.871581999999762,112.94873000000007
232,62.05126999999993,-67.43579099999943,83.20507799999996,98.0771479999994,91.9228520000006,102.43603499999972,49.74365200000011,121.9228520000006,116.9228520000006,91.41015599999992,83.46142599999985,95.0,20.384765999999217,112.05126999999993
233,61.53857400000015,-67.30761700000039,86.53857400000015,97.82031300000017,93.46142599999985,105.0,51.025878999999804,122.17968800000017,117.30761700000039,91.9228520000006,77.05126999999993,93.9741210000002,21.410155999999915,103.46142599999985
234,60.897460999999566,-67.69238299999961,86.41015599999992,95.76904300000024,95.38476599999922,107.30761700000039,50.25634799999989,121.41015599999992,115.38476599999922,92.17968800000017,72.30761700000039,91.53857400000015,23.077147999999397,96.53857400000015
235,59.61523400000078,-68.20507799999996,82.05126999999993,93.20507799999996,96.2822270000006,107.17968800000017,46.666503999999804,117.17968800000017,110.64111300000059,88.9741210000002,68.7177729999994,87.94873000000007,23.846190999999635,99.48730499999965
236,58.0771479999994,-68.46142599999985,76.2822270000006,93.20507799999996,95.64111300000059,105.12841800000024,41.025878999999804,110.0,104.48730499999965,81.79492200000004,65.64111300000059,83.9741210000002,22.56396500000028,106.2822270000006
237,57.05126999999993,-67.56420900000057,72.94873000000007,96.53857400000015,93.58984400000008,102.69238299999961,35.897460999999566,103.46142599999985,100.25634799999989,74.23095699999976,63.20507799999996,81.2822270000006,18.846190999999635,107.30761700000039
238,55.897460999999566,-66.66674799999964,73.84619099999964,100.64111300000059,90.38476599999922,101.2822270000006,34.102539000000434,101.41015599999992,100.0,70.89746099999957,62.05126999999993,80.89746099999957,13.589844000000085,104.23095699999976
239,53.20507799999996,-67.30761700000039,77.17968800000017,101.41015599999992,86.79492200000004,100.38476599999922,36.025878999999804,104.35888699999941,103.46142599999985,73.84619099999964,62.56396500000028,81.79492200000004,8.333496000000196,104.74365200000011
240,49.23095699999976,-69.23071300000038,80.0,98.9741210000002,85.0,99.48730499999965,39.48730499999965,109.74365200000011,107.82031300000017,80.25634799999989,64.87158199999976,82.94873000000007,5.641113000000587,107.94873000000007
241,46.666503999999804,-69.48706099999981,80.64111300000059,97.30761700000039,87.56396500000028,98.84619099999964,41.666503999999804,113.84619099999964,110.38476599999922,85.64111300000059,68.7177729999994,83.84619099999964,6.922852000000603,107.43603499999972
242,47.30761700000039,-66.28198199999997,79.74365200000011,99.23095699999976,93.46142599999985,98.3334960000002,41.666503999999804,114.35888699999941,109.87158199999976,87.17968800000017,72.82031300000017,84.61523400000078,10.769043000000238,104.35888699999941
243,50.51269500000035,-61.153809000000365,79.35888699999941,104.10253900000043,98.20507799999996,97.82031300000017,40.76904300000024,111.41015599999992,107.43603499999972,85.0,74.87158199999976,85.38476599999922,14.102539000000434,105.25634799999989
244,54.87158199999976,-57.435790999999426,81.15380900000036,108.0771479999994,97.56396500000028,96.9228520000006,40.38476599999922,108.20507799999996,105.89746099999957,82.30761700000039,74.10253900000043,86.15380900000036,15.128418000000238,109.10253900000043
245,59.48730499999965,-56.28198199999997,85.64111300000059,107.82031300000017,91.79492200000004,96.53857400000015,41.666503999999804,108.46142599999985,107.05126999999993,82.30761700000039,72.69238299999961,87.17968800000017,14.743652000000111,108.46142599999985
246,63.20507799999996,-57.051270000000386,91.41015599999992,103.84619099999964,84.87158199999976,97.43603499999972,43.846190999999635,113.0771479999994,111.2822270000006,85.38476599999922,72.56396500000028,88.84619099999964,15.0,103.46142599999985
247,64.74365200000011,-57.948729999999614,95.51269500000035,98.84619099999964,81.0258789999998,99.48730499999965,45.64111300000059,118.84619099999964,115.76904300000024,89.48730499999965,73.0771479999994,90.51269500000035,16.538574000000153,102.30761700000039
248,64.35888699999941,-57.17944299999999,96.15380900000036,96.53857400000015,82.30761700000039,102.43603499999972,46.410155999999915,121.79492200000004,117.94873000000007,91.6665039999998,72.69238299999961,91.41015599999992,17.94873000000007,106.79492200000004
249,63.589844000000085,-54.35888699999987,94.23095699999976,98.3334960000002,88.3334960000002,105.38476599999922,46.410155999999915,120.51269500000035,116.53857400000015,90.38476599999922,71.41015599999992,91.79492200000004,17.82031300000017,109.23095699999976
250,63.974121000000196,-50.76928699999962,92.56396500000028,102.56396500000028,95.76904300000024,107.17968800000017,46.025878999999804,116.53857400000015,112.43603499999972,86.2822270000006,71.53857400000015,92.30761700000039,15.512695000000349,106.0258789999998
251,64.61523400000078,-48.71801800000003,92.56396500000028,105.76904300000024,100.12841800000024,106.2822270000006,45.12841800000024,111.9228520000006,107.43603499999972,81.41015599999992,74.23095699999976,92.69238299999961,11.410155999999915,104.35888699999941
252,64.61523400000078,-49.35888699999987,92.94873000000007,105.12841800000024,99.23095699999976,103.0771479999994,42.69238299999961,108.3334960000002,103.7177729999994,77.94873000000007,78.0771479999994,92.43603499999972,7.43603499999972,108.7177729999994
253,63.846190999999635,-50.38452099999995,92.05126999999993,101.79492200000004,94.74365200000011,99.61523400000078,38.589844000000085,106.79492200000004,102.94873000000007,77.82031300000017,80.38476599999922,91.79492200000004,6.538574000000153,111.79492200000004
254,63.589844000000085,-49.35888699999987,89.74365200000011,98.9741210000002,90.12841800000024,97.82031300000017,34.35888699999941,107.69238299999961,104.48730499999965,80.89746099999957,79.35888699999941,91.2822270000006,9.230956999999762,107.43603499999972
255,63.974121000000196,-46.153809000000365,87.82031300000017,99.35888699999941,87.30761700000039,97.69238299999961,31.922852000000603,109.61523400000078,106.6665039999998,85.38476599999922,75.25634799999989,91.2822270000006,13.205077999999958,101.15380900000036
256,64.61523400000078,-43.58984399999963,87.56396500000028,102.17968800000017,85.51269500000035,97.05126999999993,31.666503999999804,110.76904300000024,107.69238299999961,88.9741210000002,70.25634799999989,91.15380900000036,15.128418000000238,101.6665039999998
257,65.12841800000024,-44.23071300000038,88.46142599999985,104.61523400000078,83.84619099999964,95.12841800000024,31.922852000000603,110.64111300000059,107.17968800000017,89.87158199999976,67.30761700000039,90.64111300000059,14.102539000000434,106.2822270000006
258,65.25634799999989,-48.07690400000001,88.84619099999964,103.7177729999994,82.69238299999961,92.30761700000039,30.641113000000587,108.84619099999964,105.89746099999957,86.79492200000004,68.20507799999996,89.74365200000011,11.794922000000042,107.82031300000017
259,64.48730499999965,-52.69238299999961,87.43603499999972,99.10253900000043,82.05126999999993,89.35888699999941,27.69238299999961,105.64111300000059,104.48730499999965,81.0258789999998,71.2822270000006,88.46142599999985,9.871581999999762,107.56396500000028
260,62.69238299999961,-55.0,84.74365200000011,92.82031300000017,82.43603499999972,87.43603499999972,25.128418000000238,102.17968800000017,102.94873000000007,75.38476599999922,74.23095699999976,87.05126999999993,8.717772999999397,110.89746099999957
261,61.153809000000365,-52.82055700000001,82.94873000000007,88.46142599999985,83.7177729999994,88.0771479999994,25.384765999999217,101.0258789999998,101.79492200000004,73.46142599999985,75.89746099999957,86.2822270000006,8.205077999999958,114.87158199999976
262,61.153809000000365,-46.79492200000004,83.84619099999964,88.84619099999964,85.64111300000059,91.79492200000004,28.717772999999397,103.46142599999985,101.2822270000006,75.89746099999957,76.0258789999998,86.79492200000004,8.333496000000196,111.79492200000004
263,62.69238299999961,-40.64111300000013,87.82031300000017,94.23095699999976,87.30761700000039,96.53857400000015,32.56396500000028,107.69238299999961,102.17968800000017,79.61523400000078,74.74365200000011,88.20507799999996,9.102539000000434,104.10253900000043
264,64.10253900000043,-37.948729999999614,92.17968800000017,102.43603499999972,87.30761700000039,98.9741210000002,33.46142599999985,110.12841800000024,104.23095699999976,81.41015599999992,72.17968800000017,89.48730499999965,10.256347999999889,101.9228520000006
265,64.87158199999976,-38.46142599999985,94.23095699999976,109.74365200000011,86.79492200000004,98.20507799999996,30.128418000000238,108.7177729999994,106.9228520000006,81.0258789999998,69.61523400000078,90.51269500000035,12.56396500000028,106.6665039999998
266,65.76904300000024,-39.23071300000038,93.58984400000008,112.56396500000028,87.69238299999961,96.9228520000006,25.384765999999217,104.87158199999976,109.48730499999965,81.0258789999998,68.58984400000008,91.41015599999992,17.69238299999961,108.9741210000002
267,67.43603499999972,-38.33325200000036,92.56396500000028,109.35888699999941,90.51269500000035,97.43603499999972,22.69238299999961,102.05126999999993,110.89746099999957,83.46142599999985,69.61523400000078,92.94873000000007,24.615234000000783,105.51269500000035
268,68.7177729999994,-36.79492200000004,93.3334960000002,101.79492200000004,93.46142599999985,99.61523400000078,23.846190999999635,101.9228520000006,110.38476599999922,87.43603499999972,71.2822270000006,94.35888699999941,29.48730499999965,103.9741210000002
269,68.3334960000002,-35.38452099999995,95.51269500000035,95.0,94.61523400000078,101.53857400000015,27.56396500000028,103.58984400000008,107.69238299999961,89.61523400000078,72.82031300000017,94.35888699999941,28.717772999999397,108.7177729999994
270,65.89746099999957,-33.974365000000034,96.6665039999998,94.10253900000043,93.7177729999994,101.79492200000004,30.25634799999989,104.48730499999965,103.46142599999985,87.43603499999972,74.10253900000043,93.0771479999994,22.69238299999961,112.30761700000039
271,61.79492200000004,-32.69238299999961,94.87158199999976,98.9741210000002,91.41015599999992,100.38476599999922,28.717772999999397,102.82031300000017,98.84619099999964,81.53857400000015,74.61523400000078,91.15380900000036,14.358886999999413,109.35888699999941
272,56.53857400000015,-33.46142599999985,90.25634799999989,104.61523400000078,87.43603499999972,97.05126999999993,23.077147999999397,98.20507799999996,95.0,74.35888699999941,73.20507799999996,89.74365200000011,6.153809000000365,106.2822270000006
273,50.64111300000059,-38.20507799999996,85.0,105.25634799999989,82.05126999999993,93.0771479999994,16.410155999999915,93.3334960000002,93.3334960000002,68.84619099999964,69.23095699999976,88.20507799999996,-0.38476599999921746,109.48730499999965
274,46.025878999999804,-45.64111300000013,82.30761700000039,100.51269500000035,77.56396500000028,90.64111300000059,12.82031300000017,91.53857400000015,93.9741210000002,67.17968800000017,65.0,86.6665039999998,-2.6923829999996087,113.7177729999994
275,45.12841800000024,-50.76928699999962,83.7177729999994,94.23095699999976,76.6665039999998,91.53857400000015,14.102539000000434,94.74365200000011,96.2822270000006,69.87158199999976,63.20507799999996,85.76904300000024,1.2822270000006029,111.15380900000036
276,48.589844000000085,-49.8718259999996,88.58984400000008,90.25634799999989,80.0,94.87158199999976,18.461425999999847,101.2822270000006,99.10253900000043,75.51269500000035,64.87158199999976,86.9228520000006,11.282227000000603,105.76904300000024
277,54.61523400000078,-42.69238299999961,94.35888699999941,90.51269500000035,85.12841800000024,97.56396500000028,22.05126999999993,107.69238299999961,101.6665039999998,81.9228520000006,68.9741210000002,90.76904300000024,22.43603499999972,106.41015599999992
278,61.153809000000365,-32.564209000000574,98.46142599999985,94.35888699999941,89.23095699999976,97.43603499999972,22.17968800000017,110.64111300000059,103.46142599999985,87.17968800000017,74.61523400000078,96.2822270000006,29.48730499999965,110.76904300000024
279,66.41015599999992,-23.974365000000034,100.0,99.23095699999976,91.0258789999998,95.25634799999989,18.846190999999635,109.74365200000011,104.23095699999976,90.64111300000059,81.15380900000036,101.53857400000015,30.0,110.25634799999989
280,68.9741210000002,-20.769286999999622,99.87158199999976,101.9228520000006,90.51269500000035,92.17968800000017,13.717772999999397,105.89746099999957,103.84619099999964,92.05126999999993,86.9228520000006,104.10253900000043,25.0,104.74365200000011
281,68.0771479999994,-23.71801800000003,98.9741210000002,101.0258789999998,88.84619099999964,89.74365200000011,8.589844000000085,101.15380900000036,102.05126999999993,91.15380900000036,89.61523400000078,103.20507799999996,18.205077999999958,102.05126999999993
282,65.12841800000024,-29.74365200000011,97.43603499999972,99.61523400000078,87.94873000000007,88.9741210000002,4.230956999999762,97.30761700000039,99.74365200000011,88.7177729999994,88.7177729999994,99.74365200000011,14.102539000000434,104.10253900000043
283,62.30761700000039,-33.58984399999963,95.51269500000035,101.41015599999992,88.84619099999964,90.25634799999989,1.6665039999998044,96.15380900000036,97.69238299999961,86.79492200000004,85.51269500000035,96.15380900000036,15.641113000000587,104.61523400000078
284,61.666503999999804,-31.794922000000042,93.7177729999994,105.64111300000059,90.64111300000059,93.20507799999996,2.1796880000001693,97.56396500000028,96.53857400000015,86.53857400000015,81.15380900000036,93.9741210000002,22.30761700000039,102.30761700000039
285,62.56396500000028,-25.89746100000002,92.56396500000028,106.79492200000004,90.89746099999957,96.15380900000036,6.025878999999804,100.12841800000024,96.2822270000006,88.0771479999994,76.41015599999992,93.58984400000008,30.51269500000035,103.58984400000008
286,64.35888699999941,-20.0,92.56396500000028,101.9228520000006,88.9741210000002,98.46142599999985,11.666503999999804,102.43603499999972,97.17968800000017,90.0,72.82031300000017,94.35888699999941,36.53857400000015,109.74365200000011
287,67.17968800000017,-16.538574000000153,94.74365200000011,95.38476599999922,87.30761700000039,100.51269500000035,16.538574000000153,103.46142599999985,98.84619099999964,91.6665039999998,73.46142599999985,96.41015599999992,38.589844000000085,111.79492200000004
288,71.53857400000015,-15.641113000000132,99.23095699999976,94.87158199999976,88.46142599999985,102.43603499999972,19.358886999999413,103.58984400000008,100.38476599999922,93.0771479999994,80.0,100.38476599999922,36.53857400000015,106.41015599999992
289,76.15380900000036,-15.769286999999622,104.87158199999976,102.94873000000007,92.30761700000039,103.3334960000002,20.128418000000238,102.82031300000017,100.51269500000035,94.74365200000011,89.48730499999965,105.25634799999989,31.794922000000042,102.05126999999993
290,79.61523400000078,-14.61547900000005,108.7177729999994,114.61523400000078,97.17968800000017,102.82031300000017,19.615234000000783,101.9228520000006,99.87158199999976,97.17968800000017,96.15380900000036,109.48730499999965,27.43603499999972,105.76904300000024
291,80.89746099999957,-9.358886999999868,108.7177729999994,121.6665039999998,101.6665039999998,102.94873000000007,18.461425999999847,102.05126999999993,99.35888699999941,100.12841800000024,96.9228520000006,111.0258789999998,26.922852000000603,111.2822270000006
292,80.51269500000035,0.12841800000023795,104.48730499999965,120.51269500000035,105.0,105.51269500000035,17.30761700000039,103.58984400000008,99.87158199999976,103.58984400000008,93.3334960000002,108.7177729999994,31.282227000000603,110.51269500000035
293,78.84619099999964,10.256347999999889,97.94873000000007,113.0771479999994,106.15380900000036,109.35888699999941,16.025878999999804,105.0,101.0258789999998,106.2822270000006,88.3334960000002,103.7177729999994,37.94873000000007,106.41015599999992
294,76.6665039999998,16.666503999999804,92.82031300000017,105.12841800000024,104.48730499999965,111.41015599999992,14.358886999999413,104.61523400000078,102.05126999999993,107.82031300000017,84.48730499999965,98.3334960000002,43.46142599999985,106.2822270000006
295,75.25634799999989,19.102539000000434,92.05126999999993,101.79492200000004,101.53857400000015,109.74365200000011,12.43603499999972,102.56396500000028,102.69238299999961,108.0771479999994,82.82031300000017,95.64111300000059,45.897460999999566,108.3334960000002
296,76.15380900000036,21.282227000000603,96.2822270000006,104.61523400000078,99.23095699999976,105.64111300000059,11.282227000000603,100.51269500000035,102.56396500000028,107.56396500000028,84.10253900000043,97.05126999999993,46.025878999999804,106.41015599999992
297,79.23095699999976,26.153809000000365,103.0771479999994,111.41015599999992,98.3334960000002,101.53857400000015,11.666503999999804,99.87158199999976,101.9228520000006,107.17968800000017,88.46142599999985,101.53857400000015,45.38476599999922,102.82031300000017
298,82.56396500000028,33.20507799999996,108.58984400000008,117.05126999999993,97.69238299999961,99.10253900000043,13.205077999999958,100.51269500000035,101.0258789999998,107.30761700000039,94.10253900000043,106.6665039999998,45.51269500000035,105.12841800000024
299,84.61523400000078,40.12841800000024,110.51269500000035,118.0771479999994,96.41015599999992,99.23095699999976,14.102539000000434,101.6665039999998,100.38476599999922,108.3334960000002,98.20507799999996,110.25634799999989,46.9228520000006,111.15380900000036
300,85.51269500000035,45.64111300000059,108.84619099999964,115.51269500000035,94.74365200000011,101.15380900000036,12.692382999999609,102.82031300000017,100.25634799999989,109.48730499999965,99.10253900000043,112.30761700000039,49.48730499999965,111.9228520000006
301,85.38476599999922,49.102539000000434,106.15380900000036,112.82031300000017,93.84619099999964,102.69238299999961,9.102539000000434,103.0771479999994,100.51269500000035,109.48730499999965,96.9228520000006,113.0771479999994,51.2822270000006,106.9228520000006
302,84.61523400000078,50.897460999999566,104.35888699999941,112.69238299999961,93.58984400000008,101.41015599999992,4.6152340000007825,101.79492200000004,100.51269500000035,108.0771479999994,93.3334960000002,112.56396500000028,50.51269500000035,104.61523400000078
303,83.9741210000002,52.94873000000007,104.10253900000043,114.35888699999941,94.23095699999976,98.20507799999996,1.5385740000001533,99.61523400000078,100.51269500000035,106.53857400000015,90.76904300000024,110.76904300000024,47.82031300000017,107.30761700000039
304,84.48730499999965,57.30761700000039,105.0,115.25634799999989,95.89746099999957,96.0258789999998,1.153809000000365,98.3334960000002,100.76904300000024,106.53857400000015,91.15380900000036,108.46142599999985,46.153809000000365,107.82031300000017
305,85.76904300000024,63.7177729999994,106.41015599999992,113.3334960000002,97.69238299999961,97.17968800000017,3.077147999999397,99.23095699999976,101.15380900000036,108.3334960000002,94.35888699999941,106.6665039999998,46.79492200000004,103.46142599999985
306,85.76904300000024,69.35888699999941,106.79492200000004,108.58984400000008,97.56396500000028,99.87158199999976,5.512695000000349,100.76904300000024,101.41015599999992,109.87158199999976,97.82031300000017,105.64111300000059,47.69238299999961,102.17968800000017
307,82.56396500000028,71.41015599999992,105.51269500000035,102.82031300000017,95.12841800000024,100.76904300000024,6.153809000000365,100.89746099999957,101.0258789999998,108.84619099999964,98.46142599999985,104.74365200000011,46.025878999999804,107.69238299999961
308,77.69238299999961,71.53857400000015,103.46142599999985,98.3334960000002,92.30761700000039,98.7177729999994,3.846190999999635,99.35888699999941,99.74365200000011,105.38476599999922,96.15380900000036,103.84619099999964,42.69238299999961,111.79492200000004
309,75.38476599999922,72.94873000000007,102.43603499999972,97.30761700000039,92.17968800000017,95.89746099999957,-0.256347999999889,97.69238299999961,98.3334960000002,101.41015599999992,93.7177729999994,104.35888699999941,41.025878999999804,108.0771479999994
310,77.69238299999961,77.17968800000017,103.46142599999985,100.51269500000035,94.23095699999976,94.61523400000078,-3.846190999999635,97.05126999999993,97.56396500000028,99.61523400000078,93.84619099999964,107.05126999999993,43.46142599999985,102.56396500000028
311,82.94873000000007,82.17968800000017,105.51269500000035,106.79492200000004,95.38476599999922,96.15380900000036,-5.0,97.30761700000039,98.0771479999994,101.0258789999998,95.89746099999957,111.0258789999998,48.589844000000085,103.84619099999964
312,87.69238299999961,85.76904300000024,107.56396500000028,112.82031300000017,93.84619099999964,100.0,-2.9487300000000687,98.20507799999996,99.61523400000078,104.61523400000078,97.30761700000039,113.9741210000002,53.589844000000085,108.20507799999996
313,89.48730499999965,88.0771479999994,109.10253900000043,114.35888699999941,90.64111300000059,104.87158199999976,1.2822270000006029,99.61523400000078,101.41015599999992,107.94873000000007,97.56396500000028,114.48730499999965,56.53857400000015,108.0771479999994
314,87.56396500000028,90.51269500000035,110.0,109.23095699999976,89.10253900000043,108.3334960000002,5.769043000000238,101.15380900000036,102.30761700000039,108.9741210000002,97.94873000000007,113.20507799999996,56.410155999999915,105.38476599999922
315,83.20507799999996,93.84619099999964,109.48730499999965,99.87158199999976,90.89746099999957,108.9741210000002,8.461425999999847,101.9228520000006,101.53857400000015,107.17968800000017,100.12841800000024,110.89746099999957,53.20507799999996,107.17968800000017
316,79.61523400000078,97.43603499999972,107.17968800000017,93.46142599999985,96.0258789999998,107.56396500000028,8.717772999999397,101.41015599999992,99.87158199999976,104.61523400000078,103.58984400000008,108.58984400000008,48.589844000000085,111.2822270000006
317,80.38476599999922,100.76904300000024,103.7177729999994,96.9228520000006,102.69238299999961,106.0258789999998,7.692382999999609,100.38476599999922,99.23095699999976,103.9741210000002,105.12841800000024,107.30761700000039,45.64111300000059,109.61523400000078
318,85.38476599999922,103.46142599999985,101.79492200000004,110.0,107.69238299999961,105.38476599999922,6.666503999999804,99.74365200000011,101.0258789999998,105.76904300000024,102.30761700000039,107.94873000000007,45.76904300000024,103.46142599999985
319,91.2822270000006,105.12841800000024,102.94873000000007,124.48730499999965,107.05126999999993,103.9741210000002,5.3847659999992175,98.9741210000002,103.84619099999964,108.0771479999994,95.64111300000059,109.74365200000011,47.43603499999972,102.17968800000017
320,93.7177729999994,106.53857400000015,106.2822270000006,130.76904300000024,99.87158199999976,101.0258789999998,2.5639650000002803,97.30761700000039,104.61523400000078,108.3334960000002,89.10253900000043,111.2822270000006,47.82031300000017,106.79492200000004
321,92.05126999999993,108.3334960000002,109.48730499999965,124.61523400000078,89.35888699999941,97.30761700000039,-2.1796869999998307,94.48730499999965,101.6665039999998,106.41015599999992,85.89746099999957,112.17968800000017,46.666503999999804,108.3334960000002
322,87.56396500000028,110.89746099999957,110.12841800000024,110.25634799999989,80.38476599999922,94.23095699999976,-7.179442999999992,90.64111300000059,96.2822270000006,103.20507799999996,85.38476599999922,111.9228520000006,44.74365200000011,104.35888699999941
323,82.69238299999961,112.94873000000007,106.6665039999998,96.9228520000006,77.30761700000039,92.82031300000017,-9.743652000000111,86.41015599999992,91.15380900000036,100.25634799999989,85.12841800000024,110.89746099999957,43.20507799999996,102.82031300000017
324,79.10253900000043,113.7177729999994,100.51269500000035,92.82031300000017,81.9228520000006,93.84619099999964,-8.846190999999635,83.46142599999985,88.58984400000008,98.7177729999994,84.61523400000078,109.48730499999965,43.20507799999996,107.94873000000007
325,79.10253900000043,114.61523400000078,95.12841800000024,100.38476599999922,93.20507799999996,97.94873000000007,-5.0,84.23095699999976,90.12841800000024,99.61523400000078,86.2822270000006,109.23095699999976,45.897460999999566,111.6665039999998
326,83.58984400000008,116.9228520000006,94.61523400000078,114.35888699999941,106.2822270000006,104.10253900000043,-0.512695000000349,89.35888699999941,95.51269500000035,103.46142599999985,91.2822270000006,111.79492200000004,51.025878999999804,108.46142599999985
327,90.64111300000059,121.0258789999998,100.0,125.38476599999922,113.84619099999964,108.58984400000008,2.1796880000001693,96.15380900000036,102.82031300000017,109.10253900000043,97.43603499999972,116.79492200000004,55.38476599999922,104.61523400000078
328,97.17968800000017,125.89746099999957,108.3334960000002,127.94873000000007,111.79492200000004,108.9741210000002,1.7949220000000423,100.89746099999957,108.46142599999985,113.9741210000002,102.05126999999993,122.30761700000039,56.2822270000006,107.05126999999993
329,101.15380900000036,130.2563479999999,115.0,123.84619099999964,103.84619099999964,106.6665039999998,-0.38476599999921746,101.9228520000006,110.51269500000035,117.43603499999972,103.84619099999964,125.89746099999957,54.74365200000011,110.89746099999957
330,102.17968800000017,133.0771479999994,117.43603499999972,118.9741210000002,97.94873000000007,105.38476599999922,-1.4101559999999154,101.0258789999998,110.0,119.87158199999976,103.58984400000008,126.53857400000015,55.12841800000024,109.23095699999976
331,100.64111300000059,132.94873000000007,116.0258789999998,116.53857400000015,99.10253900000043,107.82031300000017,0.8974609999995664,101.0258789999998,109.35888699999941,122.30761700000039,102.17968800000017,124.35888699999941,60.12841800000024,106.15380900000036
332,97.69238299999961,130.6411130000006,113.0771479999994,116.0258789999998,106.2822270000006,112.30761700000039,5.128418000000238,102.69238299999961,110.12841800000024,125.0,100.76904300000024,121.0258789999998,67.56396500000028,108.84619099999964
333,94.87158199999976,129.10253900000043,110.51269500000035,116.2822270000006,113.9741210000002,115.64111300000059,7.56396500000028,104.87158199999976,111.41015599999992,125.89746099999957,100.25634799999989,118.3334960000002,72.17968800000017,114.23095699999976
334,93.58984400000008,131.6665039999998,109.48730499999965,116.53857400000015,117.30761700000039,115.25634799999989,5.256347999999889,105.25634799999989,111.41015599999992,123.20507799999996,100.0,116.9228520000006,69.74365200000011,112.82031300000017
335,93.0771479999994,136.9228520000006,109.23095699999976,116.53857400000015,113.9741210000002,110.89746099999957,-1.6665039999998044,102.30761700000039,109.23095699999976,116.0258789999998,97.82031300000017,115.76904300000024,60.897460999999566,105.76904300000024
336,91.79492200000004,139.48730499999965,108.9741210000002,116.2822270000006,105.64111300000059,104.10253900000043,-10.1281740000004,96.2822270000006,105.12841800000024,106.6665039999998,93.46142599999985,113.46142599999985,50.38476599999922,102.43603499999972
337,89.48730499999965,135.12841800000024,107.94873000000007,115.89746099999957,97.05126999999993,98.58984400000008,-16.153809000000365,90.12841800000024,101.15380900000036,99.10253900000043,89.48730499999965,110.38476599999922,44.87158199999976,104.74365200000011
338,87.17968800000017,125.76904300000024,106.53857400000015,115.25634799999989,93.46142599999985,97.69238299999961,-17.435790999999426,86.9228520000006,99.23095699999976,96.6665039999998,88.46142599999985,108.46142599999985,48.20507799999996,105.89746099999957
339,85.12841800000024,117.43603499999972,105.12841800000024,112.94873000000007,95.0,100.51269500000035,-15.38452099999995,87.05126999999993,99.87158199999976,99.35888699999941,88.7177729999994,108.46142599999985,57.82031300000017,103.84619099999964
340,83.0771479999994,115.89746099999957,104.23095699999976,107.94873000000007,97.94873000000007,103.46142599999985,-13.205077999999958,87.56396500000028,101.0258789999998,103.58984400000008,87.30761700000039,109.61523400000078,66.2822270000006,105.12841800000024
341,82.05126999999993,123.0771479999994,104.87158199999976,102.43603499999972,98.9741210000002,104.23095699999976,-13.205077999999958,87.05126999999993,101.15380900000036,106.53857400000015,85.38476599999922,111.41015599999992,67.82031300000017,110.38476599999922
342,84.87158199999976,135.2563479999999,108.7177729999994,101.2822270000006,99.48730499999965,103.84619099999964,-14.358886999999868,87.56396500000028,100.89746099999957,108.3334960000002,88.84619099999964,115.51269500000035,63.333496000000196,111.53857400000015
343,92.05126999999993,145.76904300000024,115.64111300000059,107.82031300000017,101.9228520000006,105.0,-13.974365000000034,92.05126999999993,101.79492200000004,110.76904300000024,100.38476599999922,123.0771479999994,58.974121000000196,105.51269500000035
344,99.87158199999976,148.58984400000008,123.0771479999994,119.10253900000043,105.89746099999957,107.94873000000007,-10.769286999999622,99.87158199999976,104.87158199999976,115.12841800000024,114.87158199999976,131.79492200000004,59.23095699999976,101.6665039999998
345,103.58984400000008,143.9741210000002,126.9228520000006,128.20507799999996,107.82031300000017,110.38476599999922,-6.41015600000037,106.6665039999998,108.9741210000002,120.0,122.43603499999972,137.6923829999996,64.87158199999976,106.2822270000006
346,101.6665039999998,139.10253900000043,125.76904300000024,129.23095699999976,104.87158199999976,110.0,-3.846190999999635,107.94873000000007,112.17968800000017,122.94873000000007,118.58984400000008,138.0771479999994,73.0771479999994,112.17968800000017
347,97.05126999999993,140.6411130000006,121.53857400000015,121.6665039999998,98.58984400000008,106.53857400000015,-4.61547900000005,103.46142599999985,112.94873000000007,122.30761700000039,108.20507799999996,134.48730499999965,80.64111300000059,111.2822270000006
348,94.10253900000043,148.84619099999964,118.20507799999996,110.25634799999989,93.46142599999985,102.17968800000017,-7.307617000000391,97.56396500000028,111.9228520000006,119.48730499999965,100.25634799999989,130.38476599999922,85.12841800000024,107.17968800000017
349,95.64111300000059,157.82031300000017,118.0771479999994,101.6665039999998,94.10253900000043,100.25634799999989,-8.58984399999963,95.25634799999989,111.53857400000015,117.94873000000007,100.51269500000035,129.10253900000043,85.51269500000035,107.82031300000017
350,101.0258789999998,161.15380900000036,120.25634799999989,100.76904300000024,101.53857400000015,103.7177729999994,-6.666747999999643,98.0771479999994,112.94873000000007,119.48730499999965,107.82031300000017,130.76904300000024,81.79492200000004,110.89746099999957
351,106.15380900000036,157.05126999999993,121.9228520000006,108.0771479999994,111.9228520000006,112.05126999999993,-2.9487300000000687,102.69238299999961,114.48730499999965,122.43603499999972,116.15380900000036,133.0771479999994,74.74365200000011,109.48730499999965
352,106.6665039999998,149.10253900000043,121.15380900000036,120.25634799999989,118.58984400000008,120.51269500000035,-0.769043000000238,103.58984400000008,113.3334960000002,123.0771479999994,119.35888699999941,132.82031300000017,65.76904300000024,106.0258789999998
353,101.6665039999998,142.82031300000017,118.20507799999996,132.17968800000017,117.30761700000039,123.46142599999985,-1.5385740000001533,99.48730499999965,109.23095699999976,120.0,116.41015599999992,129.7436520000001,58.974121000000196,107.56396500000028
354,96.15380900000036,142.43603499999972,115.89746099999957,139.3588869999994,109.48730499999965,119.35888699999941,-3.717772999999397,95.0,105.89746099999957,116.53857400000015,111.6665039999998,127.30761700000039,60.0,112.17968800000017
355,96.53857400000015,148.9741210000002,117.17968800000017,139.48730499999965,101.41015599999992,111.41015599999992,-4.102538999999979,96.6665039999998,107.69238299999961,117.30761700000039,110.64111300000059,129.3588869999994,71.9228520000006,111.15380900000036
356,103.9741210000002,158.58984400000008,121.9228520000006,132.94873000000007,98.7177729999994,104.74365200000011,-1.2822270000006029,106.15380900000036,115.51269500000035,123.58984400000008,114.74365200000011,135.89746099999957,90.25634799999989,104.61523400000078
357,112.30761700000039,164.7436520000001,126.15380900000036,122.56396500000028,102.05126999999993,103.3334960000002,3.4614259999998467,117.17968800000017,124.74365200000011,131.41015599999992,118.58984400000008,141.53857400000015,104.23095699999976,102.30761700000039
358,113.7177729999994,163.3334960000002,124.87158199999976,112.94873000000007,108.46142599999985,107.94873000000007,6.282227000000603,120.25634799999989,127.82031300000017,133.58984400000008,115.89746099999957,140.0,103.84619099999964,106.6665039999998
359,104.61523400000078,155.12841800000024,116.0258789999998,108.84619099999964,113.3334960000002,116.53857400000015,2.9487300000000687,109.74365200000011,119.23095699999976,124.61523400000078,105.25634799999989,129.3588869999994,87.05126999999993,109.23095699999976
360,88.84619099999964,144.87158199999976,102.82031300000017,112.05126999999993,114.48730499999965,125.0,-7.179442999999992,88.3334960000002,100.51269500000035,105.76904300000024,91.0258789999998,113.46142599999985,60.64111300000059,105.76904300000024
361,74.35888699999941,137.3076170000004,91.41015599999992,120.12841800000024,112.82031300000017,129.48730499999965,-19.230713000000378,66.9228520000006,81.0258789999998,85.76904300000024,80.64111300000059,100.0,37.82031300000017,103.58984400000008
362,69.48730499999965,136.2822270000006,87.69238299999961,128.58984400000008,110.38476599999922,128.20507799999996,-25.769286999999622,58.46142599999985,72.94873000000007,77.05126999999993,79.61523400000078,96.2822270000006,31.410155999999915,107.56396500000028
363,77.56396500000028,141.9228520000006,93.84619099999964,133.58984400000008,108.0771479999994,122.56396500000028,-21.538574000000153,69.48730499999965,83.0771479999994,86.9228520000006,88.46142599999985,104.35888699999941,46.2822270000006,111.41015599999992
364,94.35888699999941,149.48730499999965,107.43603499999972,133.9741210000002,104.61523400000078,114.74365200000011,-8.71801800000003,93.7177729999994,105.89746099999957,110.38476599999922,101.6665039999998,119.23095699999976,74.10253900000043,108.7177729999994
365,108.0771479999994,150.38476599999922,120.51269500000035,130.2563479999999,98.84619099999964,107.94873000000007,4.102539000000434,114.35888699999941,126.53857400000015,131.0258789999998,108.0771479999994,130.2563479999999,95.89746099999957,105.0
366,107.69238299999961,139.10253900000043,123.46142599999985,123.58984400000008,92.94873000000007,105.12841800000024,7.051269999999931,116.15380900000036,130.51269500000035,132.43603499999972,98.58984400000008,128.20507799999996,95.0,106.9228520000006
367,91.0258789999998,118.0771479999994,112.56396500000028,115.12841800000024,90.76904300000024,107.56396500000028,-3.9741210000001956,96.41015599999992,114.48730499999965,110.38476599999922,73.9741210000002,111.53857400000015,69.74365200000011,110.76904300000024
368,67.17968800000017,96.79492200000004,93.7177729999994,107.17968800000017,92.94873000000007,113.3334960000002,-23.205077999999958,67.69238299999961,89.61523400000078,77.56396500000028,46.53857400000015,88.84619099999964,35.25634799999989,109.10253900000043
369,51.2822270000006,85.76904300000024,78.84619099999964,103.20507799999996,95.0,116.6665039999998,-37.564209000000574,49.74365200000011,74.74365200000011,56.410155999999915,31.666503999999804,74.10253900000043,13.461425999999847,105.38476599999922
370,54.102539000000434,88.9741210000002,77.43603499999972,108.58984400000008,91.2822270000006,113.20507799999996,-36.53857400000015,55.64111300000059,83.3334960000002,63.7177729999994,36.025878999999804,77.05126999999993,18.205077999999958,107.30761700000039
371,75.0,102.69238299999961,89.23095699999976,127.30761700000039,80.76904300000024,104.48730499999965,-19.487060999999812,82.17968800000017,111.9228520000006,97.05126999999993,51.53857400000015,96.0258789999998,46.79492200000004,112.30761700000039
372,101.15380900000036,116.41015599999992,104.74365200000011,157.43603499999972,68.3334960000002,97.69238299999961,2.4360349999997197,111.2822270000006,142.56396500000028,135.51269500000035,59.74365200000011,118.0771479999994,81.0258789999998,111.79492200000004
373,116.0258789999998,118.58984400000008,113.0771479999994,189.87158199999976,59.74365200000011,98.7177729999994,15.0,122.69238299999961,155.2563479999999,154.23095699999976,44.87158199999976,127.94873000000007,99.61523400000078,106.15380900000036
374,111.0258789999998,104.61523400000078,108.9741210000002,215.0,55.897460999999566,105.64111300000059,11.025878999999804,109.23095699999976,144.7436520000001,145.2563479999999,6.410155999999915,119.61523400000078,94.10253900000043,104.10253900000043
375,93.0771479999994,81.15380900000036,96.79492200000004,230.89746099999957,53.846190999999635,111.2822270000006,-4.487060999999812,83.7177729999994,124.10253900000043,122.94873000000007,-38.20507799999996,100.89746099999957,75.12841800000024,107.56396500000028
376,78.7177729999994,60.897460999999566,86.0258789999998,245.6411130000006,50.76904300000024,110.38476599999922,-18.974365000000034,66.15380900000036,112.69238299999961,111.0258789999998,-66.15380900000036,86.6665039999998,62.17968800000017,109.48730499999965
377,78.3334960000002,52.17968800000017,82.56396500000028,267.4360349999997,45.51269500000035,104.48730499999965,-23.333252000000357,65.64111300000059,118.7177729999994,120.64111300000059,-68.33325200000036,85.12841800000024,66.0258789999998,108.0771479999994
378,87.69238299999961,51.79492200000004,84.48730499999965,295.76904300000024,40.0,100.38476599999922,-18.333252000000357,74.35888699999941,134.23095699999976,142.94873000000007,-56.025634999999966,92.05126999999993,79.61523400000078,110.38476599999922
379,93.7177729999994,49.23095699999976,84.74365200000011,319.87158199999976,37.43603499999972,104.74365200000011,-11.41015600000037,77.56396500000028,144.10253900000043,158.84619099999964,-49.61547900000005,95.51269500000035,87.30761700000039,117.05126999999993
380,87.05126999999993,37.05126999999993,78.7177729999994,329.23095699999976,41.025878999999804,119.23095699999976,-9.487060999999812,68.46142599999985,139.7436520000001,156.2822270000006,-61.92309599999999,87.17968800000017,80.51269500000035,119.48730499999965
381,69.74365200000011,15.769043000000238,67.43603499999972,323.3334960000002,49.48730499999965,138.0771479999994,-14.358886999999868,51.153809000000365,123.3334960000002,137.56396500000028,-90.76928699999962,68.84619099999964,62.94873000000007,113.84619099999964
382,53.0771479999994,-5.512939000000188,56.666503999999804,313.3334960000002,57.05126999999993,151.15380900000036,-23.461425999999847,34.35888699999941,104.48730499999965,115.76904300000024,-123.58984399999963,49.48730499999965,45.76904300000024,108.3334960000002
383,50.0,-14.230713000000378,52.30761700000039,311.53857400000015,57.56396500000028,150.51269500000035,-32.564209000000574,24.871581999999762,93.46142599999985,105.12841800000024,-146.28198199999997,39.61523400000078,40.12841800000024,109.48730499999965
