,EEG.AF3,EEG.F7,EEG.F3,EEG.FC5,EEG.T7,EEG.P7,EEG.O1,EEG.O2,EEG.P8,EEG.T8,EEG.FC6,EEG.F4,EEG.F8,EEG.AF4
0,95.0,30.641113000000587,110.64111300000059,86.79492200000004,244.3588869999994,109.87158199999976,119.48730499999965,135.51269500000035,125.76904300000024,118.58984400000008,111.53857400000015,115.25634799999989,142.6923829999996,104.74365200000011
1,100.38476599999922,32.56396500000028,115.12841800000024,92.05126999999993,244.61523400000078,109.48730499999965,116.0258789999998,135.6411130000006,125.89746099999957,118.7177729999994,113.3334960000002,120.25634799999989,143.7177729999994,108.58984400000008
2,104.23095699999976,32.30761700000039,116.41015599999992,94.87158199999976,240.38476599999922,106.2822270000006,107.82031300000017,132.43603499999972,123.46142599999985,116.6665039999998,112.17968800000017,124.48730499999965,144.48730499999965,114.10253900000043
3,106.6665039999998,30.769043000000238,115.0,96.53857400000015,233.9741210000002,103.0771479999994,99.23095699999976,128.46142599999985,121.53857400000015,116.0258789999998,109.61523400000078,126.2822270000006,146.53857400000015,113.7177729999994
4,107.69238299999961,28.717772999999397,113.20507799999996,98.46142599999985,227.82031300000017,100.89746099999957,93.46142599999985,126.53857400000015,122.82031300000017,118.9741210000002,107.43603499999972,125.76904300000024,150.0,109.61523400000078
5,107.30761700000039,26.538574000000153,112.82031300000017,101.79492200000004,221.9228520000006,99.23095699999976,90.76904300000024,126.9228520000006,126.53857400000015,123.84619099999964,106.2822270000006,124.35888699999941,153.58984400000008,109.35888699999941
6,107.17968800000017,26.282227000000603,113.84619099999964,106.6665039999998,217.3076170000004,98.9741210000002,91.0258789999998,128.3334960000002,130.0,127.56396500000028,106.53857400000015,124.23095699999976,157.05126999999993,112.82031300000017
7,109.87158199999976,29.230956999999762,115.64111300000059,112.05126999999993,214.87158199999976,101.6665039999998,93.84619099999964,129.87158199999976,131.15380900000036,127.69238299999961,108.0771479999994,126.15380900000036,161.0258789999998,113.0771479999994
8,113.9741210000002,32.69238299999961,116.6665039999998,115.89746099999957,213.7177729999994,106.15380900000036,97.30761700000039,129.48730499999965,128.9741210000002,123.7177729999994,109.35888699999941,128.0771479999994,163.9741210000002,110.12841800000024
9,114.87158199999976,31.666503999999804,115.38476599999922,116.53857400000015,210.76904300000024,108.3334960000002,98.46142599999985,126.41015599999992,123.9741210000002,117.56396500000028,107.56396500000028,126.79492200000004,162.82031300000017,109.87158199999976
10,110.64111300000059,25.0,112.17968800000017,115.25634799999989,205.2563479999999,106.9228520000006,95.89746099999957,122.56396500000028,119.74365200000011,113.84619099999964,102.69238299999961,122.30761700000039,157.94873000000007,113.3334960000002
11,104.35888699999941,17.82031300000017,109.61523400000078,115.0,199.61523400000078,104.35888699999941,91.15380900000036,121.0258789999998,119.74365200000011,116.6665039999998,97.94873000000007,117.56396500000028,154.23095699999976,113.46142599999985
12,101.15380900000036,16.538574000000153,109.87158199999976,116.9228520000006,196.53857400000015,103.9741210000002,86.9228520000006,123.20507799999996,124.23095699999976,124.87158199999976,96.41015599999992,116.15380900000036,156.2822270000006,109.23095699999976
13,103.3334960000002,21.922852000000603,112.69238299999961,119.61523400000078,195.12841800000024,106.15380900000036,84.48730499999965,126.53857400000015,129.61523400000078,132.6923829999996,97.94873000000007,118.46142599999985,164.7436520000001,107.82031300000017
14,109.74365200000011,29.48730499999965,115.64111300000059,121.2822270000006,193.58984400000008,109.87158199999976,84.10253900000043,128.3334960000002,132.56396500000028,135.51269500000035,100.89746099999957,123.0771479999994,177.94873000000007,112.30761700000039
15,118.0771479999994,33.7177729999994,117.17968800000017,121.15380900000036,191.41015599999992,113.9741210000002,86.15380900000036,128.46142599999985,133.20507799999996,134.7436520000001,103.84619099999964,128.7177729999994,193.9741210000002,115.51269500000035
16,125.25634799999989,31.153809000000365,118.0771479999994,119.23095699999976,189.10253900000043,116.6665039999998,89.10253900000043,128.46142599999985,132.94873000000007,134.23095699999976,106.2822270000006,133.84619099999964,209.87158199999976,111.6665039999998
17,129.23095699999976,22.17968800000017,119.87158199999976,115.89746099999957,185.6411130000006,116.0258789999998,90.25634799999989,128.46142599999985,131.9228520000006,135.51269500000035,107.56396500000028,137.43603499999972,222.3076170000004,106.79492200000004
18,131.79492200000004,13.974121000000196,123.3334960000002,112.94873000000007,181.2822270000006,112.17968800000017,87.30761700000039,127.69238299999961,129.87158199999976,137.82031300000017,108.3334960000002,139.87158199999976,230.12841800000024,108.3334960000002
19,138.0771479999994,17.43603499999972,127.94873000000007,113.9741210000002,179.10253900000043,108.20507799999996,81.0258789999998,125.64111300000059,128.20507799999996,139.7436520000001,110.51269500000035,143.20507799999996,236.9228520000006,112.56396500000028
20,152.82031300000017,38.974121000000196,132.94873000000007,120.38476599999922,182.3076170000004,106.9228520000006,74.35888699999941,122.30761700000039,127.94873000000007,140.0,114.35888699999941,148.3334960000002,245.89746099999957,112.17968800000017
21,174.23095699999976,73.58984400000008,137.3076170000004,129.7436520000001,190.0,107.56396500000028,69.61523400000078,118.20507799999996,128.46142599999985,136.79492200000004,117.43603499999972,153.9741210000002,254.87158199999976,108.58984400000008
22,196.2822270000006,108.58984400000008,139.61523400000078,137.94873000000007,197.05126999999993,107.82031300000017,67.82031300000017,115.0,127.94873000000007,129.87158199999976,116.79492200000004,158.20507799999996,258.5898440000001,109.10253900000043
23,215.38476599999922,136.0258789999998,140.51269500000035,143.3334960000002,200.38476599999922,107.43603499999972,68.58984400000008,115.25634799999989,126.6665039999998,122.30761700000039,112.56396500000028,161.79492200000004,255.2563479999999,112.82031300000017
24,232.56396500000028,156.6665039999998,142.05126999999993,148.0771479999994,200.89746099999957,107.82031300000017,70.89746099999957,119.23095699999976,125.38476599999922,117.94873000000007,108.3334960000002,166.15380900000036,247.94873000000007,112.05126999999993
25,249.48730499999965,175.76904300000024,145.89746099999957,153.58984400000008,200.89746099999957,108.9741210000002,71.9228520000006,122.43603499999972,123.7177729999994,116.9228520000006,105.64111300000059,170.6411130000006,240.89746099999957,106.9228520000006
26,265.0,196.0258789999998,150.0,158.9741210000002,200.51269500000035,108.58984400000008,67.56396500000028,119.10253900000043,120.12841800000024,115.51269500000035,102.30761700000039,172.05126999999993,234.3588869999994,105.51269500000035
27,276.0258789999998,216.0258789999998,150.6411130000006,162.05126999999993,199.10253900000043,104.87158199999976,57.56396500000028,107.69238299999961,113.7177729999994,109.48730499999965,94.74365200000011,168.20507799999996,225.89746099999957,109.48730499999965
28,281.6665039999998,233.3334960000002,146.79492200000004,162.6923829999996,197.6923829999996,98.46142599999985,45.51269500000035,93.7177729999994,106.41015599999992,98.0771479999994,82.17968800000017,160.51269500000035,213.46142599999985,111.15380900000036
29,284.3588869999994,247.17968800000017,142.05126999999993,163.46142599999985,197.94873000000007,91.6665039999998,37.17968800000017,83.7177729999994,101.0258789999998,84.35888699999941,67.82031300000017,153.20507799999996,197.17968800000017,106.6665039999998
30,288.7177729999994,260.51269500000035,141.0258789999998,166.9228520000006,202.3076170000004,87.30761700000039,35.0,80.64111300000059,98.9741210000002,73.20507799999996,57.30761700000039,150.51269500000035,179.7436520000001,103.7177729999994
31,299.3588869999994,278.46142599999985,145.76904300000024,173.84619099999964,211.15380900000036,87.30761700000039,37.69238299999961,82.43603499999972,100.0,68.46142599999985,55.0,154.7436520000001,165.2563479999999,106.9228520000006
32,316.0258789999998,303.0771479999994,154.23095699999976,182.05126999999993,221.79492200000004,91.41015599999992,40.25634799999989,84.61523400000078,102.17968800000017,69.87158199999976,59.87158199999976,163.9741210000002,156.41015599999992,110.25634799999989
33,332.5639650000003,329.48730499999965,162.05126999999993,187.56396500000028,227.05126999999993,95.12841800000024,37.82031300000017,82.56396500000028,101.41015599999992,71.79492200000004,64.10253900000043,171.9228520000006,150.51269500000035,107.30761700000039
34,339.48730499999965,348.20507799999996,164.23095699999976,187.05126999999993,220.12841800000024,92.30761700000039,27.94873000000007,74.10253900000043,94.48730499999965,65.89746099999957,58.589844000000085,171.6665039999998,140.2563479999999,104.10253900000043
35,333.46142599999985,354.3588869999994,158.9741210000002,180.0,202.05126999999993,81.79492200000004,13.846190999999635,61.410155999999915,81.79492200000004,49.102539000000434,41.410155999999915,161.2822270000006,120.38476599999922,107.69238299999961
36,320.12841800000024,352.82031300000017,149.23095699999976,170.6411130000006,183.0771479999994,70.0,2.8203130000001693,50.897460999999566,68.9741210000002,27.69238299999961,20.128418000000238,146.2822270000006,93.46142599999985,113.58984400000008
37,309.23095699999976,352.82031300000017,141.79492200000004,164.7436520000001,174.48730499999965,64.87158199999976,0.6411130000005869,47.43603499999972,62.05126999999993,12.051269999999931,5.769043000000238,134.87158199999976,67.56396500000028,112.94873000000007
38,305.89746099999957,359.87158199999976,141.2822270000006,165.38476599999922,180.12841800000024,68.9741210000002,6.410155999999915,50.897460999999566,62.05126999999993,7.692382999999609,3.077147999999397,132.05126999999993,49.23095699999976,107.94873000000007
39,307.82031300000017,372.6923829999996,146.53857400000015,170.51269500000035,193.84619099999964,78.84619099999964,14.615234000000783,56.410155999999915,65.38476599999922,12.17968800000017,7.820313000000169,136.2822270000006,38.846190999999635,107.43603499999972
40,309.23095699999976,384.6152340000008,152.17968800000017,174.87158199999976,206.53857400000015,88.84619099999964,19.615234000000783,59.74365200000011,67.69238299999961,18.333496000000196,11.922852000000603,142.05126999999993,31.666503999999804,111.0258789999998
41,304.48730499999965,388.9741210000002,152.94873000000007,173.58984400000008,211.2822270000006,94.48730499999965,19.230956999999762,59.23095699999976,67.05126999999993,19.230956999999762,9.230956999999762,143.0771479999994,21.025878999999804,110.51269500000035
42,291.0258789999998,382.05126999999993,147.17968800000017,165.89746099999957,206.15380900000036,93.20507799999996,13.846190999999635,54.74365200000011,63.589844000000085,12.307617000000391,-0.769043000000238,136.41015599999992,2.6923829999996087,105.38476599999922
43,271.53857400000015,367.5639650000003,137.43603499999972,154.7436520000001,196.15380900000036,85.38476599999922,6.153809000000365,47.94873000000007,58.846190999999635,1.2822270000006029,-13.205077999999958,124.48730499999965,-21.666747999999643,104.87158199999976
44,253.3334960000002,354.7436520000001,128.20507799999996,145.2563479999999,189.48730499999965,76.2822270000006,-0.38476599999921746,41.53857400000015,55.25634799999989,-7.179442999999992,-21.153809000000365,113.3334960000002,-44.74365200000011,110.64111300000059
45,241.9228520000006,351.15380900000036,123.3334960000002,140.12841800000024,190.76904300000024,71.6665039999998,-2.9487300000000687,37.56396500000028,54.35888699999941,-9.358886999999868,-21.666747999999643,107.17968800000017,-59.8718259999996,113.84619099999964
46,235.89746099999957,355.6411130000006,123.3334960000002,137.43603499999972,197.3076170000004,72.94873000000007,-2.1796869999998307,35.51269500000035,54.102539000000434,-8.846190999999635,-19.230713000000378,104.23095699999976,-68.33325200000036,110.12841800000024
47,229.48730499999965,361.0258789999998,125.64111300000059,134.23095699999976,202.6923829999996,77.30761700000039,-0.769043000000238,33.7177729999994,52.05126999999993,-11.923095999999987,-19.61547900000005,100.38476599999922,-76.66674799999964,107.05126999999993
48,220.0,362.82031300000017,127.56396500000028,130.51269500000035,205.38476599999922,81.53857400000015,0.769043000000238,32.17968800000017,48.846190999999635,-19.230713000000378,-23.333252000000357,94.48730499999965,-88.33325200000036,109.74365200000011
49,210.51269500000035,362.5639650000003,128.84619099999964,128.84619099999964,208.84619099999964,85.12841800000024,4.487304999999651,33.46142599999985,48.46142599999985,-24.8718259999996,-25.38452099999995,90.25634799999989,-101.53857400000015,111.6665039999998
50,203.9741210000002,363.84619099999964,131.0258789999998,130.76904300000024,215.76904300000024,88.46142599999985,11.410155999999915,39.102539000000434,53.46142599999985,-22.30761700000039,-22.051270000000386,90.89746099999957,-112.43579099999943,107.05126999999993
51,199.61523400000078,367.4360349999997,134.10253900000043,134.23095699999976,223.9741210000002,91.2822270000006,18.461425999999847,46.9228520000006,61.9228520000006,-11.28198199999997,-15.256347999999889,95.76904300000024,-120.1281740000004,102.17968800000017
52,194.7436520000001,371.79492200000004,136.2822270000006,136.15380900000036,230.0,93.0771479999994,21.282227000000603,52.82031300000017,69.87158199999976,3.077147999999397,-10.0,100.89746099999957,-125.64111300000013,104.74365200000011
53,187.05126999999993,374.7436520000001,134.87158199999976,134.48730499999965,231.9228520000006,94.23095699999976,17.30761700000039,53.333496000000196,73.9741210000002,13.205077999999958,-10.38452099999995,101.79492200000004,-130.76928699999962,110.12841800000024
54,175.2563479999999,373.5898440000001,128.7177729999994,129.10253900000043,229.23095699999976,94.48730499999965,8.333496000000196,47.94873000000007,72.69238299999961,12.56396500000028,-18.076904000000013,95.12841800000024,-138.46142599999985,109.61523400000078
55,158.84619099999964,366.4101559999999,118.9741210000002,120.89746099999957,222.56396500000028,92.94873000000007,-1.2822270000006029,38.7177729999994,66.0258789999998,-0.256347999999889,-32.051270000000386,80.89746099999957,-152.0512700000004,105.76904300000024
56,140.51269500000035,355.2563479999999,108.9741210000002,112.82031300000017,215.6411130000006,90.12841800000024,-6.025634999999966,30.769043000000238,57.43603499999972,-19.10253899999998,-47.435790999999426,64.48730499999965,-170.2563479999999,106.2822270000006
57,126.2822270000006,346.4101559999999,102.56396500000028,108.84619099999964,214.10253900000043,88.3334960000002,-2.9487300000000687,29.230956999999762,51.2822270000006,-33.33325200000036,-57.82055700000001,53.589844000000085,-186.923096,109.61523400000078
58,119.35888699999941,344.6152340000008,101.6665039999998,110.0,219.7436520000001,88.7177729999994,5.641113000000587,33.846190999999635,50.38476599999922,-37.30761700000039,-59.61547900000005,50.897460999999566,-196.53857400000015,108.46142599999985
59,116.2822270000006,347.6923829999996,104.23095699999976,112.56396500000028,227.56396500000028,89.48730499999965,12.692382999999609,38.974121000000196,52.94873000000007,-34.48706099999981,-56.41015600000037,52.30761700000039,-200.38452099999995,104.87158199999976
60,111.0258789999998,349.87158199999976,105.76904300000024,111.79492200000004,230.51269500000035,88.3334960000002,12.051269999999931,38.589844000000085,54.87158199999976,-31.923095999999987,-54.35888699999987,51.9228520000006,-203.84619099999964,106.41015599999992
61,101.79492200000004,348.0771479999994,103.58984400000008,107.05126999999993,226.15380900000036,85.76904300000024,4.487304999999651,33.0771479999994,54.35888699999941,-32.948729999999614,-55.51293900000019,47.43603499999972,-209.61547900000005,112.17968800000017
62,91.79492200000004,344.87158199999976,99.48730499999965,102.17968800000017,218.84619099999964,83.46142599999985,-3.5898440000000846,27.17968800000017,52.94873000000007,-35.38452099999995,-58.07690400000001,42.05126999999993,-216.41015600000037,112.56396500000028
63,84.48730499999965,342.6923829999996,97.30761700000039,101.15380900000036,213.3334960000002,81.2822270000006,-6.281981999999971,25.25634799999989,52.43603499999972,-37.30761700000039,-59.10253899999998,39.102539000000434,-222.56420900000057,106.15380900000036
64,80.0,341.2822270000006,98.0771479999994,103.7177729999994,211.53857400000015,78.84619099999964,-2.6923829999996087,27.82031300000017,53.0771479999994,-38.20507799999996,-58.07690400000001,39.48730499999965,-228.076904,102.56396500000028
65,76.15380900000036,339.48730499999965,100.0,106.41015599999992,213.0771479999994,77.69238299999961,4.487304999999651,32.30761700000039,53.974121000000196,-38.46142599999985,-55.89746100000002,41.2822270000006,-233.33325200000036,105.76904300000024
66,71.53857400000015,337.17968800000017,101.2822270000006,107.30761700000039,217.43603499999972,79.87158199999976,11.153809000000365,36.79492200000004,54.87158199999976,-37.564209000000574,-53.20507799999996,41.79492200000004,-237.179443,107.94873000000007
67,65.64111300000059,335.2563479999999,101.53857400000015,106.0258789999998,223.0771479999994,85.38476599999922,14.230956999999762,39.35888699999941,55.76904300000024,-35.76928699999962,-51.025634999999966,39.35888699999941,-239.8718259999996,104.23095699999976
68,58.7177729999994,333.5898440000001,100.76904300000024,102.82031300000017,227.05126999999993,91.0258789999998,12.948730000000069,38.7177729999994,56.53857400000015,-34.23071300000038,-50.64111300000013,34.23095699999976,-243.20507799999996,101.15380900000036
69,51.53857400000015,331.9228520000006,98.20507799999996,98.20507799999996,228.46142599999985,94.10253900000043,9.871581999999762,35.25634799999989,56.410155999999915,-33.974365000000034,-52.17944299999999,28.846190999999635,-248.46142599999985,104.10253900000043
70,45.51269500000035,330.0,94.74365200000011,93.9741210000002,227.94873000000007,94.48730499999965,8.846190999999635,31.538574000000153,55.38476599999922,-34.48706099999981,-54.23071300000038,26.153809000000365,-254.23071300000038,107.43603499999972
71,41.025878999999804,326.53857400000015,91.79492200000004,92.05126999999993,227.17968800000017,92.94873000000007,11.282227000000603,30.0,53.589844000000085,-35.64111300000013,-55.38452099999995,26.922852000000603,-258.33325200000036,106.0258789999998
72,36.410155999999915,319.6152340000008,90.64111300000059,92.43603499999972,226.0258789999998,90.0,14.871581999999762,30.641113000000587,51.2822270000006,-37.30761700000039,-55.76928699999962,29.230956999999762,-260.38452099999995,104.74365200000011
73,31.025878999999804,309.10253900000043,90.38476599999922,93.0771479999994,224.87158199999976,87.43603499999972,17.43603499999972,32.69238299999961,49.74365200000011,-37.948729999999614,-55.38452099999995,30.25634799999989,-260.5129390000002,108.7177729999994
74,26.666503999999804,298.20507799999996,90.0,91.79492200000004,226.15380900000036,88.3334960000002,19.230956999999762,36.53857400000015,51.025878999999804,-35.25634799999989,-52.435790999999426,29.74365200000011,-257.5642090000006,112.43603499999972
75,25.641113000000587,290.2563479999999,90.25634799999989,88.46142599999985,231.2822270000006,93.84619099999964,21.922852000000603,42.05126999999993,55.64111300000059,-28.71801800000003,-45.76928699999962,28.846190999999635,-249.8718259999996,109.35888699999941
76,27.82031300000017,284.7436520000001,92.05126999999993,83.9741210000002,237.43603499999972,100.12841800000024,25.641113000000587,47.69238299999961,61.410155999999915,-20.89746100000002,-37.051270000000386,28.717772999999397,-238.20507799999996,104.23095699999976
77,30.897460999999566,278.5898440000001,93.46142599999985,79.23095699999976,238.7177729999994,101.41015599999992,28.077147999999397,50.897460999999566,65.25634799999989,-15.641113000000132,-29.74365200000011,29.48730499999965,-224.7436520000001,105.51269500000035
78,33.0771479999994,269.23095699999976,92.30761700000039,75.0,232.17968800000017,95.89746099999957,27.43603499999972,51.025878999999804,66.2822270000006,-13.58984399999963,-25.641113000000132,31.025878999999804,-211.28198199999997,110.25634799999989
79,33.974121000000196,257.4360349999997,88.9741210000002,71.9228520000006,220.6411130000006,87.43603499999972,23.846190999999635,49.61523400000078,66.53857400000015,-12.692382999999609,-23.846190999999635,33.333496000000196,-199.4870609999998,109.61523400000078
80,33.7177729999994,244.87158199999976,86.2822270000006,70.0,210.38476599999922,80.89746099999957,19.48730499999965,48.333496000000196,67.43603499999972,-11.025634999999966,-22.820557000000008,35.897460999999566,-191.15380900000036,105.12841800000024
81,32.17968800000017,233.7177729999994,85.76904300000024,68.9741210000002,206.41015599999992,78.84619099999964,17.17968800000017,47.56396500000028,69.10253900000043,-7.948729999999614,-21.153809000000365,37.94873000000007,-187.3076170000004,105.38476599999922
82,30.25634799999989,224.87158199999976,86.9228520000006,68.3334960000002,210.51269500000035,81.79492200000004,19.74365200000011,47.17968800000017,70.25634799999989,-4.743652000000111,-18.205077999999958,39.23095699999976,-185.5129390000002,110.25634799999989
83,29.358886999999413,218.20507799999996,88.46142599999985,68.20507799999996,220.12841800000024,89.23095699999976,28.077147999999397,47.69238299999961,69.87158199999976,-2.9487300000000687,-13.846190999999635,40.25634799999989,-182.0512700000004,111.15380900000036
84,29.48730499999965,210.76904300000024,90.38476599999922,67.82031300000017,228.84619099999964,97.82031300000017,39.61523400000078,49.102539000000434,67.17968800000017,-4.102538999999979,-9.487060999999812,41.025878999999804,-175.0,106.15380900000036
85,28.974121000000196,199.87158199999976,91.9228520000006,65.76904300000024,231.2822270000006,102.56396500000028,48.46142599999985,50.76904300000024,62.82031300000017,-7.948729999999614,-6.666747999999643,40.76904300000024,-166.79492200000004,103.58984400000008
86,27.69238299999961,186.9228520000006,92.30761700000039,61.9228520000006,227.17968800000017,101.41015599999992,51.53857400000015,51.9228520000006,58.974121000000196,-11.666747999999643,-5.0,40.12841800000024,-159.4870609999998,106.79492200000004
87,27.17968800000017,176.41015599999992,92.17968800000017,57.17968800000017,221.41015599999992,96.79492200000004,50.51269500000035,53.0771479999994,58.333496000000196,-11.41015600000037,-1.6665039999998044,40.64111300000059,-152.179443,108.84619099999964
88,28.589844000000085,171.41015599999992,93.20507799999996,53.589844000000085,218.84619099999964,93.20507799999996,50.38476599999922,55.0,61.2822270000006,-6.538574000000153,5.256347999999889,43.974121000000196,-143.58984399999963,106.0258789999998
89,30.25634799999989,169.10253900000043,95.64111300000059,51.410155999999915,219.7436520000001,92.30761700000039,54.35888699999941,57.43603499999972,65.51269500000035,0.256347999999889,14.615234000000783,48.846190999999635,-133.71801800000003,104.48730499999965
90,30.128418000000238,165.38476599999922,97.43603499999972,50.51269500000035,221.6665039999998,93.46142599999985,61.9228520000006,60.897460999999566,68.84619099999964,6.538574000000153,24.358886999999413,53.46142599999985,-123.84619099999964,107.43603499999972
91,28.974121000000196,158.58984400000008,97.56396500000028,50.12841800000024,223.7177729999994,95.64111300000059,70.0,66.0258789999998,71.53857400000015,11.794922000000042,33.846190999999635,57.05126999999993,-114.10253899999998,108.3334960000002
92,29.48730499999965,151.15380900000036,97.43603499999972,49.35888699999941,226.41015599999992,99.10253900000043,75.89746099999957,72.82031300000017,74.61523400000078,17.30761700000039,42.69238299999961,60.0,-104.48706099999981,102.82031300000017
93,31.666503999999804,144.23095699999976,98.58984400000008,47.43603499999972,229.3588869999994,103.0771479999994,78.84619099999964,79.10253900000043,77.94873000000007,22.69238299999961,50.0,62.43603499999972,-96.79492200000004,98.7177729999994
94,33.46142599999985,137.56396500000028,100.64111300000059,44.48730499999965,231.41015599999992,106.53857400000015,80.51269500000035,82.05126999999993,79.48730499999965,26.666503999999804,54.102539000000434,63.589844000000085,-92.94872999999961,103.3334960000002
95,33.0771479999994,130.12841800000024,101.79492200000004,42.43603499999972,231.79492200000004,109.35888699999941,83.20507799999996,81.0258789999998,78.46142599999985,28.077147999999397,55.25634799999989,63.589844000000085,-92.17944299999999,110.51269500000035
96,31.666503999999804,122.56396500000028,101.79492200000004,43.46142599999985,231.0258789999998,111.53857400000015,87.82031300000017,78.3334960000002,76.41015599999992,27.43603499999972,55.64111300000059,63.846190999999635,-91.28198199999997,111.0258789999998
97,30.769043000000238,115.25634799999989,101.9228520000006,47.43603499999972,229.87158199999976,112.05126999999993,92.17968800000017,76.6665039999998,75.38476599999922,25.897460999999566,56.9228520000006,65.89746099999957,-87.56420900000057,107.17968800000017
98,31.666503999999804,109.23095699999976,103.20507799999996,52.05126999999993,229.23095699999976,109.74365200000011,93.7177729999994,77.56396500000028,76.53857400000015,26.153809000000365,59.87158199999976,70.38476599999922,-80.38452099999995,106.79492200000004
99,34.23095699999976,106.15380900000036,106.0258789999998,55.51269500000035,230.76904300000024,106.0258789999998,92.30761700000039,80.89746099999957,79.74365200000011,30.51269500000035,64.61523400000078,76.15380900000036,-70.38452099999995,108.7177729999994
100,38.333496000000196,105.89746099999957,108.9741210000002,56.9228520000006,235.2563479999999,104.35888699999941,90.51269500000035,84.87158199999976,84.23095699999976,38.7177729999994,70.12841800000024,81.2822270000006,-58.46142599999985,106.0258789999998
101,41.153809000000365,104.87158199999976,110.25634799999989,56.410155999999915,239.7436520000001,105.89746099999957,90.89746099999957,86.41015599999992,87.82031300000017,47.05126999999993,73.9741210000002,83.20507799999996,-47.948729999999614,100.89746099999957
102,39.87158199999976,98.7177729999994,108.0771479999994,53.974121000000196,240.2563479999999,109.10253900000043,93.84619099999964,83.58984400000008,87.94873000000007,50.64111300000059,73.84619099999964,80.76904300000024,-42.435790999999426,101.79492200000004
103,35.12841800000024,88.0771479999994,102.82031300000017,50.897460999999566,236.53857400000015,111.53857400000015,97.43603499999972,77.94873000000007,84.48730499999965,48.46142599999985,71.41015599999992,75.64111300000059,-42.564209000000574,107.94873000000007
104,31.538574000000153,79.23095699999976,98.46142599999985,49.61523400000078,232.94873000000007,112.30761700000039,100.38476599999922,73.46142599999985,80.51269500000035,43.974121000000196,70.89746099999957,72.30761700000039,-44.35888699999987,109.74365200000011
105,32.56396500000028,77.43603499999972,98.3334960000002,51.53857400000015,233.58984400000008,111.79492200000004,101.6665039999998,72.69238299999961,79.35888699999941,41.53857400000015,75.0,73.84619099999964,-43.07690400000001,105.25634799999989
106,36.79492200000004,80.51269500000035,102.05126999999993,55.0,237.17968800000017,109.74365200000011,101.9228520000006,74.35888699999941,81.2822270000006,42.56396500000028,81.2822270000006,78.84619099999964,-37.69238299999961,103.3334960000002
107,39.74365200000011,82.17968800000017,105.38476599999922,57.69238299999961,240.12841800000024,107.05126999999993,102.56396500000028,76.0258789999998,84.10253900000043,45.64111300000059,85.38476599999922,83.3334960000002,-29.8718259999996,107.69238299999961
108,39.48730499999965,78.46142599999985,105.25634799999989,58.46142599999985,240.12841800000024,105.51269500000035,105.51269500000035,77.05126999999993,86.15380900000036,48.589844000000085,85.25634799999989,84.87158199999976,-21.538574000000153,110.64111300000059
109,37.56396500000028,70.89746099999957,102.30761700000039,58.46142599999985,238.58984400000008,106.15380900000036,110.25634799999989,78.7177729999994,86.9228520000006,50.64111300000059,82.56396500000028,84.35888699999941,-13.58984399999963,107.30761700000039
110,36.153809000000365,63.333496000000196,99.74365200000011,58.333496000000196,236.53857400000015,107.43603499999972,113.58984400000008,81.15380900000036,86.6665039999998,51.53857400000015,80.0,83.84619099999964,-6.923095999999987,104.35888699999941
111,36.410155999999915,58.7177729999994,99.23095699999976,58.46142599999985,234.23095699999976,106.6665039999998,113.0771479999994,83.20507799999996,85.89746099999957,51.79492200000004,79.48730499999965,85.12841800000024,-3.077147999999397,107.05126999999993
112,38.333496000000196,57.82031300000017,100.89746099999957,59.23095699999976,232.3076170000004,104.35888699999941,109.23095699999976,84.23095699999976,85.51269500000035,52.69238299999961,82.17968800000017,88.0771479999994,-1.4101559999999154,109.74365200000011
113,41.153809000000365,58.7177729999994,103.46142599999985,61.153809000000365,230.89746099999957,102.30761700000039,106.15380900000036,84.48730499999965,86.41015599999992,54.35888699999941,87.82031300000017,91.9228520000006,-0.12841800000023795,106.6665039999998
114,42.56396500000028,58.20507799999996,106.0258789999998,63.589844000000085,229.48730499999965,101.15380900000036,106.53857400000015,84.23095699999976,88.0771479999994,56.2822270000006,93.9741210000002,95.38476599999922,1.9228520000006029,103.7177729999994
115,41.153809000000365,54.23095699999976,107.30761700000039,65.12841800000024,227.43603499999972,100.51269500000035,110.51269500000035,84.10253900000043,89.61523400000078,58.0771479999994,97.94873000000007,97.43603499999972,5.512695000000349,107.94873000000007
116,38.846190999999635,48.846190999999635,106.79492200000004,65.25634799999989,225.6411130000006,100.51269500000035,116.41015599999992,85.0,90.64111300000059,60.51269500000035,99.61523400000078,98.9741210000002,11.410155999999915,113.46142599999985
117,38.974121000000196,45.38476599999922,106.0258789999998,64.35888699999941,225.51269500000035,102.05126999999993,122.43603499999972,87.43603499999972,91.79492200000004,65.0,101.15380900000036,101.6665039999998,20.25634799999989,111.0258789999998
118,41.9228520000006,44.74365200000011,106.41015599999992,63.20507799999996,226.41015599999992,104.74365200000011,126.6665039999998,90.25634799999989,92.69238299999961,70.76904300000024,104.35888699999941,105.38476599999922,30.641113000000587,104.10253900000043
119,45.0,44.61523400000078,107.82031300000017,61.79492200000004,226.15380900000036,106.15380900000036,128.0771479999994,91.79492200000004,92.82031300000017,75.51269500000035,108.46142599999985,107.94873000000007,39.102539000000434,103.0771479999994
120,45.897460999999566,42.82031300000017,108.84619099999964,60.51269500000035,223.46142599999985,106.0258789999998,127.69238299999961,91.41015599999992,92.82031300000017,78.3334960000002,112.17968800000017,108.0771479999994,43.46142599999985,108.20507799999996
121,45.0,39.87158199999976,109.61523400000078,60.64111300000059,220.12841800000024,106.41015599999992,128.7177729999994,91.15380900000036,94.35888699999941,80.12841800000024,115.51269500000035,107.05126999999993,44.48730499999965,110.0
122,43.7177729999994,36.79492200000004,111.15380900000036,62.69238299999961,218.3334960000002,108.46142599999985,133.0771479999994,92.82031300000017,98.0771479999994,81.79492200000004,118.20507799999996,107.05126999999993,43.589844000000085,106.53857400000015
123,41.666503999999804,32.69238299999961,112.69238299999961,65.12841800000024,217.6923829999996,110.12841800000024,139.10253900000043,95.38476599999922,101.79492200000004,82.56396500000028,118.84619099999964,108.3334960000002,41.410155999999915,105.38476599999922
124,37.69238299999961,25.897460999999566,111.6665039999998,66.0258789999998,215.76904300000024,108.84619099999964,143.46142599999985,96.53857400000015,102.56396500000028,81.53857400000015,115.76904300000024,108.84619099999964,38.0771479999994,108.0771479999994
125,32.69238299999961,17.94873000000007,106.9228520000006,65.0,211.79492200000004,104.87158199999976,143.3334960000002,94.87158199999976,99.35888699999941,79.23095699999976,110.0,106.79492200000004,35.25634799999989,107.43603499999972
126,29.102539000000434,11.922852000000603,101.0258789999998,63.7177729999994,207.43603499999972,100.51269500000035,139.48730499999965,91.6665039999998,93.7177729999994,77.30761700000039,105.25634799999989,102.94873000000007,35.76904300000024,102.56396500000028
127,29.358886999999413,10.512695000000349,97.69238299999961,63.846190999999635,205.6411130000006,98.20507799999996,134.48730499999965,89.10253900000043,88.7177729999994,78.3334960000002,104.87158199999976,100.51269500000035,40.76904300000024,101.9228520000006
128,34.87158199999976,15.0,99.10253900000043,67.30761700000039,209.3588869999994,99.35888699999941,131.79492200000004,89.35888699999941,87.94873000000007,84.23095699999976,110.51269500000035,102.94873000000007,50.38476599999922,109.23095699999976
129,45.38476599999922,24.615234000000783,104.61523400000078,74.10253900000043,218.7177729999994,104.35888699999941,133.84619099999964,93.58984400000008,93.7177729999994,95.38476599999922,120.25634799999989,111.0258789999998,63.7177729999994,115.12841800000024
130,56.79492200000004,34.48730499999965,111.53857400000015,82.43603499999972,229.10253900000043,111.15380900000036,139.7436520000001,100.76904300000024,104.48730499999965,107.56396500000028,129.87158199999976,121.79492200000004,77.30761700000039,112.43603499999972
131,62.69238299999961,37.94873000000007,115.64111300000059,87.43603499999972,232.82031300000017,114.87158199999976,144.7436520000001,106.79492200000004,113.7177729999994,114.23095699999976,134.10253900000043,128.84619099999964,85.76904300000024,107.05126999999993
132,58.974121000000196,31.666503999999804,113.7177729999994,85.51269500000035,226.0258789999998,111.53857400000015,145.0,107.82031300000017,114.74365200000011,111.15380900000036,131.15380900000036,127.56396500000028,86.6665039999998,107.05126999999993
133,49.61523400000078,20.769043000000238,107.17968800000017,77.82031300000017,213.0771479999994,102.69238299999961,140.2563479999999,103.9741210000002,107.56396500000028,101.41015599999992,124.10253900000043,119.23095699999976,83.20507799999996,108.84619099999964
134,41.79492200000004,12.948730000000069,100.76904300000024,69.48730499999965,202.82031300000017,94.10253900000043,134.3588869999994,98.20507799999996,98.7177729999994,92.17968800000017,117.94873000000007,110.25634799999989,81.41015599999992,105.89746099999957
135,39.74365200000011,11.538574000000153,98.58984400000008,65.0,200.12841800000024,90.25634799999989,130.38476599999922,93.3334960000002,95.51269500000035,88.0771479999994,114.48730499999965,105.38476599999922,82.69238299999961,102.17968800000017
136,40.897460999999566,13.333496000000196,100.12841800000024,64.74365200000011,202.43603499999972,90.89746099999957,129.3588869999994,90.25634799999989,99.48730499999965,88.46142599999985,111.79492200000004,105.0,83.7177729999994,105.12841800000024
137,41.79492200000004,14.102539000000434,101.9228520000006,66.79492200000004,205.12841800000024,93.84619099999964,130.6411130000006,88.84619099999964,106.9228520000006,89.74365200000011,109.35888699999941,106.41015599999992,81.53857400000015,111.0258789999998
138,41.2822270000006,13.717772999999397,101.41015599999992,69.48730499999965,206.0258789999998,97.69238299999961,133.58984400000008,88.9741210000002,111.6665039999998,89.10253900000043,108.46142599999985,107.69238299999961,77.82031300000017,110.51269500000035
139,40.0,13.589844000000085,98.9741210000002,72.17968800000017,205.0,100.76904300000024,136.6665039999998,89.74365200000011,108.84619099999964,86.0258789999998,109.87158199999976,108.3334960000002,75.38476599999922,104.23095699999976
140,38.20507799999996,13.846190999999635,96.0258789999998,73.7177729999994,202.82031300000017,101.53857400000015,138.0771479999994,88.58984400000008,98.20507799999996,80.89746099999957,111.79492200000004,108.20507799999996,75.51269500000035,101.6665039999998
141,36.53857400000015,14.102539000000434,93.84619099999964,73.58984400000008,200.6411130000006,100.25634799999989,136.79492200000004,84.10253900000043,85.0,76.15380900000036,112.30761700000039,107.69238299999961,77.56396500000028,104.61523400000078
142,35.51269500000035,14.102539000000434,92.94873000000007,72.05126999999993,200.0,99.10253900000043,134.48730499999965,78.3334960000002,76.53857400000015,74.87158199999976,110.89746099999957,106.6665039999998,80.38476599999922,105.25634799999989
143,34.74365200000011,12.43603499999972,93.0771479999994,69.74365200000011,199.7436520000001,98.9741210000002,132.6923829999996,74.23095699999976,76.53857400000015,77.69238299999961,108.3334960000002,105.25634799999989,81.15380900000036,101.9228520000006
144,31.922852000000603,7.307617000000391,92.56396500000028,66.41015599999992,196.79492200000004,99.10253900000043,131.6665039999998,73.58984400000008,82.69238299999961,81.6665039999998,104.61523400000078,102.43603499999972,76.9228520000006,102.69238299999961
145,26.794922000000042,0.0,90.12841800000024,62.94873000000007,190.6411130000006,98.9741210000002,131.41015599999992,76.6665039999998,89.61523400000078,84.10253900000043,100.0,99.23095699999976,68.7177729999994,109.35888699999941
146,22.56396500000028,-4.358886999999868,86.9228520000006,61.666503999999804,185.2563479999999,99.87158199999976,133.20507799999996,82.69238299999961,94.48730499999965,86.0258789999998,96.53857400000015,98.0771479999994,62.56396500000028,113.0771479999994
147,22.43603499999972,-2.0512699999999313,86.41015599999992,64.87158199999976,184.87158199999976,103.3334960000002,137.56396500000028,90.25634799999989,97.69238299999961,90.38476599999922,96.15380900000036,100.89746099999957,63.7177729999994,108.9741210000002
148,25.0,4.871581999999762,89.74365200000011,71.2822270000006,188.3334960000002,107.43603499999972,142.05126999999993,95.76904300000024,100.51269500000035,97.43603499999972,97.69238299999961,105.76904300000024,69.74365200000011,104.74365200000011
149,26.282227000000603,10.256347999999889,93.84619099999964,76.79492200000004,190.51269500000035,109.10253900000043,143.3334960000002,96.15380900000036,103.46142599999985,103.9741210000002,98.3334960000002,108.3334960000002,73.84619099999964,107.43603499999972
150,24.615234000000783,10.512695000000349,95.25634799999989,78.84619099999964,188.7177729999994,107.82031300000017,140.76904300000024,92.69238299999961,106.41015599999992,107.17968800000017,97.17968800000017,107.17968800000017,72.17968800000017,111.15380900000036
151,22.17968800000017,7.051269999999931,93.58984400000008,78.20507799999996,184.61523400000078,105.76904300000024,137.17968800000017,89.35888699999941,108.84619099999964,107.17968800000017,95.76904300000024,104.61523400000078,67.69238299999961,108.7177729999994
152,21.410155999999915,3.4614259999998467,91.0258789999998,77.43603499999972,180.76904300000024,104.35888699999941,135.0,88.9741210000002,110.12841800000024,105.76904300000024,95.25634799999989,103.9741210000002,65.25634799999989,104.48730499999965
153,22.05126999999993,1.2822270000006029,89.48730499999965,77.69238299999961,177.43603499999972,103.20507799999996,134.3588869999994,90.38476599999922,109.87158199999976,104.48730499999965,94.23095699999976,105.64111300000059,66.15380900000036,106.79492200000004
154,22.43603499999972,0.38476599999921746,88.9741210000002,78.7177729999994,174.10253900000043,102.30761700000039,133.7177729999994,91.15380900000036,108.9741210000002,103.46142599999985,91.41015599999992,107.17968800000017,68.84619099999964,111.9228520000006
155,21.794922000000042,0.6411130000005869,88.9741210000002,80.0,171.15380900000036,102.43603499999972,132.6923829999996,90.12841800000024,108.84619099999964,102.82031300000017,87.82031300000017,106.79492200000004,70.51269500000035,111.15380900000036
156,19.74365200000011,1.4101559999999154,88.3334960000002,81.2822270000006,168.9741210000002,103.58984400000008,131.53857400000015,88.20507799999996,109.61523400000078,102.56396500000028,84.74365200000011,103.9741210000002,68.46142599999985,106.2822270000006
157,16.282227000000603,1.7949220000000423,86.2822270000006,82.69238299999961,167.17968800000017,104.23095699999976,130.0,86.53857400000015,110.25634799999989,101.9228520000006,82.17968800000017,99.74365200000011,61.9228520000006,106.15380900000036
158,12.948730000000069,1.4101559999999154,83.20507799999996,85.25634799999989,166.15380900000036,104.10253900000043,128.46142599999985,86.0258789999998,109.74365200000011,100.51269500000035,79.23095699999976,95.89746099999957,53.589844000000085,110.76904300000024
159,12.43603499999972,1.4101559999999154,81.15380900000036,89.35888699999941,166.2822270000006,104.61523400000078,127.69238299999961,86.79492200000004,108.9741210000002,99.35888699999941,76.53857400000015,94.74365200000011,48.589844000000085,111.79492200000004
160,15.128418000000238,1.5385740000001533,81.41015599999992,93.46142599999985,166.79492200000004,106.53857400000015,128.3334960000002,88.3334960000002,108.7177729999994,99.35888699999941,75.25634799999989,96.9228520000006,49.87158199999976,107.94873000000007
161,18.974121000000196,0.38476599999921746,83.46142599999985,95.25634799999989,165.6411130000006,108.3334960000002,129.23095699999976,89.35888699999941,109.35888699999941,101.0258789999998,75.38476599999922,100.51269500000035,55.0,107.69238299999961
162,21.025878999999804,-2.6923829999996087,84.87158199999976,94.10253900000043,162.05126999999993,108.9741210000002,129.3588869999994,89.87158199999976,110.89746099999957,103.7177729999994,76.2822270000006,102.94873000000007,59.87158199999976,112.56396500000028
163,21.025878999999804,-5.128174000000399,84.74365200000011,92.17968800000017,158.3334960000002,109.10253900000043,128.7177729999994,91.2822270000006,114.35888699999941,106.79492200000004,77.17968800000017,103.46142599999985,62.56396500000028,114.23095699999976
164,20.384765999999217,-4.487060999999812,83.9741210000002,91.9228520000006,156.41015599999992,110.0,127.82031300000017,94.61523400000078,119.48730499999965,109.35888699999941,77.43603499999972,102.30761700000039,63.333496000000196,108.7177729999994
165,19.74365200000011,-1.5385740000001533,83.58984400000008,93.3334960000002,155.51269500000035,110.51269500000035,126.41015599999992,97.94873000000007,124.10253900000043,110.25634799999989,76.0258789999998,100.25634799999989,62.69238299999961,104.35888699999941
166,18.717772999999397,1.0258789999998044,83.20507799999996,94.74365200000011,153.58984400000008,109.35888699999941,123.7177729999994,98.46142599999985,125.25634799999989,109.23095699999976,72.82031300000017,97.30761700000039,60.897460999999566,107.17968800000017
167,17.82031300000017,1.9228520000006029,82.94873000000007,95.51269500000035,150.0,106.6665039999998,119.61523400000078,95.64111300000059,122.82031300000017,107.30761700000039,69.48730499999965,94.87158199999976,59.74365200000011,110.89746099999957
168,17.56396500000028,1.9228520000006029,82.56396500000028,95.89746099999957,146.15380900000036,104.23095699999976,115.38476599999922,91.41015599999992,119.61523400000078,106.15380900000036,68.46142599999985,94.10253900000043,60.38476599999922,108.84619099999964
169,16.666503999999804,0.8974609999995664,81.79492200000004,95.89746099999957,142.82031300000017,102.82031300000017,111.79492200000004,88.20507799999996,117.82031300000017,105.89746099999957,69.35888699999941,94.74365200000011,60.76904300000024,105.0
170,13.333496000000196,-2.0512699999999313,80.89746099999957,95.12841800000024,139.7436520000001,102.30761700000039,109.74365200000011,87.05126999999993,117.30761700000039,105.89746099999957,70.51269500000035,95.38476599999922,57.94873000000007,106.15380900000036
171,8.333496000000196,-5.897461000000021,80.38476599999922,94.10253900000043,136.6665039999998,103.0771479999994,109.61523400000078,88.3334960000002,117.17968800000017,105.89746099999957,71.15380900000036,95.38476599999922,52.56396500000028,108.7177729999994
172,5.3847659999992175,-8.461425999999847,81.79492200000004,93.7177729999994,134.23095699999976,105.76904300000024,111.15380900000036,91.15380900000036,117.43603499999972,106.15380900000036,71.53857400000015,95.25634799999989,48.333496000000196,105.89746099999957
173,5.769043000000238,-9.358886999999868,84.48730499999965,93.9741210000002,132.05126999999993,108.20507799999996,112.43603499999972,93.84619099999964,117.56396500000028,106.79492200000004,71.53857400000015,95.12841800000024,47.43603499999972,101.6665039999998
174,7.692382999999609,-10.1281740000004,86.9228520000006,94.48730499999965,129.10253900000043,107.56396500000028,111.0258789999998,94.23095699999976,116.53857400000015,106.9228520000006,70.64111300000059,94.61523400000078,48.846190999999635,104.10253900000043
175,9.358886999999413,-11.41015600000037,87.69238299999961,95.64111300000059,126.0258789999998,103.7177729999994,107.94873000000007,92.82031300000017,114.48730499999965,107.05126999999993,69.74365200000011,94.10253900000043,50.64111300000059,111.0258789999998
176,11.025878999999804,-11.41015600000037,87.56396500000028,97.82031300000017,125.38476599999922,100.76904300000024,106.2822270000006,92.17968800000017,113.20507799999996,108.0771479999994,70.64111300000059,95.51269500000035,52.56396500000028,112.30761700000039
177,13.205077999999958,-9.487060999999812,87.82031300000017,100.12841800000024,127.43603499999972,101.6665039999998,107.69238299999961,93.7177729999994,114.48730499999965,110.51269500000035,73.7177729999994,99.48730499999965,54.74365200000011,107.05126999999993
178,13.846190999999635,-7.820557000000008,88.58984400000008,99.74365200000011,129.23095699999976,105.0,110.12841800000024,96.41015599999992,117.30761700000039,112.56396500000028,76.53857400000015,104.23095699999976,55.76904300000024,104.23095699999976
179,11.794922000000042,-7.948729999999614,88.3334960000002,96.0258789999998,128.20507799999996,107.82031300000017,110.64111300000059,97.82031300000017,119.74365200000011,113.0771479999994,77.05126999999993,106.41015599999992,54.61523400000078,106.79492200000004
180,8.846190999999635,-8.076904000000013,86.53857400000015,91.53857400000015,125.12841800000024,108.0771479999994,107.69238299999961,97.69238299999961,120.64111300000059,112.43603499999972,76.15380900000036,105.25634799999989,52.94873000000007,108.0771479999994
181,8.589844000000085,-5.38452099999995,84.87158199999976,89.48730499999965,122.43603499999972,106.0258789999998,102.69238299999961,96.79492200000004,120.12841800000024,111.6665039999998,75.51269500000035,102.56396500000028,53.46142599999985,105.38476599999922
182,11.282227000000603,-1.5385740000001533,85.12841800000024,90.38476599999922,120.25634799999989,102.05126999999993,97.43603499999972,95.76904300000024,118.58984400000008,111.9228520000006,76.0258789999998,100.76904300000024,57.17968800000017,106.0258789999998
183,13.974121000000196,-1.4101559999999154,86.9228520000006,91.53857400000015,117.94873000000007,97.17968800000017,94.23095699999976,95.12841800000024,117.05126999999993,113.20507799999996,77.82031300000017,101.15380900000036,62.30761700000039,112.05126999999993
184,13.589844000000085,-8.71801800000003,88.9741210000002,90.76904300000024,115.38476599999922,94.35888699999941,94.10253900000043,96.2822270000006,117.43603499999972,115.76904300000024,80.51269500000035,104.23095699999976,66.53857400000015,114.74365200000011
185,8.717772999999397,-21.025634999999966,90.38476599999922,87.56396500000028,113.7177729999994,95.64111300000059,96.6665039999998,99.61523400000078,121.0258789999998,119.10253900000043,83.9741210000002,108.58984400000008,67.43603499999972,108.46142599999985
186,1.2822270000006029,-31.41015600000037,90.89746099999957,83.3334960000002,113.46142599999985,99.74365200000011,98.9741210000002,103.7177729999994,126.15380900000036,121.41015599999992,86.41015599999992,111.9228520000006,63.846190999999635,101.53857400000015
187,-3.9741210000001956,-31.41015600000037,90.38476599999922,81.15380900000036,114.35888699999941,103.3334960000002,97.69238299999961,105.64111300000059,128.9741210000002,120.89746099999957,86.0258789999998,112.43603499999972,57.05126999999993,102.69238299999961
188,-1.153809000000365,-16.794922000000042,89.23095699999976,84.23095699999976,116.9228520000006,104.61523400000078,93.0771479999994,103.84619099999964,127.56396500000028,117.69238299999961,83.0771479999994,111.0258789999998,50.76904300000024,108.3334960000002
189,11.282227000000603,9.615234000000783,89.10253900000043,93.20507799999996,121.15380900000036,104.10253900000043,88.0771479999994,98.9741210000002,122.43603499999972,113.0771479999994,79.48730499999965,109.74365200000011,47.17968800000017,109.61523400000078
190,27.94873000000007,37.43603499999972,90.76904300000024,104.74365200000011,125.38476599999922,102.56396500000028,84.74365200000011,92.43603499999972,115.64111300000059,107.69238299999961,75.64111300000059,109.10253900000043,44.102539000000434,107.82031300000017
191,40.51269500000035,57.05126999999993,93.46142599999985,113.20507799999996,126.79492200000004,99.87158199999976,82.69238299999961,85.76904300000024,108.84619099999964,101.0258789999998,70.76904300000024,108.0771479999994,36.9228520000006,109.61523400000078
192,44.35888699999941,66.2822270000006,94.87158199999976,115.89746099999957,125.64111300000059,97.30761700000039,81.0258789999998,80.25634799999989,103.46142599999985,93.46142599999985,65.0,105.25634799999989,23.846190999999635,112.69238299999961
193,41.410155999999915,70.38476599999922,93.7177729999994,114.23095699999976,124.35888699999941,96.0258789999998,79.35888699999941,77.43603499999972,100.0,86.15380900000036,58.589844000000085,100.64111300000059,7.179688000000169,110.38476599999922
194,36.025878999999804,74.87158199999976,90.0,111.2822270000006,124.61523400000078,95.89746099999957,77.17968800000017,76.53857400000015,97.82031300000017,79.61523400000078,52.17968800000017,95.25634799999989,-9.102538999999979,104.61523400000078
195,31.025878999999804,80.51269500000035,84.74365200000011,108.58984400000008,125.51269500000035,95.64111300000059,74.10253900000043,76.2822270000006,95.38476599999922,74.35888699999941,45.25634799999989,90.51269500000035,-21.28198199999997,104.35888699999941
196,28.205077999999958,85.12841800000024,79.74365200000011,106.6665039999998,125.38476599999922,94.35888699999941,70.89746099999957,75.76904300000024,93.3334960000002,71.6665039999998,38.846190999999635,87.69238299999961,-26.666747999999643,109.61523400000078
197,28.846190999999635,87.43603499999972,77.69238299999961,106.0258789999998,124.48730499999965,93.7177729999994,69.35888699999941,75.64111300000059,93.20507799999996,72.56396500000028,36.153809000000365,88.0771479999994,-23.71801800000003,111.41015599999992
198,32.30761700000039,87.82031300000017,79.74365200000011,106.9228520000006,123.84619099999964,94.61523400000078,70.25634799999989,75.89746099999957,94.87158199999976,76.2822270000006,39.102539000000434,91.53857400000015,-15.512939000000188,107.05126999999993
199,36.2822270000006,87.05126999999993,84.10253900000043,108.20507799999996,123.3334960000002,96.2822270000006,71.9228520000006,75.76904300000024,96.2822270000006,80.12841800000024,46.410155999999915,95.76904300000024,-7.435790999999426,104.10253900000043
200,39.48730499999965,86.9228520000006,87.56396500000028,108.84619099999964,122.94873000000007,97.82031300000017,71.9228520000006,74.74365200000011,96.0258789999998,81.9228520000006,54.23095699999976,98.46142599999985,-3.2050779999999577,106.0258789999998
201,42.56396500000028,88.7177729999994,88.58984400000008,109.23095699999976,123.58984400000008,99.23095699999976,69.61523400000078,74.35888699999941,95.25634799999989,82.82031300000017,59.48730499999965,99.23095699999976,-1.7949220000000423,107.05126999999993
202,45.0,90.76904300000024,87.69238299999961,109.61523400000078,125.64111300000059,100.64111300000059,66.53857400000015,76.15380900000036,95.51269500000035,84.48730499999965,60.76904300000024,98.46142599999985,-1.0258789999998044,104.10253900000043
203,44.23095699999976,89.23095699999976,86.15380900000036,109.35888699999941,126.6665039999998,100.38476599999922,63.589844000000085,79.23095699999976,96.9228520000006,86.53857400000015,58.333496000000196,96.6665039999998,-0.256347999999889,103.3334960000002
204,39.102539000000434,82.43603499999972,84.48730499999965,107.69238299999961,124.87158199999976,97.94873000000007,61.410155999999915,81.53857400000015,97.94873000000007,87.30761700000039,54.87158199999976,94.23095699999976,-0.6411130000005869,108.46142599999985
205,33.20507799999996,75.12841800000024,83.58984400000008,106.0258789999998,121.2822270000006,95.25634799999989,60.64111300000059,81.6665039999998,98.20507799999996,86.53857400000015,54.61523400000078,92.94873000000007,-0.8974609999995664,112.30761700000039
206,31.282227000000603,73.20507799999996,84.10253900000043,106.79492200000004,118.7177729999994,95.12841800000024,61.53857400000015,80.64111300000059,98.46142599999985,84.61523400000078,59.61523400000078,94.48730499999965,0.256347999999889,108.3334960000002
207,34.102539000000434,77.43603499999972,85.25634799999989,109.74365200000011,118.0771479999994,97.05126999999993,62.82031300000017,79.48730499999965,98.58984400000008,82.17968800000017,66.6665039999998,97.69238299999961,1.6665039999998044,101.9228520000006
208,38.46142599999985,83.46142599999985,85.64111300000059,112.43603499999972,118.3334960000002,98.58984400000008,63.0771479999994,78.20507799999996,97.82031300000017,79.23095699999976,70.25634799999989,99.35888699999941,1.153809000000365,102.17968800000017
209,41.2822270000006,87.30761700000039,84.87158199999976,112.69238299999961,118.84619099999964,99.35888699999941,62.43603499999972,77.30761700000039,96.41015599999992,77.05126999999993,68.46142599999985,97.82031300000017,-0.6411130000005869,106.6665039999998
210,42.82031300000017,88.3334960000002,84.74365200000011,110.51269500000035,120.25634799999989,100.89746099999957,62.82031300000017,78.0771479999994,96.0258789999998,78.20507799999996,64.61523400000078,94.87158199999976,0.12841800000023795,108.20507799999996
211,43.589844000000085,87.30761700000039,86.53857400000015,107.43603499999972,122.17968800000017,103.7177729999994,65.0,80.89746099999957,97.94873000000007,83.20507799999996,62.94873000000007,92.82031300000017,4.871581999999762,107.43603499999972
212,42.94873000000007,84.48730499999965,88.84619099999964,104.87158199999976,122.05126999999993,105.64111300000059,67.05126999999993,84.23095699999976,101.15380900000036,89.48730499999965,64.48730499999965,92.69238299999961,10.384765999999217,110.51269500000035
213,40.64111300000059,80.76904300000024,89.10253900000043,103.7177729999994,118.7177729999994,104.87158199999976,66.79492200000004,86.6665039999998,103.9741210000002,93.58984400000008,67.56396500000028,93.46142599999985,12.307617000000391,114.87158199999976
214,38.333496000000196,77.94873000000007,86.79492200000004,104.23095699999976,114.10253900000043,102.30761700000039,64.23095699999976,88.58984400000008,105.51269500000035,94.23095699999976,70.76904300000024,94.87158199999976,10.769043000000238,112.56396500000028
215,38.20507799999996,76.9228520000006,84.23095699999976,105.64111300000059,110.25634799999989,99.87158199999976,60.76904300000024,90.0,105.89746099999957,92.56396500000028,73.20507799999996,97.05126999999993,8.846190999999635,104.74365200000011
216,39.61523400000078,76.53857400000015,83.20507799999996,106.41015599999992,107.94873000000007,98.20507799999996,58.0771479999994,90.0,104.74365200000011,90.51269500000035,74.87158199999976,99.23095699999976,9.615234000000783,102.05126999999993
217,41.153809000000365,75.64111300000059,84.10253900000043,106.2822270000006,107.05126999999993,97.56396500000028,56.9228520000006,87.82031300000017,102.56396500000028,89.23095699999976,75.89746099999957,100.38476599999922,13.077147999999397,106.9228520000006
218,42.56396500000028,75.0,85.89746099999957,105.89746099999957,108.0771479999994,98.84619099999964,57.05126999999993,84.48730499999965,100.76904300000024,89.23095699999976,76.41015599999992,100.0,17.69238299999961,110.0
219,44.102539000000434,75.76904300000024,88.20507799999996,106.41015599999992,110.51269500000035,101.2822270000006,57.82031300000017,82.30761700000039,100.51269500000035,89.61523400000078,75.64111300000059,98.7177729999994,20.641113000000587,107.05126999999993
220,44.87158199999976,76.53857400000015,90.12841800000024,107.05126999999993,111.9228520000006,102.82031300000017,57.43603499999972,81.9228520000006,100.64111300000059,88.9741210000002,72.43603499999972,97.05126999999993,19.48730499999965,105.12841800000024
221,44.35888699999941,76.41015599999992,90.89746099999957,106.53857400000015,110.38476599999922,101.41015599999992,54.74365200000011,82.05126999999993,99.48730499999965,86.6665039999998,67.82031300000017,95.51269500000035,14.743652000000111,109.10253900000043
222,43.846190999999635,76.15380900000036,90.0,105.25634799999989,107.43603499999972,99.23095699999976,51.666503999999804,82.05126999999993,97.05126999999993,84.35888699999941,65.89746099999957,95.64111300000059,10.769043000000238,111.79492200000004
223,45.64111300000059,77.05126999999993,88.58984400000008,104.61523400000078,106.41015599999992,99.74365200000011,51.410155999999915,82.56396500000028,95.51269500000035,84.35888699999941,70.0,98.9741210000002,12.051269999999931,107.30761700000039
224,49.48730499999965,79.48730499999965,88.3334960000002,105.25634799999989,108.7177729999994,103.7177729999994,54.74365200000011,83.84619099999964,96.53857400000015,87.69238299999961,78.3334960000002,105.0,18.461425999999847,101.6665039999998
225,53.46142599999985,82.30761700000039,89.23095699999976,107.17968800000017,112.94873000000007,108.3334960000002,59.23095699999976,85.0,99.48730499999965,92.94873000000007,85.12841800000024,110.76904300000024,25.897460999999566,103.7177729999994
226,56.53857400000015,85.89746099999957,91.15380900000036,110.0,117.43603499999972,111.41015599999992,61.9228520000006,85.51269500000035,102.82031300000017,97.82031300000017,86.9228520000006,113.7177729999994,30.897460999999566,109.48730499999965
227,59.74365200000011,90.51269500000035,94.10253900000043,113.58984400000008,121.2822270000006,112.43603499999972,61.025878999999804,85.64111300000059,104.48730499999965,100.25634799999989,85.0,113.3334960000002,33.0771479999994,110.38476599999922
228,62.69238299999961,94.74365200000011,97.82031300000017,116.53857400000015,122.69238299999961,111.9228520000006,56.9228520000006,85.38476599999922,103.20507799999996,99.74365200000011,83.20507799999996,110.64111300000059,33.333496000000196,107.69238299999961
229,64.35888699999941,95.76904300000024,100.64111300000059,116.6665039999998,120.12841800000024,110.0,50.897460999999566,84.87158199999976,100.64111300000059,98.46142599999985,84.35888699999941,108.0771479999994,33.20507799999996,108.58984400000008
230,64.74365200000011,94.10253900000043,100.89746099999957,114.23095699999976,115.25634799999989,108.20507799999996,45.12841800000024,85.0,101.41015599999992,101.15380900000036,89.87158199999976,108.46142599999985,35.51269500000035,111.79492200000004
231,65.89746099999957,93.20507799999996,99.61523400000078,111.41015599999992,112.17968800000017,108.0771479999994,41.79492200000004,87.30761700000039,109.23095699999976,110.89746099999957,98.7177729999994,113.46142599999985,42.43603499999972,110.38476599999922
232,68.58984400000008,95.0,98.46142599999985,110.25634799999989,113.0771479999994,109.87158199999976,41.79492200000004,91.2822270000006,121.53857400000015,124.74365200000011,107.17968800000017,121.15380900000036,51.79492200000004,105.64111300000059
233,70.64111300000059,96.9228520000006,97.82031300000017,109.87158199999976,115.38476599999922,112.30761700000039,44.102539000000434,93.20507799999996,129.10253900000043,133.0771479999994,109.48730499999965,126.41015599999992,57.30761700000039,105.64111300000059
234,69.35888699999941,95.89746099999957,96.79492200000004,108.84619099999964,115.89746099999957,114.87158199999976,48.0771479999994,90.51269500000035,123.9741210000002,127.05126999999993,103.20507799999996,124.61523400000078,53.7177729999994,111.0258789999998
235,64.87158199999976,91.53857400000015,94.61523400000078,107.05126999999993,113.9741210000002,118.7177729999994,53.7177729999994,85.12841800000024,106.79492200000004,106.9228520000006,91.41015599999992,117.05126999999993,42.30761700000039,112.56396500000028
236,59.61523400000078,86.41015599999992,92.30761700000039,105.64111300000059,111.15380900000036,122.94873000000007,59.74365200000011,81.79492200000004,87.43603499999972,83.9741210000002,81.53857400000015,109.23095699999976,29.871581999999762,107.69238299999961
237,56.79492200000004,83.0771479999994,91.53857400000015,105.25634799999989,108.46142599999985,124.23095699999976,62.43603499999972,84.10253900000043,78.9741210000002,73.58984400000008,80.38476599999922,106.79492200000004,24.615234000000783,104.61523400000078
238,58.0771479999994,83.3334960000002,92.94873000000007,105.76904300000024,106.2822270000006,120.64111300000059,59.48730499999965,91.2822270000006,88.58984400000008,84.74365200000011,89.74365200000011,111.2822270000006,30.769043000000238,108.0771479999994
239,63.846190999999635,87.69238299999961,96.2822270000006,106.79492200000004,105.76904300000024,114.74365200000011,53.0771479999994,99.10253900000043,111.6665039999998,112.30761700000039,105.51269500000035,119.87158199999976,46.153809000000365,110.76904300000024
240,70.51269500000035,93.58984400000008,98.9741210000002,106.9228520000006,107.17968800000017,110.89746099999957,47.30761700000039,102.56396500000028,133.20507799999996,138.7177729999994,118.0771479999994,125.76904300000024,60.51269500000035,107.17968800000017
241,71.41015599999992,95.12841800000024,98.58984400000008,103.84619099999964,108.3334960000002,110.64111300000059,44.61523400000078,98.58984400000008,137.94873000000007,144.87158199999976,118.46142599999985,123.9741210000002,61.9228520000006,103.0771479999994
242,64.10253900000043,89.74365200000011,94.35888699999941,96.6665039999998,107.43603499999972,112.30761700000039,44.23095699999976,89.23095699999976,122.30761700000039,126.41015599999992,106.2822270000006,114.74365200000011,47.30761700000039,104.61523400000078
243,53.46142599999985,81.53857400000015,88.9741210000002,88.0771479999994,105.89746099999957,113.58984400000008,44.48730499999965,81.0258789999998,98.46142599999985,98.20507799999996,91.9228520000006,104.87158199999976,27.69238299999961,107.69238299999961
244,48.333496000000196,78.7177729999994,87.05126999999993,82.05126999999993,107.05126999999993,113.46142599999985,43.46142599999985,80.0,84.74365200000011,82.69238299999961,87.82031300000017,101.79492200000004,19.102539000000434,105.51269500000035
245,51.666503999999804,84.48730499999965,89.48730499999965,79.35888699999941,111.0258789999998,111.79492200000004,40.51269500000035,86.15380900000036,88.7177729999994,89.61523400000078,97.05126999999993,106.9228520000006,27.05126999999993,102.05126999999993
246,58.974121000000196,95.25634799999989,92.82031300000017,77.17968800000017,115.51269500000035,109.61523400000078,37.56396500000028,93.0771479999994,102.30761700000039,108.46142599999985,111.2822270000006,114.74365200000011,42.69238299999961,104.10253900000043
247,63.589844000000085,104.87158199999976,93.0771479999994,71.9228520000006,118.9741210000002,109.61523400000078,38.20507799999996,95.38476599999922,109.74365200000011,118.84619099999964,120.51269500000035,118.58984400000008,52.05126999999993,108.7177729999994
248,62.94873000000007,110.51269500000035,90.0,63.20507799999996,122.17968800000017,113.3334960000002,44.61523400000078,92.30761700000039,102.17968800000017,108.58984400000008,122.56396500000028,116.15380900000036,48.333496000000196,107.30761700000039
249,58.46142599999985,112.43603499999972,86.53857400000015,51.79492200000004,125.0,118.84619099999964,54.23095699999976,87.05126999999993,82.69238299999961,82.17968800000017,124.61523400000078,109.61523400000078,35.51269500000035,101.15380900000036
250,53.46142599999985,113.3334960000002,84.74365200000011,39.102539000000434,124.61523400000078,121.6665039999998,61.2822270000006,83.20507799999996,62.43603499999972,55.12841800000024,136.0258789999998,103.3334960000002,23.205077999999958,98.7177729999994
251,51.666503999999804,116.6665039999998,84.74365200000011,26.410155999999915,119.35888699999941,120.12841800000024,61.9228520000006,82.30761700000039,52.17968800000017,43.333496000000196,163.3334960000002,100.76904300000024,20.897460999999566,100.51269500000035
252,55.64111300000059,125.89746099999957,85.25634799999989,15.512695000000349,110.12841800000024,117.17968800000017,58.0771479999994,85.12841800000024,56.410155999999915,53.333496000000196,208.0771479999994,103.0771479999994,32.05126999999993,98.58984400000008
253,64.10253900000043,140.6411130000006,85.64111300000059,6.538574000000153,99.35888699999941,116.2822270000006,54.23095699999976,91.6665039999998,71.79492200000004,79.61523400000078,265.89746099999957,109.35888699999941,51.9228520000006,91.0258789999998
254,72.05126999999993,156.2822270000006,86.41015599999992,-2.3076170000003913,89.23095699999976,118.0771479999994,54.35888699999941,100.89746099999957,90.12841800000024,110.12841800000024,328.7177729999994,116.79492200000004,70.76904300000024,85.64111300000059
255,77.05126999999993,169.23095699999976,88.20507799999996,-11.666747999999643,82.56396500000028,121.2822270000006,59.102539000000434,111.53857400000015,103.7177729999994,134.3588869999994,389.6152340000008,123.3334960000002,83.20507799999996,85.12841800000024
256,81.41015599999992,181.0258789999998,91.79492200000004,-19.8718259999996,83.20507799999996,124.87158199999976,66.9228520000006,122.17968800000017,109.23095699999976,148.20507799999996,444.10253900000043,128.84619099999964,92.30761700000039,81.41015599999992
257,88.9741210000002,195.38476599999922,96.41015599999992,-25.25634799999989,92.43603499999972,128.20507799999996,74.35888699999941,129.3588869999994,105.64111300000059,151.2822270000006,489.7436520000001,133.58984400000008,102.82031300000017,70.12841800000024
258,98.7177729999994,213.20507799999996,99.61523400000078,-28.205077999999958,106.53857400000015,130.12841800000024,77.69238299999961,128.9741210000002,92.17968800000017,143.0771479999994,524.7436520000001,135.76904300000024,113.3334960000002,59.35888699999941
259,106.6665039999998,232.94873000000007,99.48730499999965,-29.8718259999996,119.48730499999965,130.2563479999999,76.6665039999998,120.25634799999989,69.10253900000043,123.20507799999996,550.7690430000002,134.10253900000043,116.9228520000006,56.666503999999804
260,110.76904300000024,252.6923829999996,96.15380900000036,-30.89746100000002,127.43603499999972,129.7436520000001,75.12841800000024,107.82031300000017,40.76904300000024,95.0,574.8715819999998,129.23095699999976,110.25634799999989,57.30761700000039
261,112.69238299999961,271.0258789999998,91.9228520000006,-31.666747999999643,128.7177729999994,129.61523400000078,77.43603499999972,99.23095699999976,14.743652000000111,65.64111300000059,605.1284180000002,124.48730499999965,98.9741210000002,54.35888699999941
262,115.51269500000035,285.51269500000035,89.61523400000078,-33.974365000000034,123.3334960000002,128.7177729999994,84.74365200000011,98.84619099999964,-1.6665039999998044,44.102539000000434,643.7177729999994,122.30761700000039,94.35888699999941,51.666503999999804
263,122.30761700000039,294.3588869999994,90.0,-39.23071300000038,113.0771479999994,125.51269500000035,93.46142599999985,105.76904300000024,-4.102538999999979,38.333496000000196,686.794922,124.10253900000043,106.9228520000006,56.666503999999804
264,134.87158199999976,299.48730499999965,92.69238299999961,-45.64111300000013,103.9741210000002,122.30761700000039,99.87158199999976,117.05126999999993,8.333496000000196,52.43603499999972,728.4614259999998,130.6411130000006,140.12841800000024,66.2822270000006
265,153.0771479999994,304.23095699999976,96.9228520000006,-50.51293900000019,102.94873000000007,123.46142599999985,103.20507799999996,129.23095699999976,31.025878999999804,82.17968800000017,764.8715819999998,141.9228520000006,187.43603499999972,71.41015599999992
266,173.0771479999994,309.6152340000008,101.6665039999998,-52.30761700000039,111.6665039999998,130.6411130000006,105.51269500000035,138.0771479999994,52.69238299999961,113.7177729999994,792.4360349999997,155.38476599999922,234.87158199999976,71.53857400000015
267,191.15380900000036,313.9741210000002,106.2822270000006,-50.76928699999962,125.12841800000024,140.51269500000035,108.46142599999985,140.38476599999922,62.69238299999961,131.9228520000006,808.7177729999994,166.6665039999998,269.7436520000001,73.58984400000008
268,207.43603499999972,317.4360349999997,111.0258789999998,-45.64111300000013,136.2822270000006,147.56396500000028,112.56396500000028,138.46142599999985,61.2822270000006,134.23095699999976,816.6665039999998,175.38476599999922,292.5639650000003,78.3334960000002
269,225.76904300000024,321.79492200000004,117.05126999999993,-37.17944299999999,140.89746099999957,148.20507799999996,115.64111300000059,139.10253900000043,61.2822270000006,134.7436520000001,824.6152340000008,185.51269500000035,314.3588869999994,80.12841800000024
270,246.9228520000006,326.9228520000006,125.0,-28.205077999999958,138.0771479999994,141.9228520000006,115.51269500000035,146.6665039999998,74.74365200000011,149.48730499999965,838.4614259999998,200.12841800000024,344.6152340000008,79.35888699999941
271,266.15380900000036,328.84619099999964,132.82031300000017,-22.820557000000008,130.38476599999922,131.53857400000015,111.2822270000006,158.20507799999996,99.74365200000011,178.58984400000008,851.794922,216.2822270000006,378.7177729999994,84.23095699999976
272,277.5639650000003,323.9741210000002,137.17968800000017,-22.69238299999961,122.69238299999961,123.58984400000008,107.30761700000039,166.0258789999998,120.12841800000024,203.84619099999964,848.8461909999996,226.9228520000006,402.5639650000003,96.79492200000004
273,279.7436520000001,313.20507799999996,136.15380900000036,-25.0,119.48730499999965,124.35888699999941,109.23095699999976,165.2563479999999,120.89746099999957,204.87158199999976,815.6411130000006,227.82031300000017,406.15380900000036,108.3334960000002
274,277.05126999999993,300.3847659999992,131.15380900000036,-25.641113000000132,120.76904300000024,132.94873000000007,118.46142599999985,157.43603499999972,100.64111300000059,177.6923829999996,751.6665039999998,221.15380900000036,393.0771479999994,114.35888699999941
275,275.3847659999992,288.7177729999994,125.76904300000024,-22.820557000000008,120.89746099999957,140.76904300000024,128.9741210000002,147.3076170000004,73.3334960000002,138.3334960000002,672.5639650000003,213.0771479999994,377.94873000000007,120.0
276,278.84619099999964,279.3588869999994,123.58984400000008,-16.923095999999987,116.41015599999992,139.87158199999976,132.56396500000028,140.51269500000035,58.7177729999994,111.15380900000036,602.0512699999999,208.84619099999964,374.7436520000001,129.61523400000078
277,287.6923829999996,271.9228520000006,125.64111300000059,-9.8718259999996,110.38476599999922,130.89746099999957,127.94873000000007,140.2563479999999,67.43603499999972,110.51269500000035,557.3076170000004,211.6665039999998,386.15380900000036,137.17968800000017
278,297.4360349999997,264.23095699999976,129.48730499999965,-3.717772999999397,109.10253900000043,122.69238299999961,121.79492200000004,145.76904300000024,92.43603499999972,130.76904300000024,537.6923829999996,219.87158199999976,401.2822270000006,137.43603499999972
279,301.2822270000006,253.58984400000008,131.79492200000004,-0.512695000000349,114.87158199999976,122.17968800000017,121.79492200000004,152.05126999999993,114.10253900000043,151.15380900000036,525.8974609999996,227.56396500000028,405.89746099999957,134.61523400000078
280,296.4101559999999,239.10253900000043,131.15380900000036,0.6411130000005869,123.84619099999964,129.48730499999965,129.87158199999976,152.94873000000007,116.9228520000006,153.20507799999996,503.0771479999994,229.10253900000043,395.6411130000006,134.87158199999976
281,288.0771479999994,224.87158199999976,128.3334960000002,2.5639650000002803,131.6665039999998,138.84619099999964,141.2822270000006,147.82031300000017,103.9741210000002,138.0771479999994,464.48730499999965,224.61523400000078,380.51269500000035,136.9228520000006
282,284.10253900000043,215.76904300000024,125.64111300000059,8.077147999999397,136.15380900000036,143.46142599999985,148.46142599999985,142.17968800000017,93.7177729999994,125.51269500000035,421.79492200000004,219.7436520000001,375.2563479999999,137.43603499999972
283,287.82031300000017,211.41015599999992,124.61523400000078,16.666503999999804,137.56396500000028,138.84619099999964,146.15380900000036,141.15380900000036,102.82031300000017,134.3588869999994,389.6152340000008,219.61523400000078,384.87158199999976,139.3588869999994
284,294.7436520000001,205.76904300000024,124.87158199999976,25.641113000000587,136.79492200000004,126.2822270000006,135.76904300000024,144.87158199999976,130.38476599999922,163.58984400000008,371.0258789999998,223.3334960000002,400.0,145.2563479999999
285,298.20507799999996,194.48730499999965,125.25634799999989,33.589844000000085,136.15380900000036,113.3334960000002,125.38476599999922,149.23095699999976,159.61523400000078,192.82031300000017,356.4101559999999,225.51269500000035,406.0258789999998,149.87158199999976
286,296.53857400000015,178.9741210000002,124.87158199999976,41.79492200000004,138.58984400000008,109.23095699999976,124.48730499999965,151.0258789999998,173.84619099999964,204.10253900000043,333.7177729999994,223.9741210000002,397.5639650000003,148.3334960000002
287,292.82031300000017,164.23095699999976,124.10253900000043,52.43603499999972,143.7177729999994,116.41015599999992,135.2563479999999,151.0258789999998,171.15380900000036,198.20507799999996,299.48730499999965,220.76904300000024,382.05126999999993,145.51269500000035
288,291.0258789999998,153.84619099999964,124.35888699999941,66.79492200000004,147.82031300000017,128.3334960000002,151.0258789999998,151.41015599999992,163.46142599999985,192.17968800000017,260.12841800000024,219.7436520000001,372.17968800000017,148.46142599999985
289,293.0771479999994,147.82031300000017,126.15380900000036,84.23095699999976,147.56396500000028,136.41015599999992,162.6923829999996,153.3334960000002,163.20507799999996,200.2563479999999,225.2563479999999,222.05126999999993,375.2563479999999,154.3588869999994
290,298.20507799999996,143.7177729999994,127.94873000000007,102.56396500000028,143.20507799999996,137.6923829999996,167.05126999999993,156.79492200000004,171.6665039999998,220.89746099999957,200.12841800000024,225.76904300000024,386.2822270000006,156.53857400000015
291,302.6923829999996,138.46142599999985,127.56396500000028,118.7177729999994,136.0258789999998,135.38476599999922,166.6665039999998,160.6411130000006,179.7436520000001,238.84619099999964,182.17968800000017,227.94873000000007,392.17968800000017,157.3076170000004
292,302.4360349999997,128.46142599999985,124.74365200000011,130.76904300000024,125.51269500000035,132.6923829999996,166.15380900000036,162.6923829999996,178.58984400000008,241.53857400000015,165.38476599999922,226.53857400000015,383.0771479999994,164.48730499999965
293,296.4101559999999,113.46142599999985,122.05126999999993,139.3588869999994,111.79492200000004,131.6665039999998,167.3076170000004,162.05126999999993,168.0771479999994,230.89746099999957,147.56396500000028,221.79492200000004,362.17968800000017,176.41015599999992
294,289.10253900000043,97.94873000000007,121.79492200000004,148.46142599999985,99.61523400000078,133.58984400000008,170.89746099999957,159.61523400000078,156.0258789999998,220.0,131.41015599999992,217.6923829999996,343.7177729999994,182.6923829999996
295,286.2822270000006,88.0771479999994,124.23095699999976,161.53857400000015,95.64111300000059,138.58984400000008,176.2822270000006,157.56396500000028,149.87158199999976,220.51269500000035,119.10253900000043,217.82031300000017,340.51269500000035,179.23095699999976
296,288.7177729999994,85.64111300000059,127.69238299999961,178.7177729999994,100.12841800000024,143.9741210000002,181.79492200000004,157.6923829999996,150.89746099999957,232.6923829999996,109.35888699999941,221.41015599999992,352.94873000000007,171.0258789999998
297,292.94873000000007,87.05126999999993,130.2563479999999,197.43603499999972,104.74365200000011,145.76904300000024,184.23095699999976,159.87158199999976,157.05126999999993,249.10253900000043,99.61523400000078,224.7436520000001,371.0258789999998,158.9741210000002
298,295.2563479999999,87.82031300000017,131.53857400000015,214.48730499999965,99.35888699999941,143.46142599999985,183.20507799999996,163.58984400000008,166.0258789999998,263.46142599999985,90.76904300000024,225.51269500000035,384.3588869999994,139.48730499999965
299,295.12841800000024,86.2822270000006,132.05126999999993,228.20507799999996,81.0258789999998,140.89746099999957,181.15380900000036,167.43603499999972,175.51269500000035,274.3588869999994,86.2822270000006,225.0,388.46142599999985,117.30761700000039
300,292.6923829999996,82.17968800000017,132.56396500000028,239.10253900000043,54.48730499999965,140.38476599999922,180.51269500000035,168.9741210000002,181.2822270000006,281.9228520000006,85.76904300000024,225.2563479999999,383.84619099999964,106.15380900000036
301,288.5898440000001,76.0258789999998,133.20507799999996,249.7436520000001,26.666503999999804,140.2563479999999,181.0258789999998,166.53857400000015,179.87158199999976,285.6411130000006,84.87158199999976,225.2563479999999,374.48730499999965,109.10253900000043
302,284.7436520000001,70.0,133.84619099999964,263.7177729999994,2.3076170000003913,138.3334960000002,181.0258789999998,161.53857400000015,173.3334960000002,286.4101559999999,80.12841800000024,223.20507799999996,365.76904300000024,113.0771479999994
303,282.82031300000017,66.2822270000006,133.9741210000002,281.79492200000004,-20.1281740000004,135.6411130000006,180.51269500000035,157.6923829999996,168.0771479999994,287.05126999999993,71.79492200000004,219.23095699999976,361.79492200000004,108.20507799999996
304,280.51269500000035,63.7177729999994,132.17968800000017,301.15380900000036,-46.66674799999964,134.48730499999965,180.89746099999957,156.2822270000006,167.43603499999972,287.94873000000007,60.51269500000035,213.46142599999985,360.0,101.41015599999992
305,273.7177729999994,58.974121000000196,127.17968800000017,317.17968800000017,-82.82055700000001,134.61523400000078,181.41015599999992,155.2563479999999,168.58984400000008,286.6665039999998,45.64111300000059,205.2563479999999,352.3076170000004,102.17968800000017
306,262.5639650000003,51.53857400000015,120.12841800000024,329.6152340000008,-126.53857400000015,134.23095699999976,180.76904300000024,152.3076170000004,168.20507799999996,283.46142599999985,28.461425999999847,195.51269500000035,336.4101559999999,106.53857400000015
307,255.2563479999999,47.17968800000017,115.12841800000024,343.3334960000002,-165.89746100000002,133.20507799999996,179.10253900000043,149.61523400000078,166.0258789999998,283.9741210000002,14.871581999999762,188.58984400000008,320.89746099999957,105.64111300000059
308,259.10253900000043,50.64111300000059,116.15380900000036,362.3076170000004,-190.64111300000013,132.82031300000017,178.9741210000002,150.2563479999999,164.10253900000043,293.84619099999964,10.128418000000238,188.46142599999985,317.17968800000017,101.6665039999998
309,272.05126999999993,58.846190999999635,122.94873000000007,385.2563479999999,-202.0512700000004,133.58984400000008,181.2822270000006,154.48730499999965,163.46142599999985,311.6665039999998,12.307617000000391,193.3334960000002,326.79492200000004,102.69238299999961
310,284.87158199999976,63.846190999999635,130.76904300000024,406.4101559999999,-211.28198199999997,134.61523400000078,185.6411130000006,160.2563479999999,164.7436520000001,331.4101559999999,14.358886999999413,197.56396500000028,340.3847659999992,106.79492200000004
311,290.0,60.897460999999566,134.61523400000078,421.15380900000036,-228.58984399999963,136.0258789999998,190.38476599999922,166.2822270000006,170.12841800000024,349.7436520000001,11.538574000000153,197.3076170000004,347.94873000000007,106.15380900000036
312,286.2822270000006,51.79492200000004,132.56396500000028,428.46142599999985,-255.38452099999995,138.0771479999994,193.9741210000002,171.41015599999992,179.7436520000001,365.6411130000006,2.6923829999996087,192.56396500000028,345.0,102.05126999999993
313,276.79492200000004,41.153809000000365,125.76904300000024,430.3847659999992,-285.5129390000002,138.58984400000008,194.10253900000043,172.05126999999993,187.17968800000017,375.2563479999999,-12.179442999999992,184.87158199999976,331.4101559999999,103.3334960000002
314,266.15380900000036,33.20507799999996,117.17968800000017,430.76904300000024,-310.1281740000004,135.6411130000006,189.48730499999965,165.38476599999922,184.10253900000043,373.0771479999994,-32.948729999999614,174.23095699999976,310.3847659999992,110.12841800000024
315,259.7436520000001,31.794922000000042,110.51269500000035,432.5639650000003,-322.179443,131.0258789999998,182.05126999999993,153.9741210000002,169.48730499999965,360.0,-54.8718259999996,163.58984400000008,289.87158199999976,111.6665039999998
316,260.89746099999957,37.56396500000028,108.9741210000002,436.0258789999998,-320.5129390000002,129.48730499999965,175.6411130000006,145.0,152.43603499999972,346.6665039999998,-70.1281740000004,157.43603499999972,278.20507799999996,104.35888699999941
317,267.4360349999997,46.666503999999804,112.82031300000017,438.0771479999994,-311.66674799999964,132.6923829999996,172.82031300000017,143.3334960000002,143.20507799999996,343.84619099999964,-74.61547900000005,158.7177729999994,277.4360349999997,98.20507799999996
318,272.82031300000017,53.333496000000196,117.94873000000007,434.87158199999976,-304.102539,137.05126999999993,172.56396500000028,147.56396500000028,145.0,352.6923829999996,-71.41015600000037,163.84619099999964,281.0258789999998,101.0258789999998
319,272.17968800000017,55.51269500000035,120.12841800000024,425.89746099999957,-301.66674799999964,138.9741210000002,172.94873000000007,152.94873000000007,152.6923829999996,364.48730499999965,-66.79492200000004,167.3076170000004,281.4101559999999,106.6665039999998
320,266.79492200000004,55.38476599999922,118.7177729999994,414.3588869999994,-301.53857400000015,138.20507799999996,173.7177729999994,156.53857400000015,159.48730499999965,370.76904300000024,-64.61547900000005,166.15380900000036,276.53857400000015,106.41015599999992
321,260.12841800000024,55.897460999999566,116.53857400000015,403.7177729999994,-299.35888699999987,136.41015599999992,174.48730499999965,157.6923829999996,160.76904300000024,368.0771479999994,-66.02563499999997,161.53857400000015,269.23095699999976,103.3334960000002
322,253.7177729999994,57.30761700000039,115.89746099999957,393.84619099999964,-293.84619099999964,134.48730499999965,173.9741210000002,156.2822270000006,155.51269500000035,357.5639650000003,-71.02563499999997,155.51269500000035,261.4101559999999,105.25634799999989
323,247.43603499999972,58.974121000000196,116.53857400000015,382.5639650000003,-285.2563479999999,133.0771479999994,171.53857400000015,153.0771479999994,146.15380900000036,342.6923829999996,-78.97436500000003,149.87158199999976,253.9741210000002,110.0
324,241.15380900000036,61.2822270000006,116.79492200000004,368.46142599999985,-273.71801800000003,133.0771479999994,168.0771479999994,150.51269500000035,137.82031300000017,327.3076170000004,-87.43579099999943,145.6411130000006,247.82031300000017,109.23095699999976
325,234.7436520000001,64.48730499999965,115.89746099999957,351.2822270000006,-259.35888699999987,134.23095699999976,165.38476599999922,150.0,135.51269500000035,313.84619099999964,-92.82055700000001,143.0771479999994,244.23095699999976,102.94873000000007
326,227.17968800000017,67.56396500000028,114.61523400000078,332.3076170000004,-243.97436500000003,134.7436520000001,163.58984400000008,150.0,139.3588869999994,302.17968800000017,-92.82055700000001,140.51269500000035,242.94873000000007,99.87158199999976
327,218.58984400000008,69.61523400000078,114.10253900000043,313.0771479999994,-228.58984399999963,133.9741210000002,162.43603499999972,148.58984400000008,145.12841800000024,291.15380900000036,-86.41015600000037,137.3076170000004,243.58984400000008,102.82031300000017
328,211.53857400000015,72.17968800000017,116.15380900000036,295.51269500000035,-212.0512700000004,133.7177729999994,161.53857400000015,146.79492200000004,148.7177729999994,280.51269500000035,-72.94872999999961,135.76904300000024,247.17968800000017,105.25634799999989
329,208.3334960000002,76.9228520000006,121.41015599999992,280.51269500000035,-192.6923829999996,134.87158199999976,159.7436520000001,148.3334960000002,149.7436520000001,272.82031300000017,-52.564209000000574,138.7177729999994,254.3588869999994,103.84619099999964
330,207.82031300000017,83.0771479999994,128.58984400000008,266.2822270000006,-171.41015600000037,135.51269500000035,155.76904300000024,154.23095699999976,150.38476599999922,269.87158199999976,-27.948729999999614,145.6411130000006,263.5898440000001,104.23095699999976
331,206.79492200000004,88.20507799999996,133.58984400000008,250.38476599999922,-149.4870609999998,134.23095699999976,150.51269500000035,161.79492200000004,151.79492200000004,269.10253900000043,-3.846190999999635,151.79492200000004,270.51269500000035,109.10253900000043
332,201.79492200000004,90.64111300000059,133.58984400000008,232.05126999999993,-126.92309599999999,132.94873000000007,147.56396500000028,166.2822270000006,153.3334960000002,264.7436520000001,16.282227000000603,152.82031300000017,271.9228520000006,111.9228520000006
333,192.43603499999972,90.25634799999989,128.7177729999994,212.43603499999972,-103.07690400000001,134.10253900000043,149.61523400000078,165.6411130000006,152.56396500000028,251.41015599999992,31.282227000000603,147.43603499999972,267.94873000000007,107.69238299999961
334,180.12841800000024,88.0771479999994,122.56396500000028,193.0771479999994,-80.0,136.79492200000004,154.7436520000001,161.15380900000036,147.43603499999972,228.9741210000002,43.0771479999994,138.46142599999985,261.0258789999998,101.9228520000006
335,168.0771479999994,85.89746099999957,118.84619099999964,174.87158199999976,-59.74365200000011,137.94873000000007,158.46142599999985,156.41015599999992,139.23095699999976,203.84619099999964,55.76904300000024,130.6411130000006,255.0,102.30761700000039
336,160.12841800000024,86.15380900000036,119.48730499999965,158.84619099999964,-42.69238299999961,137.17968800000017,158.7177729999994,155.12841800000024,132.43603499999972,184.48730499999965,73.58984400000008,128.3334960000002,253.3334960000002,106.2822270000006
337,157.17968800000017,89.48730499999965,123.7177729999994,145.76904300000024,-27.051270000000386,137.05126999999993,156.79492200000004,158.0771479999994,130.76904300000024,175.6411130000006,97.30761700000039,132.3076170000004,256.9228520000006,106.9228520000006
338,156.41015599999992,92.05126999999993,129.3588869999994,134.87158199999976,-12.179442999999992,138.84619099999964,155.38476599999922,162.3076170000004,133.58984400000008,173.7177729999994,122.05126999999993,138.46142599999985,262.82031300000017,105.0
339,153.3334960000002,89.87158199999976,133.46142599999985,124.35888699999941,1.4101559999999154,141.15380900000036,155.89746099999957,163.58984400000008,137.43603499999972,171.9228520000006,141.6665039999998,142.17968800000017,267.17968800000017,105.89746099999957
340,148.20507799999996,83.58984400000008,135.0,114.23095699999976,15.384765999999217,142.56396500000028,158.46142599999985,161.41015599999992,139.10253900000043,166.41015599999992,155.2563479999999,142.05126999999993,270.2563479999999,108.58984400000008
341,144.87158199999976,79.23095699999976,135.12841800000024,105.76904300000024,31.410155999999915,143.20507799999996,161.6665039999998,159.3588869999994,139.10253900000043,159.87158199999976,168.3334960000002,141.0258789999998,275.12841800000024,106.15380900000036
342,145.0,80.25634799999989,135.76904300000024,99.23095699999976,48.333496000000196,142.56396500000028,163.3334960000002,160.38476599999922,139.3588869999994,155.6411130000006,185.89746099999957,141.53857400000015,282.5639650000003,99.35888699999941
343,144.87158199999976,84.35888699999941,136.6665039999998,93.7177729999994,60.51269500000035,139.61523400000078,161.0258789999998,162.56396500000028,139.87158199999976,154.48730499999965,206.53857400000015,142.05126999999993,288.5898440000001,96.53857400000015
344,140.6411130000006,86.15380900000036,135.51269500000035,88.0771479999994,64.61523400000078,135.51269500000035,155.51269500000035,162.82031300000017,139.87158199999976,154.10253900000043,224.10253900000043,140.2563479999999,288.7177729999994,100.0
345,132.43603499999972,83.7177729999994,131.6665039999998,83.0771479999994,62.56396500000028,133.58984400000008,150.38476599999922,160.0,138.7177729999994,153.0771479999994,233.7177729999994,136.15380900000036,282.82031300000017,103.0771479999994
346,123.58984400000008,78.3334960000002,127.30761700000039,79.23095699999976,59.23095699999976,135.6411130000006,149.10253900000043,156.0258789999998,136.6665039999998,150.38476599999922,234.61523400000078,131.9228520000006,274.10253900000043,101.79492200000004
347,116.2822270000006,72.43603499999972,125.0,76.79492200000004,57.05126999999993,139.7436520000001,151.79492200000004,153.20507799999996,133.46142599999985,144.3588869999994,228.9741210000002,129.10253900000043,265.3847659999992,100.89746099999957
348,110.76904300000024,67.69238299999961,125.51269500000035,75.76904300000024,56.153809000000365,142.3076170000004,155.6411130000006,152.6923829999996,129.7436520000001,135.2563479999999,221.2822270000006,128.0771479999994,257.4360349999997,103.7177729999994
349,107.17968800000017,66.0258789999998,127.30761700000039,76.41015599999992,56.9228520000006,142.6923829999996,158.46142599999985,154.23095699999976,126.15380900000036,125.0,216.15380900000036,128.46142599999985,249.61523400000078,106.0258789999998
350,104.74365200000011,66.6665039999998,128.84619099999964,78.84619099999964,59.35888699999941,141.9228520000006,159.23095699999976,155.89746099999957,122.94873000000007,116.15380900000036,215.2563479999999,129.3588869999994,240.2563479999999,105.38476599999922
351,101.6665039999998,65.25634799999989,128.9741210000002,81.53857400000015,61.410155999999915,140.12841800000024,158.0771479999994,154.7436520000001,119.10253900000043,109.61523400000078,215.51269500000035,128.58984400000008,227.82031300000017,106.6665039999998
352,97.05126999999993,59.61523400000078,127.30761700000039,83.84619099999964,61.025878999999804,137.43603499999972,155.12841800000024,150.0,115.25634799999989,106.15380900000036,213.46142599999985,125.76904300000024,215.0,113.0771479999994
353,93.46142599999985,52.30761700000039,125.25634799999989,86.41015599999992,59.35888699999941,134.61523400000078,151.79492200000004,145.51269500000035,113.84619099999964,107.94873000000007,208.7177729999994,123.3334960000002,207.94873000000007,118.0771479999994
354,93.46142599999985,48.589844000000085,124.61523400000078,90.12841800000024,58.46142599999985,132.94873000000007,150.12841800000024,145.12841800000024,116.6665039999998,115.12841800000024,203.58984400000008,123.7177729999994,209.87158199999976,115.12841800000024
355,95.0,48.7177729999994,125.38476599999922,93.58984400000008,58.20507799999996,132.43603499999972,151.0258789999998,148.46142599999985,121.53857400000015,123.46142599999985,198.58984400000008,125.64111300000059,215.38476599999922,108.7177729999994
356,93.46142599999985,48.0771479999994,126.0258789999998,95.25634799999989,56.53857400000015,132.17968800000017,154.3588869999994,151.2822270000006,124.23095699999976,126.6665039999998,191.53857400000015,125.76904300000024,215.0,107.56396500000028
357,87.69238299999961,43.589844000000085,125.12841800000024,95.25634799999989,53.7177729999994,133.46142599999985,159.48730499999965,150.6411130000006,122.82031300000017,123.20507799999996,182.17968800000017,122.82031300000017,205.89746099999957,110.89746099999957
358,81.79492200000004,37.82031300000017,124.10253900000043,96.9228520000006,53.0771479999994,137.56396500000028,165.0,148.46142599999985,120.12841800000024,118.58984400000008,173.58984400000008,119.74365200000011,194.23095699999976,111.41015599999992
359,79.87158199999976,35.76904300000024,125.89746099999957,102.30761700000039,56.666503999999804,142.6923829999996,167.82031300000017,147.3076170000004,120.0,119.35888699999941,168.3334960000002,120.0,188.7177729999994,108.46142599999985
360,82.43603499999972,38.846190999999635,130.76904300000024,110.38476599999922,62.69238299999961,145.0,165.0,148.20507799999996,123.7177729999994,127.17968800000017,166.2822270000006,124.10253900000043,192.3076170000004,108.46142599999985
361,87.43603499999972,45.12841800000024,136.41015599999992,118.3334960000002,67.82031300000017,143.58984400000008,157.43603499999972,150.12841800000024,129.61523400000078,138.7177729999994,165.2563479999999,130.0,201.53857400000015,112.43603499999972
362,92.05126999999993,50.64111300000059,139.10253900000043,123.46142599999985,70.12841800000024,141.2822270000006,150.38476599999922,152.43603499999972,135.0,149.23095699999976,163.20507799999996,135.0,209.61523400000078,113.84619099999964
363,94.10253900000043,51.025878999999804,137.56396500000028,125.0,69.10253900000043,141.0258789999998,148.46142599999985,154.3588869999994,137.43603499999972,154.23095699999976,159.23095699999976,137.3076170000004,211.15380900000036,111.0258789999998
364,91.41015599999992,43.974121000000196,132.56396500000028,124.10253900000043,64.74365200000011,142.43603499999972,150.6411130000006,154.23095699999976,135.12841800000024,151.9228520000006,153.20507799999996,135.51269500000035,204.7436520000001,110.12841800000024
365,85.76904300000024,32.56396500000028,127.05126999999993,123.46142599999985,59.35888699999941,144.10253900000043,152.56396500000028,151.9228520000006,129.87158199999976,144.87158199999976,146.79492200000004,130.51269500000035,194.61523400000078,113.3334960000002
366,81.6665039999998,24.230956999999762,123.84619099999964,125.64111300000059,56.153809000000365,145.38476599999922,151.2822270000006,148.7177729999994,125.51269500000035,138.20507799999996,142.94873000000007,125.89746099999957,188.58984400000008,114.87158199999976
367,82.17968800000017,23.974121000000196,123.84619099999964,131.53857400000015,56.153809000000365,146.53857400000015,146.79492200000004,146.15380900000036,124.23095699999976,135.6411130000006,142.05126999999993,124.74365200000011,189.7436520000001,111.9228520000006
368,86.0258789999998,29.358886999999413,126.15380900000036,138.7177729999994,56.79492200000004,147.56396500000028,142.05126999999993,144.7436520000001,124.61523400000078,136.6665039999998,140.76904300000024,126.9228520000006,194.10253900000043,110.38476599999922
369,89.74365200000011,34.48730499999965,128.84619099999964,144.10253900000043,55.76904300000024,149.23095699999976,140.2563479999999,144.48730499999965,124.87158199999976,139.10253900000043,136.2822270000006,130.2563479999999,196.0258789999998,114.10253900000043
370,91.79492200000004,35.897460999999566,131.15380900000036,146.79492200000004,53.589844000000085,152.56396500000028,142.94873000000007,146.41015599999992,124.74365200000011,142.05126999999993,129.10253900000043,133.3334960000002,194.87158199999976,117.05126999999993
371,92.30761700000039,33.589844000000085,133.3334960000002,147.56396500000028,52.30761700000039,156.79492200000004,147.05126999999993,149.61523400000078,125.51269500000035,145.12841800000024,122.30761700000039,135.38476599999922,193.84619099999964,112.82031300000017
372,91.2822270000006,28.717772999999397,135.12841800000024,146.6665039999998,50.897460999999566,157.17968800000017,146.53857400000015,151.0258789999998,126.6665039999998,147.05126999999993,117.05126999999993,135.76904300000024,195.51269500000035,106.53857400000015
373,88.84619099999964,22.56396500000028,135.2563479999999,144.3588869999994,47.30761700000039,151.0258789999998,137.82031300000017,148.3334960000002,126.41015599999992,147.17968800000017,112.69238299999961,134.7436520000001,199.23095699999976,106.79492200000004
374,86.9228520000006,17.82031300000017,133.3334960000002,141.79492200000004,43.0771479999994,142.17968800000017,125.51269500000035,143.20507799999996,124.61523400000078,147.43603499999972,109.23095699999976,134.23095699999976,204.3588869999994,111.6665039999998
375,87.82031300000017,16.410155999999915,131.0258789999998,140.51269500000035,41.79492200000004,138.0771479999994,117.69238299999961,140.38476599999922,123.46142599999985,150.6411130000006,108.0771479999994,136.53857400000015,210.76904300000024,112.94873000000007
376,90.38476599999922,17.56396500000028,130.76904300000024,140.76904300000024,45.64111300000059,141.53857400000015,118.7177729999994,142.17968800000017,125.0,157.05126999999993,109.23095699999976,141.2822270000006,217.05126999999993,110.25634799999989
377,91.53857400000015,18.205077999999958,133.0771479999994,141.6665039999998,52.30761700000039,148.9741210000002,125.64111300000059,147.3076170000004,128.58984400000008,163.84619099999964,111.15380900000036,146.0258789999998,221.6665039999998,110.38476599999922
378,90.12841800000024,17.56396500000028,136.41015599999992,142.17968800000017,58.333496000000196,154.7436520000001,132.43603499999972,152.43603499999972,132.6923829999996,168.58984400000008,112.17968800000017,148.7177729999994,223.7177729999994,113.46142599999985
379,87.82031300000017,17.30761700000039,138.7177729999994,142.3076170000004,61.666503999999804,155.89746099999957,134.48730499999965,154.61523400000078,135.89746099999957,170.38476599999922,111.79492200000004,148.58984400000008,225.12841800000024,112.94873000000007
380,86.79492200000004,18.077147999999397,138.46142599999985,141.9228520000006,61.410155999999915,152.6923829999996,130.38476599999922,152.82031300000017,136.79492200000004,168.84619099999964,109.48730499999965,145.51269500000035,227.05126999999993,107.82031300000017
381,87.17968800000017,17.56396500000028,135.38476599999922,141.15380900000036,58.7177729999994,147.94873000000007,122.17968800000017,147.94873000000007,134.87158199999976,165.12841800000024,105.76904300000024,140.76904300000024,230.0,106.0258789999998
382,88.46142599999985,13.974121000000196,130.89746099999957,140.12841800000024,56.79492200000004,145.76904300000024,115.0,143.84619099999964,132.05126999999993,162.43603499999972,102.56396500000028,137.3076170000004,234.87158199999976,110.38476599999922
383,90.25634799999989,7.948730000000069,128.20507799999996,138.7177729999994,58.974121000000196,149.23095699999976,113.7177729999994,144.3588869999994,131.2822270000006,164.23095699999976,102.43603499999972,137.82031300000017,242.56396500000028,113.58984400000008
