,EEG.AF3,EEG.F7,EEG.F3,EEG.FC5,EEG.T7,EEG.P7,EEG.O1,EEG.O2,EEG.P8,EEG.T8,EEG.FC6,EEG.F4,EEG.F8,EEG.AF4
0,139.23095699999976,292.94873000000007,88.9741210000002,-98.20507799999996,150.0,92.17968800000017,126.15380900000036,143.20507799999996,69.10253900000043,83.0771479999994,823.9741210000002,121.0258789999998,347.3076170000004,54.23095699999976
1,136.2822270000006,299.48730499999965,84.61523400000078,-95.76928699999962,151.79492200000004,89.48730499999965,126.15380900000036,139.48730499999965,69.35888699999941,78.9741210000002,804.3588869999994,116.79492200000004,319.48730499999965,66.9228520000006
2,131.6665039999998,297.94873000000007,80.0,-91.53857400000015,145.6411130000006,87.43603499999972,127.56396500000028,133.20507799999996,55.38476599999922,60.12841800000024,781.4101559999999,111.9228520000006,288.9741210000002,74.48730499999965
3,131.9228520000006,291.6665039999998,78.20507799999996,-84.74365200000011,131.2822270000006,86.9228520000006,130.12841800000024,128.7177729999994,39.61523400000078,40.12841800000024,763.7177729999994,110.89746099999957,271.0258789999998,81.6665039999998
4,141.2822270000006,285.0,81.53857400000015,-75.89746100000002,112.43603499999972,87.17968800000017,133.3334960000002,128.3334960000002,35.64111300000059,32.05126999999993,750.0,116.79492200000004,272.94873000000007,94.74365200000011
5,159.7436520000001,281.9228520000006,89.48730499999965,-65.76928699999962,96.6665039999998,89.10253900000043,138.0771479999994,132.56396500000028,48.589844000000085,39.48730499999965,730.7690430000002,129.3588869999994,292.6923829999996,110.38476599999922
6,182.05126999999993,282.17968800000017,99.10253900000043,-55.51293900000019,90.25634799999989,93.84619099999964,145.2563479999999,138.9741210000002,71.79492200000004,55.38476599999922,695.3847659999992,145.12841800000024,320.76904300000024,123.46142599999985
7,199.23095699999976,279.6152340000008,106.2822270000006,-47.435790999999426,91.2822270000006,99.74365200000011,153.0771479999994,142.3076170000004,90.51269500000035,66.15380900000036,638.7177729999994,157.17968800000017,343.0771479999994,135.38476599999922
8,204.7436520000001,268.46142599999985,108.46142599999985,-42.30761700000039,92.69238299999961,103.20507799999996,158.20507799999996,138.58984400000008,92.82031300000017,60.0,564.7436520000001,159.7436520000001,349.6152340000008,147.43603499999972
9,201.2822270000006,250.12841800000024,106.15380900000036,-37.82055700000001,89.10253900000043,103.46142599999985,160.0,129.48730499999965,81.0258789999998,39.61523400000078,488.3334960000002,154.48730499999965,342.17968800000017,153.46142599999985
10,199.87158199999976,233.46142599999985,103.20507799999996,-30.512939000000188,82.43603499999972,102.94873000000007,161.15380900000036,123.20507799999996,71.9228520000006,24.74365200000011,428.3334960000002,150.12841800000024,333.9741210000002,149.48730499999965
11,208.46142599999985,225.51269500000035,103.7177729999994,-19.358886999999868,77.30761700000039,103.3334960000002,163.58984400000008,126.79492200000004,83.84619099999964,37.05126999999993,393.84619099999964,155.2563479999999,336.0258789999998,143.46142599999985
12,225.51269500000035,223.9741210000002,108.7177729999994,-6.41015600000037,77.43603499999972,103.46142599999985,165.89746099999957,138.9741210000002,118.0771479999994,77.69238299999961,376.0258789999998,169.10253900000043,345.2563479999999,145.2563479999999
13,242.6923829999996,221.9228520000006,116.0258789999998,5.897460999999566,83.9741210000002,102.30761700000039,166.53857400000015,151.2822270000006,156.15380900000036,123.84619099999964,355.51269500000035,183.84619099999964,349.3588869999994,151.9228520000006
14,254.87158199999976,215.38476599999922,122.30761700000039,17.94873000000007,95.38476599999922,101.6665039999998,166.6665039999998,156.0258789999998,175.76904300000024,149.3588869999994,320.2563479999999,192.82031300000017,340.89746099999957,155.12841800000024
15,263.0771479999994,205.38476599999922,126.2822270000006,31.410155999999915,106.41015599999992,102.69238299999961,168.9741210000002,153.3334960000002,170.89746099999957,148.9741210000002,273.84619099999964,196.9228520000006,325.2563479999999,155.0
16,271.53857400000015,195.38476599999922,129.10253900000043,45.897460999999566,110.38476599999922,104.35888699999941,173.7177729999994,150.0,156.41015599999992,141.79492200000004,229.23095699999976,200.2563479999999,314.48730499999965,158.46142599999985
17,282.4360349999997,188.0771479999994,132.3076170000004,60.51269500000035,105.76904300000024,104.87158199999976,179.7436520000001,152.05126999999993,151.53857400000015,149.7436520000001,195.6411130000006,205.0,314.87158199999976,164.10253900000043
18,293.84619099999964,183.46142599999985,135.2563479999999,73.9741210000002,97.69238299999961,106.15380900000036,186.6665039999998,158.84619099999964,160.38476599999922,174.87158199999976,172.17968800000017,209.61523400000078,322.17968800000017,164.61523400000078
19,301.9228520000006,179.23095699999976,135.51269500000035,86.2822270000006,91.79492200000004,110.38476599999922,194.61523400000078,163.58984400000008,169.10253900000043,198.46142599999985,150.12841800000024,210.76904300000024,325.0,161.79492200000004
20,303.0771479999994,171.41015599999992,132.17968800000017,97.43603499999972,85.89746099999957,115.51269500000035,201.6665039999998,159.48730499999965,161.15380900000036,200.2563479999999,121.9228520000006,206.15380900000036,313.84619099999964,164.7436520000001
21,298.0771479999994,158.46142599999985,126.41015599999992,108.84619099999964,73.9741210000002,116.6665039999998,204.48730499999965,146.2822270000006,135.89746099999957,180.2563479999999,87.69238299999961,196.9228520000006,288.9741210000002,174.10253900000043
22,292.6923829999996,143.20507799999996,121.79492200000004,122.17968800000017,55.0,113.46142599999985,202.6923829999996,132.94873000000007,110.0,158.84619099999964,56.53857400000015,188.20507799999996,260.76904300000024,182.17968800000017
23,292.4360349999997,130.12841800000024,121.0258789999998,138.20507799999996,36.410155999999915,110.25634799999989,199.61523400000078,129.61523400000078,101.53857400000015,158.20507799999996,38.333496000000196,186.2822270000006,242.94873000000007,186.9228520000006
24,297.6923829999996,120.76904300000024,124.10253900000043,154.48730499999965,24.871581999999762,110.38476599999922,199.10253900000043,138.0771479999994,113.58984400000008,184.10253900000043,35.25634799999989,192.17968800000017,242.56396500000028,193.20507799999996
25,304.48730499999965,112.94873000000007,128.20507799999996,168.9741210000002,18.974121000000196,112.82031300000017,202.05126999999993,150.38476599999922,134.23095699999976,223.58984400000008,40.12841800000024,200.51269500000035,256.0258789999998,197.82031300000017
26,310.2563479999999,106.0258789999998,130.38476599999922,182.6923829999996,10.769043000000238,115.0,206.79492200000004,157.6923829999996,150.2563479999999,259.48730499999965,44.102539000000434,205.6411130000006,274.48730499999965,187.43603499999972
27,316.53857400000015,102.69238299999961,130.2563479999999,199.7436520000001,-7.564209000000574,116.2822270000006,211.9228520000006,158.9741210000002,158.58984400000008,284.23095699999976,43.7177729999994,207.6923829999996,289.7436520000001,159.3588869999994
28,324.6152340000008,104.48730499999965,129.7436520000001,223.46142599999985,-38.974365000000034,116.53857400000015,215.6411130000006,159.10253900000043,164.48730499999965,300.76904300000024,40.51269500000035,209.7436520000001,298.20507799999996,129.23095699999976
29,332.4360349999997,109.23095699999976,130.12841800000024,253.20507799999996,-81.28198199999997,114.61523400000078,216.0258789999998,161.9228520000006,171.6665039999998,314.48730499999965,35.897460999999566,212.05126999999993,299.48730499999965,111.6665039999998
30,336.79492200000004,112.69238299999961,130.38476599999922,286.15380900000036,-125.51293900000019,110.25634799999989,213.20507799999996,166.0258789999998,177.6923829999996,326.53857400000015,29.102539000000434,211.6665039999998,297.4360349999997,104.74365200000011
31,337.6923829999996,112.82031300000017,128.58984400000008,319.3588869999994,-160.89746100000002,106.2822270000006,210.0,167.6923829999996,176.53857400000015,336.53857400000015,18.589844000000085,206.79492200000004,296.9228520000006,99.87158199999976
32,337.82031300000017,109.74365200000011,124.10253900000043,350.3847659999992,-180.76928699999962,105.64111300000059,209.61523400000078,164.61523400000078,165.89746099999957,345.0,3.077147999999397,199.23095699999976,299.87158199999976,97.94873000000007
33,339.10253900000043,103.7177729999994,118.7177729999994,377.94873000000007,-189.35888699999987,107.43603499999972,211.41015599999992,157.05126999999993,150.2563479999999,355.12841800000024,-16.794922000000042,192.05126999999993,303.5898440000001,102.82031300000017
34,342.94873000000007,95.51269500000035,114.87158199999976,402.4360349999997,-196.28198199999997,108.84619099999964,212.56396500000028,148.7177729999994,139.61523400000078,371.53857400000015,-36.79492200000004,187.05126999999993,305.6411130000006,107.56396500000028
35,350.89746099999957,88.3334960000002,114.74365200000011,425.3847659999992,-207.9487299999996,109.48730499999965,211.79492200000004,144.87158199999976,141.41015599999992,396.0258789999998,-49.35888699999987,185.76904300000024,307.6923829999996,103.58984400000008
36,362.5639650000003,83.58984400000008,118.7177729999994,446.79492200000004,-224.35888699999987,110.25634799999989,210.12841800000024,147.43603499999972,153.9741210000002,424.6152340000008,-50.51293900000019,188.46142599999985,312.4360349999997,96.0258789999998
37,373.46142599999985,78.58984400000008,123.58984400000008,464.48730499999965,-242.6923829999996,109.74365200000011,208.20507799999996,151.9228520000006,166.2822270000006,447.6923829999996,-44.61547900000005,191.79492200000004,319.6152340000008,96.6665039999998
38,378.9741210000002,68.7177729999994,124.87158199999976,475.2563479999999,-261.02563499999997,105.25634799999989,204.7436520000001,151.9228520000006,167.43603499999972,457.6923829999996,-42.17944299999999,191.41015599999992,325.51269500000035,105.12841800000024
39,379.23095699999976,53.333496000000196,120.64111300000059,479.10253900000043,-277.5642090000006,97.30761700000039,198.7177729999994,146.41015599999992,157.6923829999996,457.94873000000007,-49.61547900000005,186.0258789999998,327.82031300000017,108.7177729999994
40,378.0771479999994,36.53857400000015,113.58984400000008,478.46142599999985,-289.7436520000001,90.38476599999922,191.9228520000006,140.2563479999999,146.6665039999998,458.84619099999964,-65.1281740000004,179.48730499999965,326.4101559999999,103.46142599999985
41,378.3334960000002,22.56396500000028,108.46142599999985,475.6411130000006,-296.66674799999964,87.94873000000007,187.43603499999972,138.58984400000008,142.6923829999996,466.9228520000006,-81.28198199999997,175.76904300000024,321.9228520000006,99.35888699999941
42,379.23095699999976,13.205077999999958,107.82031300000017,471.79492200000004,-300.0,89.35888699999941,186.15380900000036,141.6665039999998,146.79492200000004,480.0,-91.53857400000015,175.2563479999999,316.2822270000006,103.46142599999985
43,380.89746099999957,10.256347999999889,111.41015599999992,467.17968800000017,-300.38452099999995,92.05126999999993,187.17968800000017,147.3076170000004,155.38476599999922,492.6923829999996,-91.92309599999999,177.43603499999972,314.7436520000001,108.7177729999994
44,384.6152340000008,15.0,117.82031300000017,462.05126999999993,-296.79492200000004,93.58984400000008,188.58984400000008,153.7177729999994,165.38476599999922,504.10253900000043,-83.84619099999964,182.05126999999993,321.6665039999998,107.43603499999972
45,389.10253900000043,24.74365200000011,124.87158199999976,455.0,-289.35888699999987,92.69238299999961,188.58984400000008,158.7177729999994,174.48730499999965,514.2309569999998,-74.74365200000011,187.6923829999996,333.84619099999964,104.35888699999941
46,389.7436520000001,32.30761700000039,129.10253900000043,443.7177729999994,-279.102539,89.23095699999976,185.2563479999999,160.0,179.10253900000043,518.7177729999994,-74.23071300000038,189.7436520000001,341.2822270000006,106.53857400000015
47,382.5639650000003,32.69238299999961,127.56396500000028,427.05126999999993,-266.923096,85.64111300000059,178.7177729999994,156.41015599999992,176.79492200000004,511.6665039999998,-86.15380900000036,184.7436520000001,336.6665039999998,109.74365200000011
48,369.48730499999965,28.461425999999847,121.0258789999998,406.6665039999998,-251.66674799999964,85.51269500000035,172.17968800000017,150.0,168.0771479999994,491.2822270000006,-105.51293900000019,173.58984400000008,322.4360349999997,105.64111300000059
49,354.7436520000001,25.51269500000035,113.3334960000002,385.51269500000035,-233.97436500000003,90.76904300000024,168.9741210000002,143.7177729999994,155.12841800000024,460.89746099999957,-123.71801800000003,161.0258789999998,306.2822270000006,97.56396500000028
50,341.6665039999998,27.17968800000017,108.46142599999985,365.3847659999992,-216.79492200000004,98.46142599999985,169.23095699999976,138.46142599999985,139.48730499999965,424.87158199999976,-135.76928699999962,151.15380900000036,294.10253900000043,96.0258789999998
51,331.53857400000015,33.0771479999994,107.94873000000007,346.6665039999998,-201.923096,104.74365200000011,170.89746099999957,134.61523400000078,123.84619099999964,388.3334960000002,-140.64111300000013,146.0258789999998,289.10253900000043,101.9228520000006
52,326.0258789999998,42.69238299999961,111.41015599999992,329.23095699999976,-187.3076170000004,107.30761700000039,172.05126999999993,133.58984400000008,113.46142599999985,358.0771479999994,-137.820557,146.9228520000006,293.3334960000002,106.41015599999992
53,325.2563479999999,54.23095699999976,117.69238299999961,311.9228520000006,-170.38452099999995,106.15380900000036,171.41015599999992,136.53857400000015,112.94873000000007,338.9741210000002,-127.94872999999961,153.84619099999964,305.12841800000024,105.51269500000035
54,325.12841800000024,64.74365200000011,124.61523400000078,292.6923829999996,-151.66674799999964,102.17968800000017,168.7177729999994,141.79492200000004,121.53857400000015,328.84619099999964,-113.46142599999985,162.6923829999996,317.05126999999993,105.76904300000024
55,320.51269500000035,71.0258789999998,128.84619099999964,269.6152340000008,-133.46142599999985,97.82031300000017,165.38476599999922,146.15380900000036,132.6923829999996,319.3588869999994,-97.69238299999961,168.20507799999996,320.89746099999957,110.0
56,310.12841800000024,73.3334960000002,129.10253900000043,243.46142599999985,-116.53857400000015,96.79492200000004,164.48730499999965,148.46142599999985,139.3588869999994,302.4360349999997,-81.02563499999997,167.6923829999996,315.76904300000024,112.05126999999993
57,295.89746099999957,73.3334960000002,126.53857400000015,216.0258789999998,-101.41015600000037,100.25634799999989,167.3076170000004,149.61523400000078,137.6923829999996,276.53857400000015,-60.64111300000013,162.56396500000028,308.46142599999985,107.82031300000017
58,280.3847659999992,71.6665039999998,123.84619099999964,188.58984400000008,-90.1281740000004,105.12841800000024,172.05126999999993,150.6411130000006,129.3588869999994,246.2822270000006,-33.846190999999635,156.0258789999998,307.17968800000017,103.9741210000002
59,265.12841800000024,68.7177729999994,122.05126999999993,161.9228520000006,-84.48706099999981,106.53857400000015,175.38476599999922,151.79492200000004,120.38476599999922,220.6411130000006,0.12841800000023795,150.12841800000024,316.15380900000036,107.17968800000017
60,252.17968800000017,66.0258789999998,120.64111300000059,137.05126999999993,-81.15380900000036,104.23095699999976,176.6665039999998,153.58984400000008,118.84619099999964,206.79492200000004,40.51269500000035,146.2822270000006,334.87158199999976,113.0771479999994
61,242.82031300000017,66.0258789999998,119.23095699999976,115.25634799999989,-74.35888699999987,101.6665039999998,177.56396500000028,156.15380900000036,126.41015599999992,203.7177729999994,83.0771479999994,145.2563479999999,357.82031300000017,113.46142599999985
62,236.0258789999998,68.46142599999985,118.58984400000008,97.30761700000039,-60.51293900000019,101.41015599999992,178.7177729999994,157.43603499999972,136.15380900000036,201.2822270000006,120.76904300000024,145.6411130000006,376.79492200000004,109.74365200000011
63,229.10253900000043,70.25634799999989,118.9741210000002,82.94873000000007,-40.51293900000019,102.94873000000007,179.3588869999994,155.2563479999999,138.20507799999996,188.84619099999964,148.7177729999994,145.12841800000024,386.53857400000015,108.46142599999985
64,221.6665039999998,70.51269500000035,120.38476599999922,71.9228520000006,-17.051270000000386,104.74365200000011,178.9741210000002,150.6411130000006,129.10253900000043,165.2563479999999,168.3334960000002,143.20507799999996,389.7436520000001,108.9741210000002
65,215.12841800000024,69.87158199999976,122.43603499999972,64.10253900000043,8.589844000000085,106.53857400000015,179.23095699999976,147.3076170000004,115.12841800000024,139.3588869999994,186.15380900000036,141.79492200000004,394.3588869999994,105.25634799999989
66,209.7436520000001,69.10253900000043,124.61523400000078,57.82031300000017,33.974121000000196,107.82031300000017,180.6411130000006,147.82031300000017,105.12841800000024,121.79492200000004,207.05126999999993,141.79492200000004,405.2563479999999,97.69238299999961
67,203.58984400000008,67.30761700000039,125.89746099999957,50.897460999999566,56.025878999999804,107.82031300000017,182.94873000000007,151.41015599999992,104.23095699999976,117.17968800000017,231.0258789999998,142.82031300000017,419.23095699999976,93.3334960000002
68,196.41015599999992,64.35888699999941,125.38476599999922,42.94873000000007,73.3334960000002,107.82031300000017,185.89746099999957,156.2822270000006,111.2822270000006,124.10253900000043,255.2563479999999,144.61523400000078,430.51269500000035,94.23095699999976
69,190.2563479999999,62.17968800000017,124.10253900000043,35.76904300000024,87.82031300000017,110.38476599999922,190.2563479999999,161.15380900000036,121.53857400000015,136.0258789999998,276.2822270000006,147.82031300000017,436.6665039999998,95.51269500000035
70,186.53857400000015,61.666503999999804,123.7177729999994,31.025878999999804,100.51269500000035,115.76904300000024,195.38476599999922,165.12841800000024,128.7177729999994,144.48730499999965,291.0258789999998,152.17968800000017,438.5898440000001,95.51269500000035
71,183.84619099999964,61.9228520000006,124.74365200000011,28.974121000000196,109.87158199999976,119.74365200000011,197.94873000000007,166.0258789999998,129.23095699999976,143.3334960000002,297.6923829999996,155.51269500000035,437.3076170000004,98.9741210000002
72,181.0258789999998,61.410155999999915,126.41015599999992,28.717772999999397,114.61523400000078,118.7177729999994,195.89746099999957,164.23095699999976,125.76904300000024,134.23095699999976,297.17968800000017,155.89746099999957,433.46142599999985,106.6665039999998
73,178.46142599999985,60.76904300000024,128.0771479999994,29.871581999999762,116.53857400000015,114.35888699999941,191.0258789999998,162.82031300000017,125.51269500000035,126.9228520000006,294.48730499999965,154.87158199999976,428.20507799999996,111.41015599999992
74,177.17968800000017,61.2822270000006,130.0,32.69238299999961,118.9741210000002,111.41015599999992,187.56396500000028,164.48730499999965,133.20507799999996,129.10253900000043,293.9741210000002,154.7436520000001,422.6923829999996,108.9741210000002
75,176.2822270000006,62.17968800000017,132.17968800000017,35.38476599999922,122.94873000000007,112.05126999999993,187.82031300000017,168.3334960000002,145.38476599999922,139.7436520000001,295.2563479999999,156.2822270000006,416.4101559999999,105.51269500000035
76,173.9741210000002,62.30761700000039,133.46142599999985,36.410155999999915,127.17968800000017,115.12841800000024,191.0258789999998,170.76904300000024,152.3076170000004,149.87158199999976,295.0,157.82031300000017,408.46142599999985,107.43603499999972
77,170.89746099999957,62.43603499999972,133.46142599999985,35.64111300000059,130.76904300000024,118.84619099999964,195.89746099999957,169.61523400000078,148.20507799999996,151.6665039999998,291.53857400000015,158.84619099999964,399.7436520000001,111.9228520000006
78,168.3334960000002,63.846190999999635,133.46142599999985,34.74365200000011,133.46142599999985,122.56396500000028,201.0258789999998,165.89746099999957,135.2563479999999,144.3588869999994,285.6411130000006,160.2563479999999,391.9228520000006,113.58984400000008
79,165.76904300000024,65.89746099999957,134.87158199999976,35.51269500000035,134.61523400000078,125.25634799999989,204.87158199999976,161.41015599999992,121.41015599999992,132.56396500000028,278.7177729999994,162.56396500000028,384.48730499999965,114.23095699999976
80,162.05126999999993,65.64111300000059,136.79492200000004,38.333496000000196,133.7177729999994,126.2822270000006,205.76904300000024,157.94873000000007,114.35888699999941,123.58984400000008,271.2822270000006,164.61523400000078,375.6411130000006,118.0771479999994
81,157.56396500000028,62.43603499999972,137.56396500000028,42.05126999999993,132.05126999999993,126.2822270000006,204.10253900000043,156.53857400000015,116.9228520000006,122.82031300000017,264.10253900000043,165.2563479999999,365.2563479999999,121.6665039999998
82,153.7177729999994,58.0771479999994,135.76904300000024,45.897460999999566,131.2822270000006,126.79492200000004,201.2822270000006,157.43603499999972,125.76904300000024,130.0,257.94873000000007,163.20507799999996,354.7436520000001,118.9741210000002
83,149.7436520000001,53.46142599999985,131.79492200000004,48.0771479999994,130.12841800000024,126.6665039999998,197.94873000000007,158.46142599999985,133.20507799999996,138.0771479999994,251.0258789999998,157.56396500000028,344.23095699999976,113.20507799999996
84,144.10253900000043,47.43603499999972,126.9228520000006,47.94873000000007,125.76904300000024,123.3334960000002,193.58984400000008,156.2822270000006,132.3076170000004,138.84619099999964,241.0258789999998,148.20507799999996,332.3076170000004,112.30761700000039
85,137.17968800000017,41.2822270000006,122.43603499999972,47.43603499999972,118.0771479999994,117.17968800000017,188.58984400000008,150.2563479999999,123.0771479999994,130.76904300000024,228.3334960000002,138.7177729999994,319.23095699999976,116.0258789999998
86,132.05126999999993,38.20507799999996,120.51269500000035,49.61523400000078,110.76904300000024,111.6665039999998,184.23095699999976,143.9741210000002,112.69238299999961,121.0258789999998,216.9228520000006,133.9741210000002,307.6923829999996,116.6665039999998
87,131.15380900000036,39.87158199999976,121.79492200000004,56.410155999999915,107.17968800000017,108.84619099999964,181.53857400000015,141.41015599999992,108.7177729999994,118.3334960000002,209.48730499999965,136.41015599999992,299.87158199999976,112.43603499999972
88,132.94873000000007,43.333496000000196,124.87158199999976,65.76904300000024,106.9228520000006,108.3334960000002,180.12841800000024,143.3334960000002,112.56396500000028,124.35888699999941,204.7436520000001,142.56396500000028,294.7436520000001,109.74365200000011
89,134.3588869999994,44.74365200000011,126.9228520000006,73.7177729999994,107.82031300000017,109.10253900000043,179.87158199999976,147.3076170000004,119.61523400000078,134.61523400000078,200.0,148.0771479999994,290.51269500000035,111.53857400000015
90,134.23095699999976,42.17968800000017,126.79492200000004,78.0771479999994,108.84619099999964,111.15380900000036,181.15380900000036,151.15380900000036,124.61523400000078,142.82031300000017,194.61523400000078,150.2563479999999,286.6665039999998,112.69238299999961
91,133.0771479999994,36.9228520000006,126.0258789999998,79.10253900000043,109.61523400000078,113.9741210000002,183.58984400000008,153.0771479999994,125.0,145.89746099999957,189.23095699999976,149.61523400000078,283.3334960000002,110.51269500000035
92,131.15380900000036,30.25634799999989,126.9228520000006,79.23095699999976,109.61523400000078,115.64111300000059,185.76904300000024,152.6923829999996,121.53857400000015,143.9741210000002,184.23095699999976,147.43603499999972,279.6152340000008,109.61523400000078
93,128.9741210000002,24.871581999999762,129.7436520000001,81.0258789999998,110.0,115.89746099999957,186.9228520000006,151.53857400000015,118.58984400000008,140.89746099999957,179.10253900000043,145.51269500000035,275.12841800000024,112.30761700000039
94,128.0771479999994,23.846190999999635,133.0771479999994,85.89746099999957,113.3334960000002,116.53857400000015,187.94873000000007,153.0771479999994,120.51269500000035,141.53857400000015,175.12841800000024,145.38476599999922,272.17968800000017,113.3334960000002
95,129.10253900000043,28.205077999999958,135.89746099999957,92.43603499999972,120.25634799999989,119.74365200000011,189.48730499999965,158.46142599999985,127.56396500000028,147.56396500000028,172.82031300000017,147.56396500000028,272.3076170000004,109.10253900000043
96,130.76904300000024,33.589844000000085,137.05126999999993,97.30761700000039,127.82031300000017,123.84619099999964,190.38476599999922,164.87158199999976,135.12841800000024,155.2563479999999,171.53857400000015,150.0,273.20507799999996,105.38476599999922
97,130.38476599999922,35.51269500000035,136.0258789999998,98.20507799999996,131.6665039999998,126.2822270000006,189.3588869999994,168.0771479999994,138.46142599999985,159.48730499999965,168.9741210000002,150.51269500000035,271.6665039999998,108.20507799999996
98,127.82031300000017,33.20507799999996,133.58984400000008,96.2822270000006,132.17968800000017,127.17968800000017,187.3076170000004,166.41015599999992,136.41015599999992,158.3334960000002,165.0,148.9741210000002,267.5639650000003,113.3334960000002
99,125.0,30.0,131.2822270000006,95.0,132.17968800000017,127.94873000000007,186.15380900000036,162.3076170000004,131.2822270000006,153.3334960000002,160.12841800000024,147.43603499999972,263.0771479999994,113.0771479999994
100,122.56396500000028,28.205077999999958,130.51269500000035,96.2822270000006,132.94873000000007,128.20507799999996,185.6411130000006,157.6923829999996,125.25634799999989,146.6665039999998,154.3588869999994,146.41015599999992,258.9741210000002,109.23095699999976
101,119.74365200000011,27.56396500000028,130.76904300000024,99.87158199999976,132.82031300000017,126.2822270000006,184.48730499999965,153.20507799999996,119.10253900000043,140.12841800000024,147.56396500000028,145.38476599999922,254.87158199999976,109.23095699999976
102,116.6665039999998,27.69238299999961,130.6411130000006,103.9741210000002,131.2822270000006,122.94873000000007,181.53857400000015,149.48730499999965,114.48730499999965,136.79492200000004,141.0258789999998,144.48730499999965,251.9228520000006,112.82031300000017
103,115.76904300000024,28.717772999999397,129.48730499999965,107.05126999999993,129.7436520000001,121.0258789999998,177.82031300000017,147.56396500000028,113.58984400000008,138.58984400000008,137.3076170000004,144.87158199999976,253.0771479999994,113.7177729999994
104,117.17968800000017,28.717772999999397,128.3334960000002,107.82031300000017,128.58984400000008,121.15380900000036,173.0771479999994,147.05126999999993,116.0258789999998,143.84619099999964,136.79492200000004,146.15380900000036,257.5639650000003,110.64111300000059
105,117.94873000000007,25.641113000000587,127.56396500000028,106.0258789999998,126.6665039999998,120.38476599999922,166.79492200000004,145.89746099999957,118.9741210000002,147.82031300000017,136.2822270000006,146.2822270000006,261.2822270000006,109.74365200000011
106,116.53857400000015,21.153809000000365,127.30761700000039,104.48730499999965,124.10253900000043,117.30761700000039,159.3588869999994,143.20507799999996,119.74365200000011,147.43603499999972,132.94873000000007,143.9741210000002,261.2822270000006,112.43603499999972
107,115.64111300000059,20.641113000000587,128.0771479999994,106.6665039999998,123.0771479999994,113.84619099999964,153.46142599999985,140.76904300000024,118.9741210000002,145.38476599999922,127.43603499999972,141.79492200000004,260.0,112.94873000000007
108,118.84619099999964,26.538574000000153,130.6411130000006,113.0771479999994,124.87158199999976,112.69238299999961,151.79492200000004,140.6411130000006,118.58984400000008,146.0258789999998,122.56396500000028,142.3076170000004,263.0771479999994,109.61523400000078
109,126.15380900000036,33.589844000000085,134.3588869999994,119.35888699999941,127.30761700000039,114.10253900000043,154.23095699999976,143.20507799999996,120.38476599999922,150.89746099999957,120.64111300000059,145.89746099999957,273.20507799999996,108.46142599999985
110,134.23095699999976,34.74365200000011,137.43603499999972,120.64111300000059,128.3334960000002,117.05126999999993,158.84619099999964,147.43603499999972,124.74365200000011,158.20507799999996,122.56396500000028,150.6411130000006,288.46142599999985,112.17968800000017
111,140.6411130000006,28.717772999999397,139.3588869999994,116.79492200000004,128.0771479999994,121.0258789999998,163.58984400000008,152.3076170000004,130.76904300000024,165.38476599999922,127.30761700000039,154.7436520000001,303.9741210000002,114.35888699999941
112,144.48730499999965,20.384765999999217,140.89746099999957,111.79492200000004,128.46142599999985,125.12841800000024,166.9228520000006,157.05126999999993,136.79492200000004,170.0,132.05126999999993,157.3076170000004,313.84619099999964,110.76904300000024
113,146.41015599999992,16.666503999999804,143.0771479999994,110.76904300000024,129.10253900000043,126.6665039999998,166.2822270000006,159.23095699999976,140.0,171.2822270000006,132.6923829999996,158.46142599999985,314.48730499999965,107.43603499999972
114,149.7436520000001,23.077147999999397,145.76904300000024,116.53857400000015,128.9741210000002,123.46142599999985,160.2563479999999,156.79492200000004,139.23095699999976,169.87158199999976,128.0771479999994,159.10253900000043,307.82031300000017,111.15380900000036
115,159.87158199999976,41.410155999999915,148.20507799999996,128.20507799999996,129.23095699999976,117.56396500000028,150.6411130000006,150.89746099999957,136.2822270000006,168.0771479999994,121.6665039999998,161.41015599999992,301.0258789999998,117.17968800000017
116,178.20507799999996,67.69238299999961,150.2563479999999,141.53857400000015,131.0258789999998,112.94873000000007,141.6665039999998,144.87158199999976,133.7177729999994,166.53857400000015,117.30761700000039,166.53857400000015,298.9741210000002,116.9228520000006
117,199.7436520000001,92.69238299999961,152.05126999999993,151.15380900000036,133.46142599999985,111.53857400000015,136.41015599999992,140.76904300000024,131.9228520000006,163.46142599999985,114.10253900000043,172.3076170000004,299.7436520000001,112.43603499999972
118,216.2822270000006,108.9741210000002,152.56396500000028,154.23095699999976,134.61523400000078,112.69238299999961,134.87158199999976,138.20507799999996,129.61523400000078,156.9228520000006,108.7177729999994,174.7436520000001,296.9228520000006,111.79492200000004
119,224.3588869999994,117.69238299999961,151.53857400000015,153.3334960000002,134.7436520000001,114.74365200000011,135.51269500000035,136.15380900000036,126.41015599999992,148.20507799999996,99.61523400000078,172.94873000000007,287.3076170000004,115.38476599999922
120,227.6923829999996,125.76904300000024,149.3588869999994,153.0771479999994,135.6411130000006,116.6665039999998,136.79492200000004,133.58984400000008,123.3334960000002,140.38476599999922,88.7177729999994,168.58984400000008,272.82031300000017,115.76904300000024
121,231.6665039999998,138.46142599999985,147.6923829999996,155.6411130000006,136.6665039999998,116.0258789999998,136.53857400000015,129.7436520000001,121.15380900000036,134.48730499999965,78.20507799999996,164.23095699999976,257.4360349999997,111.6665039999998
122,238.9741210000002,155.89746099999957,146.53857400000015,159.23095699999976,135.6411130000006,111.41015599999992,133.58984400000008,124.10253900000043,119.35888699999941,129.3588869999994,69.61523400000078,161.15380900000036,243.84619099999964,110.0
123,250.38476599999922,175.2563479999999,145.76904300000024,161.53857400000015,132.94873000000007,104.35888699999941,128.7177729999994,118.20507799999996,117.56396500000028,124.61523400000078,64.23095699999976,160.51269500000035,234.23095699999976,113.20507799999996
124,264.48730499999965,194.61523400000078,145.51269500000035,162.3076170000004,131.53857400000015,99.48730499999965,125.0,113.7177729999994,115.64111300000059,121.0258789999998,62.94873000000007,162.94873000000007,229.3588869999994,114.61523400000078
125,278.20507799999996,212.3076170000004,146.79492200000004,162.94873000000007,133.3334960000002,98.84619099999964,124.23095699999976,111.0258789999998,113.0771479999994,118.20507799999996,63.7177729999994,166.6665039999998,226.53857400000015,111.2822270000006
126,288.7177729999994,227.6923829999996,149.61523400000078,164.87158199999976,137.43603499999972,101.2822270000006,124.87158199999976,108.20507799999996,108.7177729999994,113.84619099999964,62.43603499999972,169.3588869999994,221.6665039999998,109.87158199999976
127,296.53857400000015,242.43603499999972,152.94873000000007,168.3334960000002,142.17968800000017,103.9741210000002,124.48730499999965,104.48730499999965,103.46142599999985,107.30761700000039,57.05126999999993,170.51269500000035,212.94873000000007,113.84619099999964
128,303.9741210000002,258.9741210000002,156.2822270000006,172.43603499999972,146.9228520000006,105.51269500000035,122.30761700000039,101.2822270000006,99.87158199999976,100.38476599999922,50.12841800000024,171.53857400000015,201.79492200000004,116.41015599999992
129,311.53857400000015,276.79492200000004,159.10253900000043,175.12841800000024,150.2563479999999,105.38476599999922,118.84619099999964,99.87158199999976,99.10253900000043,94.61523400000078,43.333496000000196,173.0771479999994,189.3588869999994,111.79492200000004
130,316.15380900000036,292.05126999999993,160.2563479999999,175.2563479999999,150.0,102.94873000000007,115.25634799999989,98.84619099999964,99.10253900000043,89.10253900000043,36.025878999999804,173.0771479999994,174.23095699999976,106.53857400000015
131,315.76904300000024,302.6923829999996,158.7177729999994,172.82031300000017,145.6411130000006,99.74365200000011,112.94873000000007,96.79492200000004,97.82031300000017,83.20507799999996,26.538574000000153,170.51269500000035,156.2822270000006,109.10253900000043
132,312.5639650000003,310.76904300000024,155.51269500000035,170.51269500000035,140.51269500000035,98.3334960000002,113.46142599999985,94.35888699999941,95.25634799999989,77.82031300000017,16.538574000000153,167.05126999999993,138.7177729999994,115.38476599999922
133,310.12841800000024,319.10253900000043,153.58984400000008,170.0,138.46142599999985,99.35888699999941,116.15380900000036,92.56396500000028,93.46142599999985,74.48730499999965,8.974121000000196,165.12841800000024,124.48730499999965,116.0258789999998
134,309.23095699999976,327.94873000000007,153.9741210000002,170.51269500000035,139.3588869999994,99.87158199999976,117.30761700000039,91.15380900000036,92.82031300000017,71.79492200000004,4.487304999999651,164.23095699999976,112.17968800000017,111.41015599999992
135,307.94873000000007,336.0258789999998,154.87158199999976,169.48730499999965,140.89746099999957,97.17968800000017,113.58984400000008,88.9741210000002,92.43603499999972,67.82031300000017,2.0512699999999313,162.82031300000017,98.58984400000008,110.12841800000024
136,305.0,342.4360349999997,153.9741210000002,166.15380900000036,141.41015599999992,92.43603499999972,106.2822270000006,85.89746099999957,91.41015599999992,62.82031300000017,0.769043000000238,160.12841800000024,83.0771479999994,112.94873000000007
137,300.12841800000024,346.9228520000006,151.2822270000006,161.2822270000006,141.53857400000015,89.61523400000078,100.51269500000035,83.20507799999996,90.0,58.589844000000085,-0.256347999999889,156.53857400000015,67.94873000000007,112.43603499999972
138,292.82031300000017,348.7177729999994,148.58984400000008,156.6665039999998,140.76904300000024,90.25634799999989,100.0,80.76904300000024,87.82031300000017,55.12841800000024,-3.077147999999397,152.05126999999993,53.974121000000196,107.56396500000028
139,283.0771479999994,347.6923829999996,147.56396500000028,153.84619099999964,138.20507799999996,93.0771479999994,104.23095699999976,78.20507799999996,84.74365200000011,51.153809000000365,-9.743652000000111,146.41015599999992,39.74365200000011,106.53857400000015
140,273.3334960000002,346.79492200000004,147.94873000000007,153.20507799999996,135.12841800000024,96.0258789999998,110.12841800000024,76.0258789999998,82.05126999999993,45.76904300000024,-19.358886999999868,141.0258789999998,24.871581999999762,111.15380900000036
141,266.4101559999999,349.3588869999994,148.58984400000008,154.23095699999976,133.9741210000002,97.69238299999961,113.84619099999964,75.25634799999989,81.2822270000006,39.102539000000434,-28.846190999999635,137.43603499999972,9.871581999999762,113.0771479999994
142,261.2822270000006,354.6152340000008,148.20507799999996,154.61523400000078,135.12841800000024,97.05126999999993,113.0771479999994,74.87158199999976,81.53857400000015,30.897460999999566,-36.53857400000015,134.61523400000078,-5.512939000000188,108.3334960000002
143,254.7436520000001,358.5898440000001,145.2563479999999,152.05126999999993,137.05126999999993,93.58984400000008,107.82031300000017,72.43603499999972,80.25634799999989,21.153809000000365,-42.69238299999961,130.51269500000035,-22.435790999999426,104.87158199999976
144,245.76904300000024,359.23095699999976,140.2563479999999,146.6665039999998,138.84619099999964,89.74365200000011,101.15380900000036,67.43603499999972,76.53857400000015,11.538574000000153,-47.17944299999999,124.61523400000078,-39.74365200000011,108.20507799999996
145,237.17968800000017,359.23095699999976,135.89746099999957,141.53857400000015,141.53857400000015,88.9741210000002,97.05126999999993,62.30761700000039,72.17968800000017,5.256347999999889,-49.10253899999998,119.23095699999976,-53.846190999999635,111.9228520000006
146,231.6665039999998,361.2822270000006,134.87158199999976,138.58984400000008,145.76904300000024,91.2822270000006,97.05126999999993,59.48730499999965,69.87158199999976,2.8203130000001693,-49.35888699999987,116.41015599999992,-62.82055700000001,109.23095699999976
147,228.20507799999996,364.87158199999976,136.9228520000006,137.43603499999972,149.48730499999965,93.58984400000008,99.10253900000043,59.23095699999976,70.12841800000024,2.1796880000001693,-50.0,115.64111300000059,-69.10253899999998,105.25634799999989
148,224.61523400000078,367.94873000000007,138.7177729999994,136.53857400000015,151.53857400000015,94.10253900000043,100.89746099999957,60.76904300000024,72.30761700000039,0.8974609999995664,-51.92309599999999,114.87158199999976,-75.38452099999995,107.56396500000028
149,219.48730499999965,369.48730499999965,137.82031300000017,135.0,152.94873000000007,94.48730499999965,102.56396500000028,63.333496000000196,75.12841800000024,-1.0258789999998044,-53.974365000000034,112.69238299999961,-83.20507799999996,111.9228520000006
150,212.05126999999993,369.10253900000043,134.61523400000078,132.17968800000017,154.3588869999994,96.41015599999992,104.61523400000078,65.64111300000059,76.6665039999998,-3.5898440000000846,-55.64111300000013,108.3334960000002,-92.94872999999961,110.25634799999989
151,201.2822270000006,366.15380900000036,131.15380900000036,127.43603499999972,153.46142599999985,98.46142599999985,105.51269500000035,65.64111300000059,74.61523400000078,-8.205077999999958,-57.82055700000001,101.9228520000006,-106.02563499999997,105.12841800000024
152,187.82031300000017,361.6665039999998,128.46142599999985,120.76904300000024,148.20507799999996,98.58984400000008,104.10253900000043,62.17968800000017,69.23095699999976,-14.8718259999996,-61.41015600000037,94.74365200000011,-121.66674799999964,105.51269500000035
153,175.38476599999922,359.10253900000043,126.6665039999998,113.84619099999964,140.0,96.79492200000004,100.89746099999957,57.43603499999972,63.589844000000085,-21.794922000000042,-64.74365200000011,89.35888699999941,-136.15380900000036,110.38476599999922
154,167.05126999999993,360.89746099999957,125.38476599999922,109.23095699999976,132.3076170000004,95.12841800000024,97.56396500000028,54.23095699999976,61.025878999999804,-26.794922000000042,-66.28198199999997,86.53857400000015,-146.79492200000004,110.76904300000024
155,162.05126999999993,365.51269500000035,124.23095699999976,107.56396500000028,127.43603499999972,94.35888699999941,95.12841800000024,52.43603499999972,61.153809000000365,-31.025634999999966,-67.69238299999961,84.48730499999965,-154.8718259999996,105.76904300000024
156,156.79492200000004,368.9741210000002,122.05126999999993,108.0771479999994,125.38476599999922,93.58984400000008,93.3334960000002,50.64111300000059,61.025878999999804,-35.76928699999962,-71.28198199999997,80.51269500000035,-164.10253899999998,104.35888699999941
157,150.12841800000024,369.6152340000008,118.84619099999964,109.61523400000078,126.2822270000006,93.0771479999994,91.9228520000006,48.0771479999994,59.48730499999965,-40.25634799999989,-76.41015600000037,74.87158199999976,-175.64111300000013,108.84619099999964
158,143.3334960000002,369.7436520000001,116.0258789999998,112.17968800000017,129.23095699999976,93.84619099999964,91.15380900000036,46.025878999999804,57.82031300000017,-42.30761700000039,-79.48706099999981,70.12841800000024,-186.66674799999964,111.53857400000015
159,137.43603499999972,370.3847659999992,115.25634799999989,115.12841800000024,132.43603499999972,94.74365200000011,90.51269500000035,45.25634799999989,58.0771479999994,-40.76928699999962,-79.10253899999998,68.0771479999994,-194.61547900000005,109.48730499999965
160,131.6665039999998,371.0258789999998,116.79492200000004,117.05126999999993,133.3334960000002,93.9741210000002,89.35888699999941,45.76904300000024,60.76904300000024,-37.051270000000386,-76.53857400000015,68.84619099999964,-199.61547900000005,109.35888699999941
161,125.64111300000059,371.2822270000006,119.10253900000043,117.43603499999972,132.17968800000017,91.53857400000015,88.7177729999994,47.05126999999993,65.0,-32.435790999999426,-74.48706099999981,71.15380900000036,-202.43579099999943,113.84619099999964
162,120.12841800000024,372.17968800000017,121.0258789999998,117.17968800000017,131.79492200000004,89.87158199999976,89.74365200000011,48.589844000000085,69.35888699999941,-28.076904000000013,-73.58984399999963,73.3334960000002,-204.7436520000001,115.38476599999922
163,114.61523400000078,373.20507799999996,121.15380900000036,116.9228520000006,133.58984400000008,90.38476599999922,91.9228520000006,49.23095699999976,71.41015599999992,-26.794922000000042,-74.61547900000005,72.56396500000028,-209.23071300000038,110.0
164,105.89746099999957,371.53857400000015,118.58984400000008,116.15380900000036,134.7436520000001,91.0258789999998,92.17968800000017,46.666503999999804,68.9741210000002,-31.41015600000037,-78.58984399999963,66.53857400000015,-219.8718259999996,105.64111300000059
165,92.94873000000007,365.12841800000024,112.56396500000028,114.35888699999941,133.20507799999996,89.87158199999976,88.7177729999994,40.897460999999566,62.82031300000017,-40.76928699999962,-85.51293900000019,56.79492200000004,-236.41015600000037,108.84619099999964
166,79.35888699999941,356.79492200000004,105.38476599999922,112.05126999999993,129.7436520000001,87.56396500000028,83.3334960000002,35.0,56.666503999999804,-49.48706099999981,-92.56420900000057,47.69238299999961,-252.9487299999996,113.3334960000002
167,69.23095699999976,351.0258789999998,100.51269500000035,111.15380900000036,127.43603499999972,86.41015599999992,79.48730499999965,32.30761700000039,54.102539000000434,-52.82055700000001,-97.30761700000039,42.43603499999972,-262.820557,110.76904300000024
168,63.0771479999994,348.9741210000002,99.74365200000011,111.0258789999998,126.9228520000006,86.79492200000004,78.7177729999994,32.82031300000017,55.12841800000024,-51.28198199999997,-100.1281740000004,40.64111300000059,-265.2563479999999,105.64111300000059
169,58.0771479999994,349.23095699999976,100.89746099999957,110.25634799999989,127.43603499999972,87.82031300000017,80.12841800000024,34.87158199999976,57.05126999999993,-48.71801800000003,-103.33325200000036,39.61523400000078,-264.7436520000001,106.0258789999998
170,52.82031300000017,350.12841800000024,101.0258789999998,108.46142599999985,128.7177729999994,89.35888699999941,82.43603499999972,37.17968800000017,58.46142599999985,-47.30761700000039,-106.66674799999964,37.82031300000017,-265.38452099999995,108.9741210000002
171,47.69238299999961,350.0,100.12841800000024,107.43603499999972,130.89746099999957,90.76904300000024,83.84619099999964,39.48730499999965,59.35888699999941,-47.435790999999426,-108.58984399999963,35.76904300000024,-267.9487299999996,106.9228520000006
172,42.69238299999961,347.05126999999993,99.48730499999965,108.58984400000008,132.94873000000007,90.38476599999922,82.05126999999993,41.2822270000006,60.12841800000024,-47.948729999999614,-108.20507799999996,34.102539000000434,-271.79492200000004,102.43603499999972
173,37.05126999999993,340.0,99.35888699999941,110.51269500000035,133.20507799999996,86.53857400000015,76.41015599999992,41.153809000000365,60.51269500000035,-48.46142599999985,-107.05127000000039,33.0771479999994,-276.28198199999997,103.84619099999964
174,31.666503999999804,331.9228520000006,98.58984400000008,111.41015599999992,131.9228520000006,80.51269500000035,69.61523400000078,39.23095699999976,60.64111300000059,-48.71801800000003,-106.53857400000015,32.82031300000017,-280.2563479999999,109.87158199999976
175,28.077147999999397,327.4360349999997,97.05126999999993,110.89746099999957,130.89746099999957,76.41015599999992,66.6665039999998,37.17968800000017,60.64111300000059,-48.846190999999635,-106.53857400000015,33.20507799999996,-282.0512700000004,111.41015599999992
176,25.51269500000035,327.4360349999997,96.0258789999998,109.87158199999976,130.76904300000024,76.9228520000006,69.87158199999976,36.9228520000006,60.897460999999566,-48.846190999999635,-106.53857400000015,33.333496000000196,-282.179443,107.69238299999961
177,20.51269500000035,328.0771479999994,95.89746099999957,109.10253900000043,130.38476599999922,81.0258789999998,76.79492200000004,38.46142599999985,61.2822270000006,-48.58984399999963,-105.89746100000002,32.30761700000039,-282.5642090000006,107.05126999999993
178,11.922852000000603,325.12841800000024,95.89746099999957,109.10253900000043,129.87158199999976,86.2822270000006,83.0771479999994,40.76904300000024,62.30761700000039,-46.28198199999997,-103.58984399999963,30.897460999999566,-283.58984399999963,111.0258789999998
179,2.8203130000001693,318.84619099999964,95.51269500000035,110.51269500000035,131.41015599999992,91.15380900000036,86.6665039999998,43.20507799999996,64.61523400000078,-41.025634999999966,-98.71801800000003,30.769043000000238,-282.9487299999996,111.2822270000006
180,-2.9487300000000687,311.79492200000004,95.76904300000024,113.0771479999994,135.51269500000035,94.23095699999976,87.69238299999961,44.61523400000078,67.05126999999993,-34.61547900000005,-92.69238299999961,32.17968800000017,-280.1281740000004,105.38476599999922
181,-4.871825999999601,305.89746099999957,96.41015599999992,115.12841800000024,140.12841800000024,94.74365200000011,87.30761700000039,43.589844000000085,67.30761700000039,-31.153809000000365,-88.46142599999985,33.20507799999996,-277.6923829999996,102.17968800000017
182,-6.281981999999971,300.89746099999957,95.51269500000035,114.35888699999941,143.46142599999985,93.58984400000008,86.9228520000006,40.0,64.23095699999976,-32.564209000000574,-87.43579099999943,31.922852000000603,-279.102539,106.15380900000036
183,-9.487060999999812,296.2822270000006,92.43603499999972,111.0258789999998,145.6411130000006,93.3334960000002,87.82031300000017,36.410155999999915,60.25634799999989,-36.92309599999999,-88.33325200000036,28.461425999999847,-283.58984399999963,110.25634799999989
184,-14.61547900000005,290.12841800000024,89.61523400000078,107.17968800000017,147.17968800000017,95.51269500000035,89.87158199999976,35.25634799999989,58.7177729999994,-40.25634799999989,-88.33325200000036,25.0,-287.179443,108.46142599999985
185,-20.1281740000004,280.6411130000006,89.48730499999965,104.35888699999941,147.3076170000004,97.82031300000017,91.41015599999992,36.666503999999804,60.897460999999566,-40.0,-86.41015600000037,23.461425999999847,-286.15380900000036,106.6665039999998
186,-23.333252000000357,267.82031300000017,91.15380900000036,101.9228520000006,144.61523400000078,97.43603499999972,91.41015599999992,39.23095699999976,65.25634799999989,-36.28198199999997,-83.33325200000036,24.230956999999762,-280.0,109.74365200000011
187,-21.666747999999643,254.61523400000078,92.43603499999972,99.10253900000043,140.38476599999922,94.74365200000011,90.51269500000035,41.2822270000006,69.87158199999976,-30.769286999999622,-79.35888699999987,26.410155999999915,-269.61547900000005,112.30761700000039
188,-15.641113000000132,244.10253900000043,92.30761700000039,95.51269500000035,136.6665039999998,92.05126999999993,90.12841800000024,42.05126999999993,72.82031300000017,-26.41015600000037,-75.1281740000004,29.102539000000434,-257.6923829999996,107.94873000000007
189,-8.974365000000034,236.6665039999998,91.41015599999992,91.53857400000015,134.23095699999976,90.89746099999957,90.0,40.64111300000059,72.94873000000007,-25.512939000000188,-70.89746100000002,31.666503999999804,-246.79492200000004,102.17968800000017
190,-5.897461000000021,230.51269500000035,90.25634799999989,87.82031300000017,132.17968800000017,90.64111300000059,88.84619099999964,38.333496000000196,70.76904300000024,-27.564209000000574,-66.53857400000015,33.46142599999985,-238.076904,103.20507799999996
191,-5.769286999999622,225.12841800000024,89.48730499999965,85.76904300000024,130.76904300000024,90.89746099999957,86.6665039999998,38.20507799999996,68.7177729999994,-28.58984399999963,-60.64111300000013,35.38476599999922,-229.7436520000001,107.69238299999961
192,-4.358886999999868,220.51269500000035,90.89746099999957,86.6665039999998,131.15380900000036,91.9228520000006,86.0258789999998,43.0771479999994,70.51269500000035,-24.487060999999812,-51.79492200000004,38.974121000000196,-218.46142599999985,107.30761700000039
193,1.153809000000365,216.15380900000036,95.51269500000035,90.12841800000024,132.6923829999996,92.82031300000017,88.46142599999985,51.9228520000006,76.9228520000006,-15.1281740000004,-41.025634999999966,44.74365200000011,-204.10253899999998,103.7177729999994
194,9.615234000000783,210.12841800000024,101.53857400000015,93.46142599999985,132.43603499999972,91.6665039999998,93.46142599999985,60.51269500000035,85.0,-4.743652000000111,-31.538574000000153,51.025878999999804,-189.35888699999987,105.12841800000024
195,17.30761700000039,201.9228520000006,105.89746099999957,93.9741210000002,129.48730499999965,88.7177729999994,98.7177729999994,65.0,91.41015599999992,3.3334960000001956,-24.74365200000011,55.76904300000024,-176.15380900000036,110.12841800000024
196,22.05126999999993,193.20507799999996,107.17968800000017,91.9228520000006,125.51269500000035,85.89746099999957,102.43603499999972,65.0,95.12841800000024,8.461425999999847,-20.25634799999989,58.7177729999994,-164.35888699999987,110.51269500000035
197,24.102539000000434,186.0258789999998,107.05126999999993,88.9741210000002,122.56396500000028,84.74365200000011,102.94873000000007,63.0771479999994,97.05126999999993,12.051269999999931,-16.41015600000037,61.153809000000365,-152.9487299999996,105.51269500000035
198,25.0,180.38476599999922,106.9228520000006,86.9228520000006,120.76904300000024,84.23095699999976,99.87158199999976,61.79492200000004,97.94873000000007,15.256347999999889,-11.923095999999987,64.23095699999976,-142.179443,103.58984400000008
199,27.05126999999993,176.0258789999998,107.30761700000039,86.53857400000015,119.35888699999941,83.58984400000008,95.12841800000024,62.82031300000017,98.58984400000008,18.461425999999847,-5.641113000000132,68.0771479999994,-132.3076170000004,106.15380900000036
200,32.17968800000017,173.0771479999994,108.46142599999985,88.0771479999994,118.7177729999994,83.9741210000002,92.82031300000017,66.41015599999992,99.87158199999976,21.666503999999804,2.8203130000001693,72.82031300000017,-122.56420900000057,106.0258789999998
201,38.846190999999635,169.87158199999976,110.51269500000035,90.64111300000059,118.7177729999994,87.17968800000017,95.64111300000059,70.64111300000059,101.9228520000006,23.717772999999397,11.794922000000042,77.30761700000039,-112.69238299999961,101.53857400000015
202,42.56396500000028,163.20507799999996,112.82031300000017,91.79492200000004,118.0771479999994,91.41015599999992,103.0771479999994,73.3334960000002,103.46142599999985,23.717772999999397,17.56396500000028,80.12841800000024,-104.61547900000005,100.89746099999957
203,40.64111300000059,151.9228520000006,113.20507799999996,90.12841800000024,115.76904300000024,94.35888699999941,112.05126999999993,74.10253900000043,103.20507799999996,21.922852000000603,17.94873000000007,80.38476599999922,-99.35888699999987,106.9228520000006
204,35.0,139.23095699999976,111.41015599999992,86.79492200000004,112.82031300000017,94.87158199999976,119.61523400000078,74.74365200000011,101.79492200000004,20.897460999999566,15.128418000000238,79.10253900000043,-95.1281740000004,111.0258789999998
205,31.153809000000365,129.48730499999965,109.48730499999965,84.35888699999941,110.89746099999957,94.23095699999976,123.9741210000002,77.05126999999993,101.0258789999998,22.82031300000017,14.230956999999762,79.10253900000043,-88.97436500000003,107.82031300000017
206,32.05126999999993,124.35888699999941,109.23095699999976,83.58984400000008,109.74365200000011,92.69238299999961,124.48730499999965,79.74365200000011,101.2822270000006,26.282227000000603,18.333496000000196,81.15380900000036,-80.0,104.35888699999941
207,35.897460999999566,121.2822270000006,109.61523400000078,82.69238299999961,107.69238299999961,90.38476599999922,122.17968800000017,80.89746099999957,101.6665039999998,28.974121000000196,26.153809000000365,84.23095699999976,-69.74365200000011,106.9228520000006
208,39.87158199999976,117.82031300000017,109.35888699999941,80.12841800000024,105.51269500000035,88.58984400000008,119.61523400000078,79.87158199999976,101.53857400000015,29.871581999999762,35.0,86.53857400000015,-59.74365200000011,110.38476599999922
209,41.2822270000006,112.94873000000007,108.84619099999964,77.05126999999993,105.64111300000059,89.23095699999976,119.23095699999976,78.3334960000002,102.05126999999993,30.25634799999989,41.9228520000006,87.94873000000007,-50.38452099999995,108.0771479999994
210,38.7177729999994,106.15380900000036,109.23095699999976,75.25634799999989,108.84619099999964,92.05126999999993,121.79492200000004,77.82031300000017,103.3334960000002,31.025878999999804,45.25634799999989,88.7177729999994,-42.30761700000039,105.38476599999922
211,32.56396500000028,97.05126999999993,110.25634799999989,74.87158199999976,112.82031300000017,94.35888699999941,125.38476599999922,77.94873000000007,104.48730499999965,31.666503999999804,45.12841800000024,88.9741210000002,-36.66674799999964,109.23095699999976
212,25.897460999999566,87.30761700000039,110.38476599999922,74.35888699999941,115.25634799999989,95.0,128.7177729999994,77.69238299999961,104.35888699999941,31.538574000000153,44.87158199999976,89.23095699999976,-33.07690400000001,114.87158199999976
213,23.077147999999397,79.61523400000078,109.35888699999941,73.20507799999996,115.89746099999957,95.25634799999989,131.0258789999998,77.43603499999972,103.20507799999996,31.538574000000153,48.20507799999996,90.38476599999922,-29.10253899999998,113.20507799999996
214,25.641113000000587,74.61523400000078,108.84619099999964,71.6665039999998,115.51269500000035,96.15380900000036,132.05126999999993,78.20507799999996,102.17968800000017,32.69238299999961,55.76904300000024,92.69238299999961,-24.10253899999998,106.79492200000004
215,30.384765999999217,71.0258789999998,109.10253900000043,69.87158199999976,114.87158199999976,96.6665039999998,131.15380900000036,80.25634799999989,101.2822270000006,35.0,64.10253900000043,95.12841800000024,-18.974365000000034,105.0
216,33.7177729999994,67.69238299999961,109.35888699999941,68.84619099999964,115.25634799999989,95.51269500000035,128.58984400000008,82.82031300000017,100.51269500000035,37.69238299999961,69.35888699999941,96.41015599999992,-14.358886999999868,108.0771479999994
217,33.974121000000196,65.64111300000059,109.23095699999976,69.74365200000011,118.3334960000002,93.7177729999994,125.89746099999957,84.48730499999965,100.25634799999989,39.87158199999976,71.41015599999992,96.53857400000015,-8.461425999999847,107.56396500000028
218,32.43603499999972,65.51269500000035,109.74365200000011,72.43603499999972,123.58984400000008,92.56396500000028,124.61523400000078,84.61523400000078,100.76904300000024,40.25634799999989,73.0771479999994,96.41015599999992,-0.8974609999995664,103.0771479999994
219,30.384765999999217,65.12841800000024,110.76904300000024,74.23095699999976,127.69238299999961,92.05126999999993,124.87158199999976,83.0771479999994,101.41015599999992,39.23095699999976,77.43603499999972,96.53857400000015,6.666503999999804,102.94873000000007
220,29.358886999999413,61.666503999999804,111.0258789999998,73.46142599999985,127.94873000000007,91.2822270000006,126.2822270000006,81.15380900000036,102.05126999999993,38.333496000000196,85.0,97.30761700000039,12.43603499999972,108.0771479999994
221,30.51269500000035,54.74365200000011,110.51269500000035,70.51269500000035,125.51269500000035,90.76904300000024,129.10253900000043,81.9228520000006,103.3334960000002,40.64111300000059,94.74365200000011,99.48730499999965,17.05126999999993,109.35888699999941
222,32.94873000000007,46.666503999999804,110.25634799999989,67.43603499999972,123.58984400000008,90.76904300000024,133.20507799999996,86.2822270000006,105.64111300000059,45.64111300000059,103.84619099999964,103.7177729999994,21.794922000000042,104.23095699999976
223,33.333496000000196,38.589844000000085,110.76904300000024,64.61523400000078,122.82031300000017,89.61523400000078,136.6665039999998,91.53857400000015,107.30761700000039,49.87158199999976,108.7177729999994,108.0771479999994,26.666503999999804,101.79492200000004
224,29.358886999999413,31.410155999999915,110.25634799999989,61.53857400000015,122.30761700000039,86.15380900000036,137.82031300000017,93.9741210000002,106.41015599999992,49.61523400000078,107.69238299999961,109.48730499999965,30.641113000000587,106.6665039999998
225,23.333496000000196,26.410155999999915,107.69238299999961,58.20507799999996,122.30761700000039,82.17968800000017,137.3076170000004,92.69238299999961,103.9741210000002,45.38476599999922,103.9741210000002,107.17968800000017,35.12841800000024,111.15380900000036
226,20.51269500000035,24.871581999999762,104.74365200000011,56.025878999999804,124.10253900000043,81.0258789999998,137.6923829999996,91.41015599999992,102.94873000000007,42.05126999999993,103.20507799999996,103.84619099999964,41.9228520000006,108.7177729999994
227,23.077147999999397,25.897460999999566,104.10253900000043,56.410155999999915,128.3334960000002,83.46142599999985,140.0,93.3334960000002,105.38476599999922,43.333496000000196,108.3334960000002,102.82031300000017,50.897460999999566,105.51269500000035
228,28.974121000000196,26.666503999999804,106.0258789999998,59.48730499999965,133.0771479999994,87.56396500000028,143.3334960000002,98.46142599999985,110.38476599999922,49.61523400000078,117.43603499999972,105.25634799999989,60.0,108.46142599999985
229,35.12841800000024,26.794922000000042,108.84619099999964,63.846190999999635,137.17968800000017,91.0258789999998,146.53857400000015,104.10253900000043,115.89746099999957,57.69238299999961,126.2822270000006,109.61523400000078,68.0771479999994,112.82031300000017
230,39.87158199999976,27.05126999999993,111.0258789999998,67.69238299999961,140.2563479999999,93.46142599999985,149.48730499999965,107.05126999999993,120.0,64.10253900000043,131.9228520000006,114.23095699999976,75.51269500000035,110.64111300000059
231,42.30761700000039,27.30761700000039,111.79492200000004,68.58984400000008,141.15380900000036,94.35888699999941,151.9228520000006,105.76904300000024,121.0258789999998,66.53857400000015,134.10253900000043,116.79492200000004,82.43603499999972,105.64111300000059
232,41.153809000000365,25.51269500000035,110.76904300000024,65.0,139.10253900000043,92.69238299999961,152.43603499999972,100.51269500000035,118.84619099999964,65.51269500000035,133.46142599999985,115.89746099999957,86.6665039999998,106.9228520000006
233,37.43603499999972,21.282227000000603,108.0771479999994,58.974121000000196,135.2563479999999,89.61523400000078,151.2822270000006,94.23095699999976,115.0,63.7177729999994,132.17968800000017,112.43603499999972,87.43603499999972,112.56396500000028
234,35.0,18.077147999999397,105.89746099999957,55.64111300000059,133.46142599999985,88.46142599999985,150.2563479999999,90.76904300000024,112.69238299999961,64.87158199999976,132.6923829999996,109.61523400000078,87.17968800000017,113.3334960000002
235,37.17968800000017,19.48730499999965,106.53857400000015,58.7177729999994,135.76904300000024,91.15380900000036,151.15380900000036,91.79492200000004,113.0771479999994,69.61523400000078,136.0258789999998,110.0,89.61523400000078,108.3334960000002
236,42.69238299999961,23.974121000000196,109.10253900000043,66.79492200000004,140.12841800000024,95.76904300000024,153.46142599999985,94.61523400000078,114.87158199999976,75.25634799999989,140.2563479999999,113.0771479999994,96.0258789999998,106.15380900000036
237,47.69238299999961,26.922852000000603,110.89746099999957,74.35888699999941,142.82031300000017,99.10253900000043,155.51269500000035,95.89746099999957,116.15380900000036,77.69238299999961,142.94873000000007,115.76904300000024,103.7177729999994,108.58984400000008
238,49.48730499999965,24.871581999999762,110.25634799999989,76.79492200000004,142.43603499999972,99.87158199999976,156.79492200000004,95.12841800000024,116.6665039999998,76.2822270000006,143.0771479999994,116.15380900000036,108.9741210000002,107.94873000000007
239,47.43603499999972,17.82031300000017,108.46142599999985,73.9741210000002,139.48730499999965,99.10253900000043,157.3076170000004,94.23095699999976,117.17968800000017,73.20507799999996,141.15380900000036,114.48730499999965,108.7177729999994,102.69238299999961
240,42.56396500000028,7.692382999999609,107.17968800000017,68.20507799999996,135.38476599999922,97.30761700000039,157.3076170000004,94.35888699999941,117.30761700000039,71.2822270000006,137.6923829999996,112.17968800000017,101.15380900000036,101.2822270000006
241,37.05126999999993,-1.4101559999999154,106.79492200000004,63.333496000000196,131.79492200000004,96.15380900000036,156.79492200000004,95.12841800000024,116.79492200000004,72.43603499999972,134.23095699999976,110.0,89.48730499999965,107.56396500000028
242,34.74365200000011,-4.743652000000111,107.43603499999972,62.30761700000039,131.53857400000015,97.69238299999961,156.9228520000006,96.53857400000015,116.2822270000006,76.53857400000015,133.20507799999996,109.87158199999976,81.53857400000015,113.0771479999994
243,37.56396500000028,0.0,108.84619099999964,66.0258789999998,136.0258789999998,103.20507799999996,158.84619099999964,98.3334960000002,116.79492200000004,81.53857400000015,136.2822270000006,112.17968800000017,83.58984400000008,110.76904300000024
244,42.30761700000039,8.589844000000085,110.12841800000024,71.9228520000006,142.6923829999996,109.35888699999941,161.2822270000006,99.74365200000011,118.0771479999994,85.0,140.76904300000024,115.64111300000059,94.48730499999965,106.53857400000015
245,42.30761700000039,13.205077999999958,109.35888699999941,76.0258789999998,147.05126999999993,111.6665039999998,161.9228520000006,99.10253900000043,118.7177729999994,85.38476599999922,142.17968800000017,116.79492200000004,105.25634799999989,107.30761700000039
246,34.48730499999965,9.102539000000434,105.76904300000024,75.51269500000035,146.6665039999998,108.58984400000008,159.7436520000001,97.05126999999993,118.20507799999996,84.48730499999965,138.84619099999964,113.9741210000002,107.56396500000028,109.35888699999941
247,21.410155999999915,-1.7949220000000423,100.51269500000035,71.53857400000015,142.6923829999996,103.0771479999994,156.41015599999992,96.15380900000036,117.94873000000007,84.87158199999976,133.20507799999996,108.0771479999994,99.48730499999965,106.41015599999992
248,8.717772999999397,-13.974365000000034,95.89746099999957,66.53857400000015,137.6923829999996,98.46142599999985,154.48730499999965,97.56396500000028,118.3334960000002,86.79492200000004,128.58984400000008,102.30761700000039,85.64111300000059,103.0771479999994
249,0.8974609999995664,-22.179442999999992,92.94873000000007,63.0771479999994,132.6923829999996,96.15380900000036,155.2563479999999,100.38476599999922,119.10253900000043,87.69238299999961,126.53857400000015,98.9741210000002,73.0771479999994,107.05126999999993
250,0.256347999999889,-24.10253899999998,92.05126999999993,63.0771479999994,129.61523400000078,96.53857400000015,158.84619099999964,102.56396500000028,119.61523400000078,86.0258789999998,127.05126999999993,99.48730499999965,67.82031300000017,114.61523400000078
251,6.153809000000365,-20.0,93.20507799999996,67.17968800000017,129.87158199999976,99.35888699999941,164.3588869999994,103.7177729999994,120.25634799999989,83.84619099999964,128.58984400000008,103.46142599999985,71.9228520000006,115.76904300000024
252,13.717772999999397,-13.846190999999635,95.89746099999957,73.3334960000002,132.82031300000017,103.20507799999996,168.58984400000008,103.7177729999994,120.38476599999922,83.0771479999994,128.7177729999994,107.05126999999993,81.0258789999998,110.64111300000059
253,16.794922000000042,-10.641113000000132,97.94873000000007,77.94873000000007,134.87158199999976,105.51269500000035,168.20507799999996,102.43603499999972,118.9741210000002,83.84619099999964,124.87158199999976,106.53857400000015,87.56396500000028,108.0771479999994
254,13.846190999999635,-11.538574000000153,97.05126999999993,79.10253900000043,133.9741210000002,105.51269500000035,163.3334960000002,101.0258789999998,116.9228520000006,85.64111300000059,118.84619099999964,101.53857400000015,86.9228520000006,110.38476599999922
255,8.589844000000085,-13.974365000000034,94.23095699999976,78.0771479999994,131.41015599999992,105.64111300000059,158.20507799999996,101.53857400000015,116.6665039999998,87.82031300000017,115.25634799999989,96.0258789999998,82.05126999999993,110.38476599999922
256,5.897460999999566,-15.0,92.05126999999993,77.17968800000017,129.61523400000078,107.05126999999993,157.17968800000017,104.87158199999976,120.0,90.51269500000035,117.94873000000007,94.61523400000078,77.82031300000017,106.15380900000036
257,6.922852000000603,-14.61547900000005,92.69238299999961,77.69238299999961,128.9741210000002,108.58984400000008,160.76904300000024,109.10253900000043,125.89746099999957,93.9741210000002,125.12841800000024,97.94873000000007,76.6665039999998,105.12841800000024
258,10.512695000000349,-13.205077999999958,95.38476599999922,80.12841800000024,128.84619099999964,108.3334960000002,166.15380900000036,111.53857400000015,131.41015599999992,98.7177729999994,132.3076170000004,103.46142599999985,77.94873000000007,109.74365200000011
259,15.769043000000238,-10.0,98.3334960000002,84.74365200000011,130.0,107.30761700000039,170.38476599999922,111.53857400000015,134.7436520000001,105.38476599999922,136.41015599999992,108.46142599999985,80.89746099999957,112.05126999999993
260,21.153809000000365,-5.256347999999889,100.38476599999922,90.64111300000059,132.17968800000017,107.30761700000039,171.6665039999998,109.74365200000011,135.12841800000024,112.17968800000017,136.15380900000036,111.53857400000015,84.35888699999941,107.69238299999961
261,23.333496000000196,-1.9228520000006029,101.15380900000036,95.38476599999922,133.46142599999985,108.0771479999994,169.3588869999994,106.79492200000004,132.82031300000017,115.0,131.53857400000015,112.05126999999993,85.12841800000024,104.10253900000043
262,20.769043000000238,-2.3076170000003913,100.38476599999922,97.17968800000017,132.3076170000004,108.0771479999994,163.7177729999994,103.3334960000002,128.7177729999994,111.53857400000015,124.35888699999941,109.87158199999976,81.2822270000006,107.69238299999961
263,16.538574000000153,-4.743652000000111,99.35888699999941,97.05126999999993,129.7436520000001,107.43603499999972,157.82031300000017,101.41015599999992,125.76904300000024,105.12841800000024,118.20507799999996,106.79492200000004,75.51269500000035,112.30761700000039
264,15.0,-5.897461000000021,99.74365200000011,97.43603499999972,128.0771479999994,106.9228520000006,155.0,102.69238299999961,126.41015599999992,101.79492200000004,115.51269500000035,105.12841800000024,72.30761700000039,110.51269500000035
265,16.410155999999915,-5.128174000000399,101.0258789999998,98.58984400000008,126.9228520000006,106.2822270000006,155.51269500000035,106.41015599999992,129.48730499999965,104.23095699999976,115.64111300000059,105.0,72.82031300000017,106.0258789999998
266,17.43603499999972,-4.61547900000005,100.89746099999957,99.61523400000078,124.74365200000011,104.74365200000011,156.2822270000006,109.48730499999965,131.9228520000006,108.7177729999994,115.12841800000024,104.10253900000043,73.46142599999985,106.9228520000006
267,16.410155999999915,-4.61547900000005,97.82031300000017,100.25634799999989,122.43603499999972,103.20507799999996,155.51269500000035,110.25634799999989,131.6665039999998,110.51269500000035,113.20507799999996,101.9228520000006,72.30761700000039,110.51269500000035
268,15.256347999999889,-2.8203119999998307,93.20507799999996,101.9228520000006,122.43603499999972,103.84619099999964,153.3334960000002,109.35888699999941,130.2563479999999,108.58984400000008,111.2822270000006,99.87158199999976,70.38476599999922,109.10253900000043
269,15.512695000000349,1.0258789999998044,89.87158199999976,104.48730499999965,124.87158199999976,106.2822270000006,150.89746099999957,107.82031300000017,129.10253900000043,105.38476599999922,111.15380900000036,99.74365200000011,69.74365200000011,104.35888699999941
270,16.410155999999915,4.743652000000111,89.48730499999965,106.41015599999992,127.17968800000017,107.56396500000028,148.46142599999985,106.41015599999992,128.58984400000008,104.10253900000043,112.05126999999993,100.64111300000059,69.74365200000011,105.0
271,16.410155999999915,6.282227000000603,91.2822270000006,106.41015599999992,127.43603499999972,106.53857400000015,146.6665039999998,105.38476599999922,128.46142599999985,106.15380900000036,112.17968800000017,100.89746099999957,68.7177729999994,110.12841800000024
272,16.410155999999915,6.666503999999804,93.58984400000008,105.0,126.15380900000036,105.0,146.41015599999992,105.51269500000035,129.23095699999976,110.64111300000059,111.15380900000036,100.12841800000024,66.79492200000004,110.76904300000024
273,16.922852000000603,6.666503999999804,94.87158199999976,103.7177729999994,124.61523400000078,105.38476599999922,147.6923829999996,107.05126999999993,130.12841800000024,114.61523400000078,109.61523400000078,99.61523400000078,64.10253900000043,105.38476599999922
274,16.666503999999804,5.897460999999566,93.58984400000008,103.0771479999994,122.69238299999961,107.17968800000017,148.46142599999985,108.3334960000002,129.87158199999976,115.0,108.20507799999996,99.23095699999976,60.51269500000035,102.82031300000017
275,14.871581999999762,4.487304999999651,89.74365200000011,103.20507799999996,120.38476599999922,108.58984400000008,146.9228520000006,107.82031300000017,127.82031300000017,111.41015599999992,106.53857400000015,97.82031300000017,56.2822270000006,106.79492200000004
276,12.43603499999972,4.102539000000434,84.87158199999976,104.35888699999941,118.84619099999964,109.35888699999941,143.0771479999994,106.2822270000006,125.25634799999989,106.0258789999998,104.74365200000011,95.0,53.0771479999994,110.25634799999989
277,10.512695000000349,5.128418000000238,81.15380900000036,106.41015599999992,118.58984400000008,109.35888699999941,138.46142599999985,104.61523400000078,124.23095699999976,101.79492200000004,101.53857400000015,91.2822270000006,51.2822270000006,108.46142599999985
278,7.820313000000169,5.512695000000349,79.10253900000043,107.56396500000028,118.0771479999994,107.82031300000017,134.10253900000043,103.20507799999996,124.23095699999976,98.7177729999994,95.12841800000024,86.9228520000006,48.46142599999985,107.82031300000017
279,3.717772999999397,2.9487300000000687,78.20507799999996,106.79492200000004,115.64111300000059,104.35888699999941,130.6411130000006,101.41015599999992,123.84619099999964,96.0258789999998,86.15380900000036,82.56396500000028,43.46142599999985,112.69238299999961
280,0.769043000000238,-0.6411130000005869,78.0771479999994,105.25634799999989,112.69238299999961,101.2822270000006,129.3588869999994,100.38476599999922,123.0771479999994,94.10253900000043,78.7177729999994,80.0,38.974121000000196,116.2822270000006
281,2.3076170000003913,-1.153809000000365,79.48730499999965,105.38476599999922,111.9228520000006,101.2822270000006,131.15380900000036,101.53857400000015,123.3334960000002,94.87158199999976,77.05126999999993,81.0258789999998,38.7177729999994,112.30761700000039
282,7.948730000000069,2.9487300000000687,82.69238299999961,108.0771479999994,113.84619099999964,103.58984400000008,135.0,103.84619099999964,124.48730499999965,98.20507799999996,80.38476599999922,85.38476599999922,42.56396500000028,106.6665039999998
283,13.846190999999635,8.846190999999635,85.89746099999957,111.79492200000004,116.53857400000015,105.0,137.17968800000017,104.35888699999941,124.74365200000011,101.2822270000006,84.23095699999976,91.15380900000036,46.025878999999804,107.05126999999993
284,16.410155999999915,13.077147999999397,87.56396500000028,115.25634799999989,118.7177729999994,103.7177729999994,135.12841800000024,101.2822270000006,122.82031300000017,101.0258789999998,85.51269500000035,95.89746099999957,45.64111300000059,110.38476599999922
285,14.871581999999762,13.589844000000085,87.69238299999961,116.9228520000006,121.41015599999992,100.64111300000059,128.84619099999964,96.0258789999998,119.10253900000043,96.9228520000006,84.23095699999976,97.82031300000017,41.79492200000004,109.10253900000043
286,10.256347999999889,10.897460999999566,87.43603499999972,116.15380900000036,124.48730499999965,97.69238299999961,120.51269500000035,91.0258789999998,115.12841800000024,91.2822270000006,82.30761700000039,96.53857400000015,36.53857400000015,105.38476599999922
287,5.641113000000587,7.56396500000028,86.9228520000006,112.69238299999961,126.0258789999998,95.51269500000035,113.20507799999996,88.0771479999994,112.56396500000028,87.94873000000007,80.76904300000024,93.58984400000008,33.20507799999996,106.9228520000006
288,5.0,7.948730000000069,86.53857400000015,109.23095699999976,125.51269500000035,95.38476599999922,109.61523400000078,88.20507799999996,112.94873000000007,90.25634799999989,80.89746099999957,91.6665039999998,34.48730499999965,112.17968800000017
289,11.025878999999804,14.615234000000783,86.79492200000004,108.84619099999964,124.87158199999976,98.3334960000002,111.15380900000036,91.0258789999998,116.6665039999998,97.94873000000007,83.3334960000002,92.94873000000007,40.0,112.30761700000039
290,19.871581999999762,24.102539000000434,88.0771479999994,112.05126999999993,126.15380900000036,103.20507799999996,115.64111300000059,95.12841800000024,121.41015599999992,105.76904300000024,85.76904300000024,96.15380900000036,44.48730499999965,107.17968800000017
291,23.846190999999635,28.974121000000196,89.35888699999941,115.0,128.20507799999996,105.51269500000035,118.7177729999994,96.6665039999998,122.94873000000007,106.9228520000006,83.7177729999994,97.05126999999993,40.51269500000035,105.38476599999922
292,18.205077999999958,25.128418000000238,88.9741210000002,114.61523400000078,128.84619099999964,102.82031300000017,116.9228520000006,93.84619099999964,118.9741210000002,98.7177729999994,75.12841800000024,92.94873000000007,26.666503999999804,108.84619099999964
293,6.538574000000153,15.897460999999566,86.9228520000006,111.0258789999998,127.94873000000007,97.05126999999993,110.76904300000024,87.94873000000007,111.53857400000015,85.38476599999922,63.974121000000196,85.0,11.282227000000603,110.25634799999989
294,-2.9487300000000687,7.948730000000069,84.87158199999976,107.43603499999972,126.0258789999998,91.79492200000004,103.46142599999985,82.43603499999972,105.25634799999989,74.87158199999976,56.79492200000004,77.94873000000007,5.512695000000349,106.6665039999998
295,-4.487060999999812,4.102539000000434,83.9741210000002,105.51269500000035,123.20507799999996,88.58984400000008,97.43603499999972,79.35888699999941,102.69238299999961,71.9228520000006,57.43603499999972,75.0,13.461425999999847,105.25634799999989
296,1.2822270000006029,2.8203130000001693,83.84619099999964,105.25634799999989,119.61523400000078,86.9228520000006,93.7177729999994,78.58984400000008,103.84619099999964,76.6665039999998,64.35888699999941,77.17968800000017,30.641113000000587,109.74365200000011
297,10.256347999999889,0.8974609999995664,83.46142599999985,105.38476599999922,117.17968800000017,86.6665039999998,92.43603499999972,79.87158199999976,106.79492200000004,85.0,73.46142599999985,82.94873000000007,48.589844000000085,112.94873000000007
298,16.538574000000153,-3.3334960000001956,82.43603499999972,104.87158199999976,117.30761700000039,87.17968800000017,92.30761700000039,82.17968800000017,110.38476599999922,92.43603499999972,79.87158199999976,88.58984400000008,59.87158199999976,109.48730499999965
299,16.025878999999804,-10.256347999999889,80.76904300000024,102.94873000000007,118.3334960000002,86.53857400000015,91.0258789999998,83.9741210000002,112.82031300000017,96.0258789999998,79.23095699999976,90.0,61.410155999999915,105.38476599999922
300,8.846190999999635,-17.435790999999426,78.3334960000002,100.51269500000035,118.0771479999994,83.46142599999985,87.05126999999993,84.10253900000043,113.46142599999985,95.12841800000024,71.15380900000036,85.76904300000024,55.38476599999922,107.82031300000017
301,0.769043000000238,-20.512939000000188,75.64111300000059,99.61523400000078,117.17968800000017,80.25634799999989,82.30761700000039,83.0771479999994,112.94873000000007,92.17968800000017,59.74365200000011,79.10253900000043,47.94873000000007,111.79492200000004
302,-2.1796869999998307,-16.794922000000042,74.61523400000078,101.9228520000006,118.46142599999985,79.61523400000078,80.0,82.82031300000017,112.69238299999961,90.0,51.153809000000365,75.0,44.23095699999976,110.25634799999989
303,0.8974609999995664,-8.974365000000034,76.41015599999992,106.0258789999998,122.43603499999972,81.53857400000015,80.89746099999957,83.9741210000002,112.82031300000017,90.0,48.589844000000085,76.0258789999998,44.35888699999941,106.41015599999992
304,5.769043000000238,-2.9487300000000687,79.61523400000078,108.3334960000002,126.53857400000015,83.7177729999994,82.43603499999972,85.76904300000024,112.56396500000028,91.79492200000004,50.64111300000059,80.0,45.0,107.94873000000007
305,8.589844000000085,-0.6411130000005869,81.79492200000004,107.43603499999972,128.84619099999964,85.38476599999922,82.43603499999972,87.30761700000039,112.43603499999972,95.51269500000035,54.74365200000011,83.46142599999985,45.0,112.30761700000039
306,10.0,0.6411130000005869,81.53857400000015,105.51269500000035,130.2563479999999,87.30761700000039,80.89746099999957,89.87158199999976,113.58984400000008,101.79492200000004,60.51269500000035,85.76904300000024,47.17968800000017,111.15380900000036
307,12.307617000000391,3.9741210000001956,79.87158199999976,104.87158199999976,132.05126999999993,89.87158199999976,78.9741210000002,93.9741210000002,116.53857400000015,110.25634799999989,67.82031300000017,88.0771479999994,53.846190999999635,105.38476599999922
308,15.256347999999889,8.333496000000196,78.3334960000002,105.76904300000024,133.7177729999994,91.6665039999998,77.17968800000017,98.0771479999994,119.87158199999976,118.3334960000002,75.0,90.89746099999957,62.94873000000007,103.84619099999964
309,16.922852000000603,11.282227000000603,77.56396500000028,106.6665039999998,134.23095699999976,92.05126999999993,75.76904300000024,100.38476599999922,122.43603499999972,123.46142599999985,79.10253900000043,93.20507799999996,69.10253900000043,107.30761700000039
310,16.410155999999915,11.538574000000153,78.20507799999996,106.53857400000015,133.58984400000008,92.56396500000028,75.51269500000035,100.38476599999922,123.84619099999964,124.48730499999965,78.58984400000008,93.84619099999964,69.10253900000043,107.82031300000017
311,14.615234000000783,9.871581999999762,79.74365200000011,105.51269500000035,132.3076170000004,94.10253900000043,76.53857400000015,99.10253900000043,124.23095699999976,122.69238299999961,73.84619099999964,92.56396500000028,64.23095699999976,103.46142599999985
312,12.692382999999609,6.794922000000042,80.38476599999922,103.84619099999964,129.7436520000001,95.25634799999989,77.05126999999993,97.56396500000028,123.46142599999985,120.0,68.20507799999996,89.74365200000011,58.0771479999994,101.9228520000006
313,12.43603499999972,4.487304999999651,79.48730499999965,102.30761700000039,126.53857400000015,94.87158199999976,76.0258789999998,96.79492200000004,122.05126999999993,119.61523400000078,66.53857400000015,86.9228520000006,55.51269500000035,106.15380900000036
314,15.641113000000587,5.897460999999566,78.46142599999985,102.43603499999972,125.38476599999922,94.10253900000043,73.9741210000002,97.94873000000007,122.17968800000017,123.7177729999994,72.56396500000028,87.30761700000039,60.12841800000024,108.7177729999994
315,21.538574000000153,11.410155999999915,79.87158199999976,104.48730499999965,127.94873000000007,94.35888699999941,72.05126999999993,100.38476599999922,124.61523400000078,131.15380900000036,84.23095699999976,92.05126999999993,70.12841800000024,105.51269500000035
316,26.282227000000603,16.794922000000042,83.7177729999994,106.15380900000036,131.79492200000004,94.87158199999976,70.38476599999922,101.53857400000015,126.41015599999992,136.15380900000036,93.84619099999964,98.3334960000002,77.69238299999961,103.46142599999985
317,25.897460999999566,17.56396500000028,86.53857400000015,105.12841800000024,133.3334960000002,94.74365200000011,68.7177729999994,98.84619099999964,123.9741210000002,133.20507799999996,93.9741210000002,101.0258789999998,76.2822270000006,107.94873000000007
318,20.25634799999989,13.461425999999847,85.25634799999989,101.79492200000004,131.15380900000036,94.74365200000011,67.82031300000017,94.10253900000043,117.94873000000007,123.20507799999996,84.74365200000011,97.94873000000007,66.53857400000015,112.05126999999993
319,13.205077999999958,8.461425999999847,80.76904300000024,98.9741210000002,127.69238299999961,96.6665039999998,69.10253900000043,91.41015599999992,113.20507799999996,113.20507799999996,73.46142599999985,91.41015599999992,56.2822270000006,108.84619099999964
320,8.589844000000085,5.641113000000587,76.53857400000015,98.20507799999996,125.12841800000024,99.23095699999976,71.41015599999992,93.3334960000002,113.84619099999964,110.76904300000024,67.17968800000017,86.0258789999998,52.17968800000017,103.7177729999994
321,7.56396500000028,6.282227000000603,74.87158199999976,98.9741210000002,124.87158199999976,99.74365200000011,72.05126999999993,98.46142599999985,119.87158199999976,116.9228520000006,67.82031300000017,83.84619099999964,54.87158199999976,105.0
322,8.846190999999635,9.487304999999651,75.51269500000035,99.48730499999965,127.05126999999993,97.94873000000007,69.74365200000011,102.69238299999961,125.64111300000059,124.48730499999965,72.05126999999993,83.7177729999994,59.102539000000434,109.61523400000078
323,9.230956999999762,13.589844000000085,76.15380900000036,98.3334960000002,131.15380900000036,96.2822270000006,66.53857400000015,103.0771479999994,124.10253900000043,123.0771479999994,74.10253900000043,82.56396500000028,57.94873000000007,109.23095699999976
324,6.282227000000603,15.512695000000349,74.74365200000011,94.74365200000011,134.3588869999994,96.6665039999998,64.61523400000078,99.48730499999965,112.05126999999993,107.94873000000007,70.76904300000024,78.7177729999994,48.7177729999994,105.25634799999989
325,-0.12841800000023795,13.974121000000196,71.0258789999998,89.61523400000078,133.3334960000002,97.82031300000017,64.23095699999976,95.0,96.2822270000006,87.56396500000028,64.61523400000078,73.3334960000002,36.410155999999915,105.76904300000024
326,-5.38452099999995,10.769043000000238,67.56396500000028,85.12841800000024,128.46142599999985,98.46142599999985,64.23095699999976,94.87158199999976,91.15380900000036,80.12841800000024,63.20507799999996,70.64111300000059,32.05126999999993,109.74365200000011
327,-4.358886999999868,9.871581999999762,67.30761700000039,83.58984400000008,123.7177729999994,98.9741210000002,63.46142599999985,101.41015599999992,106.0258789999998,98.0771479999994,71.15380900000036,73.46142599999985,41.53857400000015,108.9741210000002
328,2.3076170000003913,12.692382999999609,70.38476599999922,85.38476599999922,122.30761700000039,99.74365200000011,61.410155999999915,111.15380900000036,134.48730499999965,133.20507799999996,84.23095699999976,79.61523400000078,58.333496000000196,103.3334960000002
329,8.974121000000196,17.05126999999993,74.74365200000011,87.56396500000028,124.48730499999965,99.74365200000011,57.30761700000039,116.41015599999992,156.9228520000006,162.43603499999972,91.15380900000036,84.23095699999976,68.3334960000002,101.41015599999992
330,11.538574000000153,21.282227000000603,78.0771479999994,87.82031300000017,128.3334960000002,97.69238299999961,51.9228520000006,113.58984400000008,159.3588869999994,168.46142599999985,87.05126999999993,84.87158199999976,64.10253900000043,105.64111300000059
331,12.051269999999931,26.538574000000153,81.41015599999992,86.41015599999992,132.3076170000004,95.12841800000024,47.56396500000028,106.9228520000006,146.15380900000036,155.38476599999922,78.58984400000008,85.0,53.20507799999996,108.0771479999994
332,13.846190999999635,33.7177729999994,85.64111300000059,83.9741210000002,134.10253900000043,94.35888699999941,46.410155999999915,103.7177729999994,133.0771479999994,140.2563479999999,77.30761700000039,88.9741210000002,48.46142599999985,105.51269500000035
333,16.922852000000603,40.897460999999566,89.61523400000078,80.38476599999922,130.38476599999922,95.89746099999957,48.333496000000196,105.76904300000024,130.2563479999999,133.9741210000002,86.79492200000004,96.0258789999998,53.974121000000196,104.61523400000078
334,18.077147999999397,45.0,90.12841800000024,74.35888699999941,121.15380900000036,98.7177729999994,51.410155999999915,108.3334960000002,132.6923829999996,132.05126999999993,100.38476599999922,100.38476599999922,61.79492200000004,109.48730499999965
335,15.384765999999217,45.76904300000024,85.12841800000024,64.87158199999976,110.89746099999957,102.30761700000039,53.7177729999994,105.25634799999989,126.79492200000004,120.76904300000024,107.43603499999972,97.17968800000017,61.153809000000365,112.94873000000007
336,9.487304999999651,46.2822270000006,76.41015599999992,51.2822270000006,104.35888699999941,106.9228520000006,55.51269500000035,94.74365200000011,103.3334960000002,91.2822270000006,104.74365200000011,86.6665039999998,46.9228520000006,108.9741210000002
337,2.5639650000002803,49.102539000000434,67.82031300000017,33.589844000000085,101.2822270000006,111.0258789999998,58.333496000000196,80.76904300000024,66.15380900000036,48.0771479999994,100.89746099999957,73.7177729999994,23.589844000000085,103.46142599999985
338,-2.3076170000003913,55.38476599999922,63.7177729999994,13.717772999999397,98.84619099999964,113.0771479999994,63.333496000000196,70.64111300000059,32.17968800000017,10.0,113.58984400000008,65.64111300000059,4.487304999999651,104.10253900000043
339,0.256347999999889,65.76904300000024,66.79492200000004,-4.230713000000378,96.0258789999998,112.94873000000007,70.51269500000035,72.05126999999993,22.56396500000028,2.4360349999997197,160.2563479999999,68.58984400000008,6.282227000000603,107.05126999999993
340,13.077147999999397,79.35888699999941,76.79492200000004,-17.179442999999992,94.48730499999965,112.05126999999993,76.9228520000006,87.56396500000028,47.94873000000007,38.7177729999994,244.23095699999976,83.9741210000002,37.82031300000017,104.48730499999965
341,31.922852000000603,92.69238299999961,89.23095699999976,-26.794922000000042,95.0,110.38476599999922,78.3334960000002,111.2822270000006,98.9741210000002,106.53857400000015,348.3334960000002,105.64111300000059,90.89746099999957,97.94873000000007
342,46.410155999999915,100.64111300000059,97.43603499999972,-37.948729999999614,97.05126999999993,107.56396500000028,72.82031300000017,132.3076170000004,148.46142599999985,168.84619099999964,442.6923829999996,122.43603499999972,142.43603499999972,93.20507799999996
343,49.87158199999976,102.94873000000007,97.17968800000017,-52.948729999999614,101.0258789999998,105.0,65.12841800000024,142.43603499999972,168.84619099999964,186.6665039999998,505.12841800000024,126.2822270000006,170.2563479999999,87.05126999999993
344,44.102539000000434,105.25634799999989,89.87158199999976,-69.23071300000038,108.7177729999994,105.76904300000024,63.589844000000085,141.9228520000006,149.61523400000078,147.56396500000028,535.0,117.56396500000028,168.46142599999985,72.30761700000039
345,37.05126999999993,114.10253900000043,81.0258789999998,-82.30761700000039,119.87158199999976,109.74365200000011,73.0771479999994,137.05126999999993,104.87158199999976,75.76904300000024,551.794922,104.23095699999976,150.76904300000024,52.43603499999972
346,36.666503999999804,131.41015599999992,75.89746099999957,-89.35888699999987,132.3076170000004,113.46142599999985,90.51269500000035,135.12841800000024,62.43603499999972,15.256347999999889,578.0771479999994,95.89746099999957,139.7436520000001,39.61523400000078
347,45.25634799999989,154.48730499999965,76.79492200000004,-91.02563499999997,145.2563479999999,114.10253900000043,107.05126999999993,139.7436520000001,45.0,-0.512695000000349,623.0771479999994,98.0771479999994,151.2822270000006,37.17968800000017
348,59.61523400000078,177.94873000000007,81.79492200000004,-90.38452099999995,160.2563479999999,112.43603499999972,115.38476599999922,149.3588869999994,55.38476599999922,28.974121000000196,677.9487300000001,108.7177729999994,184.87158199999976,37.17968800000017
349,71.53857400000015,196.15380900000036,87.30761700000039,-91.53857400000015,177.94873000000007,110.25634799999989,113.46142599999985,157.3076170000004,76.79492200000004,73.0771479999994,723.3334960000002,120.12841800000024,224.10253900000043,35.76904300000024
350,74.74365200000011,206.6665039999998,89.10253900000043,-96.79492200000004,195.38476599999922,107.94873000000007,104.48730499999965,156.53857400000015,85.0,92.56396500000028,743.7177729999994,123.46142599999985,248.3334960000002,38.20507799999996
351,69.61523400000078,212.94873000000007,85.89746099999957,-103.84619099999964,208.46142599999985,105.38476599999922,95.89746099999957,145.0,67.30761700000039,67.05126999999993,737.9487300000001,115.76904300000024,247.6923829999996,46.410155999999915
352,64.10253900000043,222.82031300000017,79.48730499999965,-107.43579099999943,215.6411130000006,104.23095699999976,95.64111300000059,129.3588869999994,30.641113000000587,8.333496000000196,718.205078,101.6665039999998,229.23095699999976,53.0771479999994
353,65.12841800000024,240.38476599999922,73.84619099999964,-104.61547900000005,218.20507799999996,105.25634799999989,106.2822270000006,119.48730499999965,-2.9487300000000687,-48.07690400000001,700.6411130000006,90.76904300000024,209.61523400000078,53.46142599999985
354,74.10253900000043,261.9228520000006,72.56396500000028,-97.05127000000039,217.94873000000007,106.41015599999992,121.9228520000006,120.89746099999957,-12.948729999999614,-68.20507799999996,696.4101559999999,90.0,203.3334960000002,54.23095699999976
355,86.9228520000006,279.87158199999976,76.15380900000036,-88.84619099999964,216.0258789999998,105.51269500000035,133.20507799999996,131.53857400000015,6.794922000000042,-42.82055700000001,706.9228520000006,100.0,214.23095699999976,61.666503999999804
356,98.46142599999985,288.3334960000002,81.9228520000006,-82.94872999999961,213.58984400000008,103.9741210000002,135.89746099999957,144.10253900000043,43.46142599999985,8.205077999999958,726.0258789999998,114.87158199999976,234.3588869999994,70.89746099999957
357,105.51269500000035,286.0258789999998,85.76904300000024,-80.64111300000013,209.61523400000078,104.87158199999976,133.20507799999996,151.53857400000015,75.12841800000024,51.79492200000004,741.2822270000006,127.05126999999993,250.38476599999922,75.51269500000035
358,108.20507799999996,274.23095699999976,86.0258789999998,-80.76928699999962,200.12841800000024,108.0771479999994,130.38476599999922,149.7436520000001,86.53857400000015,66.2822270000006,739.4873049999997,131.79492200000004,252.6923829999996,79.61523400000078
359,110.64111300000059,257.82031300000017,84.48730499999965,-80.0,183.0771479999994,110.25634799999989,129.3588869999994,140.89746099999957,80.38476599999922,55.12841800000024,712.9487300000001,131.15380900000036,244.7436520000001,90.89746099999957
360,119.23095699999976,244.7436520000001,84.74365200000011,-73.71801800000003,161.79492200000004,108.46142599999985,130.0,132.17968800000017,72.82031300000017,38.846190999999635,664.3588869999994,132.6923829999996,240.76904300000024,107.05126999999993
361,137.43603499999972,240.38476599999922,89.35888699999941,-60.0,143.20507799999996,103.0771479999994,131.53857400000015,129.61523400000078,77.82031300000017,35.64111300000059,602.9487300000001,142.6923829999996,253.9741210000002,119.74365200000011
362,160.12841800000024,242.05126999999993,96.9228520000006,-42.17944299999999,130.89746099999957,95.12841800000024,133.20507799999996,133.20507799999996,94.10253900000043,46.666503999999804,537.8203130000002,158.84619099999964,283.84619099999964,127.94873000000007
363,178.0771479999994,241.41015599999992,104.35888699999941,-26.538574000000153,122.82031300000017,85.25634799999989,133.58984400000008,137.17968800000017,110.12841800000024,59.74365200000011,475.89746099999957,172.94873000000007,317.82031300000017,136.15380900000036
364,186.0258789999998,232.82031300000017,108.46142599999985,-16.538574000000153,115.89746099999957,76.15380900000036,132.6923829999996,136.6665039999998,117.43603499999972,63.589844000000085,421.79492200000004,178.0771479999994,341.53857400000015,143.20507799999996
365,185.76904300000024,216.2822270000006,107.94873000000007,-11.153809000000365,109.74365200000011,72.17968800000017,132.3076170000004,131.79492200000004,116.79492200000004,57.69238299999961,377.94873000000007,173.9741210000002,347.3076170000004,143.7177729999994
366,180.76904300000024,195.0,102.56396500000028,-7.692382999999609,106.0258789999998,76.41015599999992,134.7436520000001,124.87158199999976,113.46142599999985,47.05126999999993,342.3076170000004,164.87158199999976,333.84619099999964,140.6411130000006
367,173.20507799999996,172.05126999999993,94.35888699999941,-3.717772999999397,105.76904300000024,86.9228520000006,139.87158199999976,117.82031300000017,109.61523400000078,36.666503999999804,309.3588869999994,155.12841800000024,305.6411130000006,142.43603499999972
368,167.05126999999993,152.94873000000007,87.82031300000017,3.077147999999397,109.23095699999976,98.3334960000002,146.15380900000036,112.43603499999972,106.15380900000036,31.282227000000603,277.5639650000003,148.9741210000002,275.12841800000024,150.0
369,168.58984400000008,143.3334960000002,87.69238299999961,15.0,117.05126999999993,106.2822270000006,152.94873000000007,112.05126999999993,105.51269500000035,36.410155999999915,250.2563479999999,150.6411130000006,257.94873000000007,156.0258789999998
370,181.53857400000015,144.7436520000001,95.0,31.025878999999804,127.43603499999972,107.69238299999961,159.48730499999965,118.46142599999985,110.51269500000035,55.25634799999989,229.87158199999976,161.15380900000036,260.76904300000024,158.0771479999994
371,201.2822270000006,150.12841800000024,105.51269500000035,47.56396500000028,135.6411130000006,102.43603499999972,164.61523400000078,129.23095699999976,120.12841800000024,82.43603499999972,213.0771479999994,175.2563479999999,275.89746099999957,161.41015599999992
372,218.46142599999985,150.0,113.20507799999996,62.43603499999972,136.79492200000004,93.0771479999994,167.3076170000004,138.58984400000008,130.38476599999922,109.10253900000043,193.84619099999964,184.87158199999976,289.3588869999994,167.43603499999972
373,227.56396500000028,141.15380900000036,115.38476599999922,76.79492200000004,130.12841800000024,85.89746099999957,168.84619099999964,143.58984400000008,141.0258789999998,132.43603499999972,171.53857400000015,187.3076170000004,295.12841800000024,170.2563479999999
374,229.61523400000078,127.82031300000017,113.9741210000002,93.0771479999994,116.15380900000036,85.38476599999922,171.79492200000004,146.41015599999992,154.48730499999965,155.76904300000024,150.6411130000006,186.6665039999998,296.6665039999998,168.3334960000002
375,227.82031300000017,114.61523400000078,112.82031300000017,111.0258789999998,95.25634799999989,90.64111300000059,176.79492200000004,148.9741210000002,169.10253900000043,178.9741210000002,133.58984400000008,186.9228520000006,296.2822270000006,168.9741210000002
376,223.46142599999985,102.43603499999972,113.7177729999994,128.3334960000002,69.10253900000043,97.69238299999961,182.94873000000007,149.7436520000001,175.76904300000024,191.2822270000006,115.89746099999957,187.43603499999972,289.7436520000001,175.51269500000035
377,218.84619099999964,90.38476599999922,115.12841800000024,144.3588869999994,44.74365200000011,103.9741210000002,188.84619099999964,145.76904300000024,166.41015599999992,182.56396500000028,92.94873000000007,186.0258789999998,273.20507799999996,181.9228520000006
378,217.94873000000007,80.0,115.38476599999922,161.0258789999998,30.128418000000238,109.61523400000078,193.46142599999985,138.3334960000002,144.48730499999965,158.20507799999996,67.30761700000039,184.3588869999994,251.53857400000015,184.87158199999976
379,222.82031300000017,73.46142599999985,114.23095699999976,179.87158199999976,25.0,113.58984400000008,195.89746099999957,132.6923829999996,124.61523400000078,138.3334960000002,46.153809000000365,185.38476599999922,235.12841800000024,189.10253900000043
380,230.0,70.25634799999989,112.82031300000017,200.38476599999922,18.589844000000085,113.7177729999994,195.51269500000035,132.56396500000028,120.38476599999922,140.12841800000024,33.589844000000085,188.3334960000002,230.89746099999957,195.6411130000006
381,234.23095699999976,68.7177729999994,112.82031300000017,220.76904300000024,-0.12841800000023795,110.0,193.9741210000002,137.56396500000028,133.9741210000002,163.46142599999985,27.82031300000017,190.0,237.05126999999993,192.82031300000017
382,234.23095699999976,68.46142599999985,114.35888699999941,238.7177729999994,-32.82055700000001,105.0,193.0771479999994,144.3588869999994,155.2563479999999,193.58984400000008,23.205077999999958,188.84619099999964,247.05126999999993,171.53857400000015
383,231.6665039999998,68.9741210000002,116.2822270000006,252.43603499999972,-71.41015600000037,101.0258789999998,192.43603499999972,148.0771479999994,169.3588869999994,213.9741210000002,15.128418000000238,186.15380900000036,252.94873000000007,140.89746099999957
