,EEG.AF3,EEG.F7,EEG.F3,EEG.FC5,EEG.T7,EEG.P7,EEG.O1,EEG.O2,EEG.P8,EEG.T8,EEG.FC6,EEG.F4,EEG.F8,EEG.AF4
0,134.87158199999976,52.43603499999972,140.0,133.58984400000008,132.82031300000017,109.35888699999941,164.3588869999994,141.6665039999998,135.76904300000024,175.6411130000006,158.20507799999996,158.7177729999994,254.23095699999976,114.10253900000043
1,137.05126999999993,52.69238299999961,137.94873000000007,134.48730499999965,132.17968800000017,113.58984400000008,165.12841800000024,140.51269500000035,135.0,169.61523400000078,154.3588869999994,156.79492200000004,254.10253900000043,110.76904300000024
2,140.0,54.48730499999965,136.0258789999998,135.6411130000006,131.41015599999992,116.2822270000006,165.76904300000024,140.2563479999999,132.3076170000004,163.46142599999985,148.46142599999985,153.7177729999994,256.4101559999999,110.12841800000024
3,145.2563479999999,54.35888699999941,135.38476599999922,136.15380900000036,130.76904300000024,115.51269500000035,164.23095699999976,140.51269500000035,129.7436520000001,162.17968800000017,144.87158199999976,153.0771479999994,265.51269500000035,113.3334960000002
4,153.20507799999996,50.64111300000059,136.6665039999998,135.76904300000024,131.53857400000015,112.69238299999961,161.79492200000004,141.79492200000004,129.7436520000001,167.6923829999996,146.9228520000006,157.6923829999996,281.9228520000006,113.58984400000008
5,162.17968800000017,44.61523400000078,140.2563479999999,134.48730499999965,133.20507799999996,110.51269500000035,159.61523400000078,143.20507799999996,132.05126999999993,176.41015599999992,153.0771479999994,165.89746099999957,299.23095699999976,108.58984400000008
6,168.9741210000002,39.87158199999976,144.48730499999965,132.82031300000017,133.0771479999994,109.74365200000011,157.17968800000017,142.3076170000004,133.20507799999996,180.76904300000024,157.05126999999993,172.17968800000017,308.9741210000002,105.64111300000059
7,173.9741210000002,42.56396500000028,147.3076170000004,132.3076170000004,131.0258789999998,109.87158199999976,153.0771479999994,137.6923829999996,131.15380900000036,176.79492200000004,154.48730499999965,173.46142599999985,307.6923829999996,109.48730499999965
8,181.79492200000004,57.82031300000017,148.46142599999985,135.51269500000035,130.38476599999922,110.64111300000059,147.17968800000017,131.2822270000006,127.43603499999972,167.6923829999996,147.17968800000017,171.6665039999998,300.89746099999957,113.84619099999964
9,196.53857400000015,84.61523400000078,149.7436520000001,143.20507799999996,133.9741210000002,111.79492200000004,140.12841800000024,126.2822270000006,125.64111300000059,160.6411130000006,140.6411130000006,171.79492200000004,297.3076170000004,112.69238299999961
10,216.41015599999992,114.48730499999965,152.94873000000007,152.6923829999996,139.61523400000078,111.79492200000004,132.94873000000007,124.35888699999941,126.9228520000006,159.10253900000043,137.82031300000017,175.89746099999957,300.0,110.25634799999989
11,236.15380900000036,137.94873000000007,156.79492200000004,160.2563479999999,143.58984400000008,110.25634799999989,127.56396500000028,124.48730499999965,129.3588869999994,161.41015599999992,137.43603499999972,181.9228520000006,305.51269500000035,112.94873000000007
12,251.9228520000006,152.05126999999993,159.48730499999965,163.84619099999964,144.48730499999965,108.58984400000008,125.25634799999989,125.64111300000059,130.76904300000024,163.20507799999996,136.53857400000015,186.9228520000006,307.6923829999996,116.9228520000006
13,263.3334960000002,161.41015599999992,160.38476599999922,164.87158199999976,144.3588869999994,108.20507799999996,125.51269500000035,126.0258789999998,129.87158199999976,160.12841800000024,132.94873000000007,188.46142599999985,302.82031300000017,114.74365200000011
14,271.4101559999999,172.17968800000017,160.6411130000006,165.12841800000024,144.3588869999994,108.0771479999994,125.64111300000059,123.46142599999985,126.15380900000036,150.38476599999922,125.64111300000059,186.0258789999998,291.0258789999998,109.10253900000043
15,277.82031300000017,186.79492200000004,160.76904300000024,166.15380900000036,144.3588869999994,106.2822270000006,122.43603499999972,117.43603499999972,120.12841800000024,136.2822270000006,115.89746099999957,181.79492200000004,275.89746099999957,108.0771479999994
16,285.2563479999999,204.87158199999976,160.76904300000024,168.3334960000002,145.12841800000024,103.20507799999996,116.15380900000036,110.64111300000059,114.74365200000011,124.61523400000078,107.82031300000017,179.7436520000001,263.84619099999964,111.79492200000004
17,294.7436520000001,223.3334960000002,161.0258789999998,171.53857400000015,147.43603499999972,100.64111300000059,109.10253900000043,106.6665039999998,112.94873000000007,120.38476599999922,104.10253900000043,181.15380900000036,257.5639650000003,112.05126999999993
18,303.20507799999996,238.46142599999985,161.53857400000015,173.9741210000002,150.2563479999999,98.7177729999994,102.30761700000039,105.25634799999989,114.10253900000043,121.15380900000036,102.30761700000039,183.20507799999996,252.17968800000017,107.94873000000007
19,306.4101559999999,248.20507799999996,161.0258789999998,173.7177729999994,151.41015599999992,96.15380900000036,96.15380900000036,103.0771479999994,113.9741210000002,119.48730499999965,97.43603499999972,181.6665039999998,239.7436520000001,107.30761700000039
20,303.46142599999985,255.0,158.0771479999994,170.51269500000035,150.51269500000035,93.46142599999985,91.2822270000006,97.82031300000017,109.61523400000078,110.25634799999989,87.30761700000039,175.38476599999922,217.6923829999996,112.05126999999993
21,298.3334960000002,262.82031300000017,153.20507799999996,166.41015599999992,150.0,92.82031300000017,88.84619099999964,90.38476599999922,101.9228520000006,94.61523400000078,74.61523400000078,166.9228520000006,191.79492200000004,114.10253900000043
22,294.3588869999994,273.20507799999996,148.46142599999985,163.9741210000002,151.41015599999992,94.87158199999976,88.0771479999994,83.20507799999996,93.9741210000002,77.82031300000017,63.589844000000085,159.3588869999994,169.10253900000043,109.74365200000011
23,292.17968800000017,284.7436520000001,146.0258789999998,163.9741210000002,153.46142599999985,97.17968800000017,86.41015599999992,78.3334960000002,88.0771479999994,64.61523400000078,55.76904300000024,154.10253900000043,152.43603499999972,106.15380900000036
24,291.4101559999999,296.9228520000006,146.2822270000006,166.15380900000036,155.0,98.58984400000008,83.20507799999996,76.41015599999992,85.38476599999922,57.69238299999961,51.666503999999804,152.3076170000004,140.6411130000006,108.84619099999964
25,291.9228520000006,310.0,148.3334960000002,168.7177729999994,156.0258789999998,100.25634799999989,79.48730499999965,77.43603499999972,85.89746099999957,57.30761700000039,51.153809000000365,153.46142599999985,130.6411130000006,111.9228520000006
26,291.79492200000004,322.82031300000017,151.0258789999998,169.3588869999994,157.05126999999993,102.30761700000039,76.53857400000015,79.10253900000043,87.56396500000028,59.48730499999965,51.53857400000015,155.51269500000035,118.20507799999996,109.23095699999976
27,288.0771479999994,331.6665039999998,152.43603499999972,166.41015599999992,156.9228520000006,102.69238299999961,73.3334960000002,77.94873000000007,87.43603499999972,58.7177729999994,49.35888699999941,155.0,100.25634799999989,106.15380900000036
28,279.87158199999976,334.87158199999976,151.0258789999998,160.89746099999957,155.6411130000006,100.12841800000024,68.58984400000008,73.3334960000002,84.23095699999976,53.46142599999985,43.333496000000196,150.51269500000035,78.3334960000002,109.87158199999976
29,270.76904300000024,335.2563479999999,147.43603499999972,155.6411130000006,155.2563479999999,96.79492200000004,63.20507799999996,68.3334960000002,80.0,47.69238299999961,36.79492200000004,144.7436520000001,59.102539000000434,116.2822270000006
30,263.9741210000002,336.0258789999998,143.9741210000002,152.17968800000017,157.3076170000004,95.76904300000024,59.87158199999976,67.17968800000017,77.82031300000017,45.12841800000024,32.82031300000017,140.0,47.05126999999993,116.41015599999992
31,259.23095699999976,337.5639650000003,141.9228520000006,149.48730499999965,159.48730499999965,97.43603499999972,60.25634799999989,70.0,78.58984400000008,45.25634799999989,30.641113000000587,136.53857400000015,40.0,111.9228520000006
32,254.3588869999994,339.23095699999976,140.89746099999957,145.76904300000024,159.3588869999994,99.61523400000078,63.46142599999985,74.23095699999976,81.2822270000006,45.38476599999922,28.461425999999847,133.58984400000008,32.43603499999972,111.79492200000004
33,249.23095699999976,342.4360349999997,140.0,141.79492200000004,157.82031300000017,101.2822270000006,67.30761700000039,77.17968800000017,84.87158199999976,44.74365200000011,26.538574000000153,131.41015599999992,20.897460999999566,115.51269500000035
34,244.48730499999965,348.20507799999996,139.61523400000078,140.12841800000024,157.82031300000017,102.30761700000039,69.35888699999941,77.82031300000017,88.20507799999996,43.7177729999994,26.282227000000603,130.6411130000006,6.153809000000365,114.87158199999976
35,239.10253900000043,353.9741210000002,140.2563479999999,141.53857400000015,160.2563479999999,102.30761700000039,67.43603499999972,75.76904300000024,89.35888699999941,42.17968800000017,26.153809000000365,130.2563479999999,-10.641113000000132,109.23095699999976
36,231.53857400000015,356.2822270000006,141.41015599999992,144.48730499999965,163.7177729999994,100.64111300000059,61.666503999999804,71.53857400000015,87.17968800000017,39.23095699999976,22.94873000000007,128.0771479999994,-27.948729999999614,107.30761700000039
37,222.6923829999996,355.3847659999992,141.2822270000006,146.9228520000006,167.43603499999972,98.3334960000002,54.74365200000011,67.17968800000017,82.94873000000007,35.25634799999989,15.512695000000349,123.46142599999985,-43.20507799999996,111.41015599999992
38,214.3588869999994,354.87158199999976,138.7177729999994,147.82031300000017,171.6665039999998,97.94873000000007,49.87158199999976,64.74365200000011,79.35888699999941,31.410155999999915,5.128418000000238,117.30761700000039,-54.61547900000005,113.0771479999994
39,206.0258789999998,355.89746099999957,134.3588869999994,146.9228520000006,175.6411130000006,99.10253900000043,47.94873000000007,64.35888699999941,77.82031300000017,27.17968800000017,-7.051270000000386,110.0,-65.0,108.0771479999994
40,195.51269500000035,356.15380900000036,129.10253900000043,144.48730499999965,176.9228520000006,100.12841800000024,47.17968800000017,64.48730499999965,77.94873000000007,21.666503999999804,-20.38452099999995,101.79492200000004,-78.46142599999985,104.10253900000043
41,183.0771479999994,354.23095699999976,124.23095699999976,141.2822270000006,175.38476599999922,99.87158199999976,45.76904300000024,64.23095699999976,79.35888699999941,15.641113000000587,-32.82055700000001,93.9741210000002,-95.76928699999962,107.17968800000017
42,171.79492200000004,351.6665039999998,121.2822270000006,139.23095699999976,173.58984400000008,99.74365200000011,43.846190999999635,63.974121000000196,81.41015599999992,11.153809000000365,-41.153809000000365,89.10253900000043,-111.66674799999964,111.0258789999998
43,163.84619099999964,350.2563479999999,121.0258789999998,139.23095699999976,173.3334960000002,100.25634799999989,42.30761700000039,63.589844000000085,82.69238299999961,8.589844000000085,-44.48706099999981,87.69238299999961,-121.92309599999999,109.48730499999965
44,158.20507799999996,349.48730499999965,122.17968800000017,140.0,173.84619099999964,100.25634799999989,41.025878999999804,61.53857400000015,80.89746099999957,5.897460999999566,-44.8718259999996,87.69238299999961,-126.92309599999999,107.17968800000017
45,152.43603499999972,348.5898440000001,122.30761700000039,139.61523400000078,173.7177729999994,99.48730499999965,40.12841800000024,57.94873000000007,76.15380900000036,2.1796880000001693,-44.48706099999981,87.05126999999993,-130.0,110.25634799999989
46,146.15380900000036,348.0771479999994,120.51269500000035,137.94873000000007,174.10253900000043,99.87158199999976,40.64111300000059,55.38476599999922,71.79492200000004,-0.6411130000005869,-43.33325200000036,85.38476599999922,-133.84619099999964,113.58984400000008
47,139.23095699999976,348.46142599999985,118.20507799999996,136.15380900000036,176.9228520000006,102.30761700000039,42.43603499999972,55.76904300000024,70.38476599999922,-1.5385740000001533,-41.153809000000365,82.82031300000017,-139.23071300000038,110.12841800000024
48,130.0,348.20507799999996,116.53857400000015,134.87158199999976,181.9228520000006,105.38476599999922,43.589844000000085,58.0771479999994,71.53857400000015,-2.0512699999999313,-40.1281740000004,79.10253900000043,-147.43579099999943,104.61523400000078
49,117.56396500000028,344.87158199999976,114.61523400000078,133.0771479999994,187.43603499999972,106.9228520000006,42.94873000000007,59.48730499999965,72.30761700000039,-4.487060999999812,-42.82055700000001,73.3334960000002,-158.076904,106.15380900000036
50,103.9741210000002,338.84619099999964,110.76904300000024,129.48730499999965,192.82031300000017,107.43603499999972,42.17968800000017,59.102539000000434,71.15380900000036,-8.71801800000003,-48.58984399999963,66.41015599999992,-168.46142599999985,112.69238299999961
51,92.94873000000007,332.5639650000003,105.51269500000035,124.61523400000078,197.56396500000028,107.94873000000007,43.0771479999994,57.69238299999961,69.35888699999941,-12.179442999999992,-54.48706099999981,59.48730499999965,-175.5129390000002,114.23095699999976
52,84.87158199999976,327.4360349999997,101.41015599999992,119.35888699999941,200.51269500000035,108.46142599999985,45.12841800000024,56.53857400000015,68.7177729999994,-13.71801800000003,-57.564209000000574,53.46142599999985,-180.0,110.0
53,77.69238299999961,324.10253900000043,99.87158199999976,114.74365200000011,199.87158199999976,108.58984400000008,46.9228520000006,56.025878999999804,69.74365200000011,-12.820557000000008,-56.92309599999999,48.846190999999635,-184.7436520000001,108.3334960000002
54,70.64111300000059,323.5898440000001,101.15380900000036,111.79492200000004,197.6923829999996,109.61523400000078,48.846190999999635,56.53857400000015,72.17968800000017,-9.8718259999996,-52.69238299999961,46.53857400000015,-191.02563499999997,111.2822270000006
55,65.12841800000024,326.53857400000015,104.23095699999976,111.41015599999992,197.56396500000028,112.69238299999961,51.79492200000004,57.82031300000017,74.74365200000011,-6.025634999999966,-46.66674799999964,46.53857400000015,-197.3076170000004,111.15380900000036
56,61.79492200000004,331.15380900000036,107.43603499999972,112.94873000000007,200.51269500000035,115.76904300000024,54.23095699999976,57.82031300000017,75.76904300000024,-3.9741210000001956,-41.66674799999964,47.05126999999993,-202.9487299999996,105.64111300000059
57,58.20507799999996,333.46142599999985,108.58984400000008,114.48730499999965,204.48730499999965,115.38476599999922,53.589844000000085,55.38476599999922,73.7177729999994,-6.923095999999987,-40.64111300000013,46.2822270000006,-209.35888699999987,103.0771479999994
58,52.30761700000039,331.79492200000004,106.2822270000006,114.10253900000043,206.9228520000006,111.79492200000004,49.87158199999976,51.53857400000015,70.12841800000024,-13.333252000000357,-42.82055700000001,44.102539000000434,-216.79492200000004,107.17968800000017
59,44.87158199999976,328.3334960000002,102.56396500000028,112.05126999999993,207.82031300000017,108.58984400000008,46.666503999999804,49.61523400000078,68.0771479999994,-18.333252000000357,-44.8718259999996,42.30761700000039,-223.076904,110.25634799999989
60,38.0771479999994,326.0258789999998,100.51269500000035,110.12841800000024,207.56396500000028,108.0771479999994,46.79492200000004,50.897460999999566,69.10253900000043,-18.71801800000003,-44.10253899999998,41.666503999999804,-226.53857400000015,107.30761700000039
61,32.17968800000017,325.6411130000006,101.2822270000006,109.23095699999976,206.53857400000015,108.58984400000008,48.7177729999994,53.7177729999994,72.05126999999993,-15.512939000000188,-41.92309599999999,41.79492200000004,-228.076904,104.74365200000011
62,26.666503999999804,325.89746099999957,102.94873000000007,109.10253900000043,204.87158199999976,107.56396500000028,49.23095699999976,55.38476599999922,74.61523400000078,-12.307617000000391,-40.76928699999962,42.17968800000017,-230.0,107.82031300000017
63,21.922852000000603,325.12841800000024,103.0771479999994,109.35888699999941,204.23095699999976,105.0,47.17968800000017,56.025878999999804,75.76904300000024,-11.153809000000365,-42.435790999999426,43.20507799999996,-232.6923829999996,110.51269500000035
64,17.56396500000028,322.17968800000017,101.41015599999992,109.23095699999976,204.48730499999965,102.82031300000017,43.7177729999994,56.2822270000006,75.51269500000035,-12.948729999999614,-47.17944299999999,43.7177729999994,-236.28198199999997,107.05126999999993
65,12.43603499999972,316.6665039999998,98.7177729999994,108.3334960000002,203.9741210000002,101.79492200000004,40.38476599999922,56.666503999999804,73.58984400000008,-17.820557000000008,-54.74365200000011,41.79492200000004,-241.15380900000036,103.46142599999985
66,5.641113000000587,310.12841800000024,94.74365200000011,106.2822270000006,201.2822270000006,102.17968800000017,38.46142599999985,56.025878999999804,69.48730499999965,-24.8718259999996,-63.71801800000003,36.666503999999804,-247.820557,107.05126999999993
67,-1.7949220000000423,305.3847659999992,89.48730499999965,104.10253900000043,197.6923829999996,104.61523400000078,38.7177729999994,54.74365200000011,64.48730499999965,-31.923095999999987,-70.89746100000002,30.25634799999989,-254.4870609999998,113.58984400000008
68,-8.076904000000013,303.84619099999964,85.25634799999989,102.69238299999961,195.12841800000024,108.7177729999994,41.410155999999915,53.46142599999985,60.76904300000024,-37.30761700000039,-74.10253899999998,25.641113000000587,-259.4870609999998,113.84619099999964
69,-13.333252000000357,302.4360349999997,84.10253900000043,101.79492200000004,192.94873000000007,111.6665039999998,44.61523400000078,52.17968800000017,59.35888699999941,-40.89746100000002,-74.10253899999998,23.589844000000085,-262.179443,109.61523400000078
70,-18.461425999999847,297.3076170000004,85.76904300000024,100.0,190.12841800000024,110.76904300000024,46.025878999999804,50.76904300000024,60.0,-43.20507799999996,-72.56420900000057,23.205077999999958,-262.9487299999996,109.23095699999976
71,-22.30761700000039,289.10253900000043,88.3334960000002,97.56396500000028,187.3076170000004,106.6665039999998,45.38476599999922,49.87158199999976,62.05126999999993,-43.20507799999996,-69.8718259999996,23.717772999999397,-259.8718259999996,111.79492200000004
72,-22.30761700000039,281.4101559999999,90.25634799999989,96.53857400000015,186.9228520000006,102.82031300000017,44.48730499999965,50.12841800000024,64.87158199999976,-39.48706099999981,-64.8718259999996,25.641113000000587,-251.02563499999997,109.61523400000078
73,-18.076904000000013,276.0258789999998,91.6665039999998,97.30761700000039,188.9741210000002,101.53857400000015,44.87158199999976,51.53857400000015,66.9228520000006,-33.71801800000003,-58.33325200000036,28.461425999999847,-238.076904,103.7177729999994
74,-12.820557000000008,270.76904300000024,91.9228520000006,98.20507799999996,190.51269500000035,101.9228520000006,47.05126999999993,52.82031300000017,66.53857400000015,-29.74365200000011,-52.69238299999961,30.51269500000035,-225.89746100000002,103.58984400000008
75,-9.358886999999868,262.82031300000017,90.76904300000024,96.9228520000006,188.84619099999964,102.17968800000017,50.51269500000035,53.7177729999994,63.7177729999994,-30.1281740000004,-49.10253899999998,31.025878999999804,-218.33325200000036,110.0
76,-8.58984399999963,252.17968800000017,89.23095699999976,93.46142599999985,184.23095699999976,102.43603499999972,54.23095699999976,54.61523400000078,60.76904300000024,-33.846190999999635,-46.025634999999966,30.51269500000035,-213.97436500000003,113.46142599999985
77,-9.230713000000378,241.0258789999998,89.74365200000011,90.0,178.84619099999964,102.56396500000028,56.410155999999915,55.12841800000024,59.48730499999965,-37.435790999999426,-41.66674799999964,30.51269500000035,-209.61547900000005,110.12841800000024
78,-9.743652000000111,231.41015599999992,92.82031300000017,88.20507799999996,174.87158199999976,102.30761700000039,55.12841800000024,53.7177729999994,59.74365200000011,-37.948729999999614,-35.64111300000013,31.922852000000603,-202.820557,107.43603499999972
79,-8.333252000000357,224.87158199999976,96.0258789999998,87.82031300000017,173.9741210000002,101.9228520000006,51.410155999999915,50.25634799999989,60.64111300000059,-34.10253899999998,-28.846190999999635,34.74365200000011,-193.20507799999996,109.35888699999941
80,-4.102538999999979,221.9228520000006,97.43603499999972,87.69238299999961,177.17968800000017,103.58984400000008,49.74365200000011,47.56396500000028,61.9228520000006,-26.794922000000042,-22.69238299999961,38.846190999999635,-182.3076170000004,109.61523400000078
81,1.0258789999998044,219.7436520000001,97.17968800000017,86.2822270000006,182.82031300000017,108.0771479999994,54.48730499999965,48.20507799999996,63.974121000000196,-19.8718259999996,-18.461425999999847,43.20507799999996,-172.56420900000057,104.74365200000011
82,3.5898440000000846,213.7177729999994,96.6665039999998,82.05126999999993,186.6665039999998,112.82031300000017,64.74365200000011,52.69238299999961,66.41015599999992,-16.28198199999997,-16.794922000000042,46.79492200000004,-166.15380900000036,102.43603499999972
83,2.4360349999997197,202.6923829999996,96.0258789999998,76.15380900000036,186.15380900000036,114.10253900000043,75.0,58.846190999999635,68.58984400000008,-15.512939000000188,-15.769286999999622,48.46142599999985,-162.0512700000004,107.56396500000028
84,1.0258789999998044,190.89746099999957,95.38476599999922,71.9228520000006,183.46142599999985,111.53857400000015,79.48730499999965,64.35888699999941,71.6665039999998,-13.58984399999963,-11.923095999999987,49.48730499999965,-155.89746100000002,112.69238299999961
85,3.3334960000001956,183.9741210000002,95.51269500000035,72.30761700000039,181.79492200000004,107.82031300000017,76.41015599999992,68.3334960000002,76.6665039999998,-7.435790999999426,-3.5898440000000846,51.2822270000006,-145.1281740000004,110.64111300000059
86,8.589844000000085,182.3076170000004,97.05126999999993,76.6665039999998,182.17968800000017,104.61523400000078,68.7177729999994,69.87158199999976,82.56396500000028,1.6665039999998044,5.897460999999566,53.7177729999994,-132.56420900000057,106.41015599999992
87,13.205077999999958,181.41015599999992,98.84619099999964,81.2822270000006,182.3076170000004,101.9228520000006,61.666503999999804,69.48730499999965,87.05126999999993,9.358886999999413,11.282227000000603,54.87158199999976,-123.97436500000003,108.20507799999996
88,14.871581999999762,177.56396500000028,99.35888699999941,82.43603499999972,180.76904300000024,100.12841800000024,60.0,69.23095699999976,88.84619099999964,12.56396500000028,10.641113000000587,54.61523400000078,-120.64111300000013,112.17968800000017
89,14.487304999999651,170.2563479999999,98.7177729999994,80.0,178.58984400000008,99.61523400000078,65.0,71.15380900000036,88.58984400000008,11.922852000000603,6.410155999999915,54.48730499999965,-119.35888699999987,110.0
90,13.589844000000085,160.12841800000024,97.94873000000007,76.0258789999998,176.2822270000006,100.38476599999922,73.58984400000008,74.61523400000078,87.69238299999961,9.102539000000434,2.5639650000002803,55.64111300000059,-116.15380900000036,104.48730499999965
91,11.666503999999804,147.56396500000028,96.79492200000004,72.43603499999972,173.9741210000002,101.0258789999998,80.89746099999957,77.30761700000039,86.79492200000004,6.922852000000603,1.4101559999999154,57.69238299999961,-110.25634799999989,104.48730499999965
92,9.230956999999762,134.87158199999976,94.74365200000011,70.51269500000035,171.9228520000006,102.05126999999993,84.87158199999976,77.94873000000007,86.41015599999992,7.56396500000028,3.3334960000001956,59.23095699999976,-102.30761700000039,109.10253900000043
93,8.205077999999958,125.12841800000024,92.82031300000017,70.64111300000059,171.2822270000006,104.87158199999976,87.43603499999972,77.69238299999961,87.94873000000007,12.051269999999931,8.461425999999847,60.0,-93.07690400000001,109.87158199999976
94,10.256347999999889,119.61523400000078,92.94873000000007,72.30761700000039,171.2822270000006,109.61523400000078,91.41015599999992,78.0771479999994,91.53857400000015,18.333496000000196,15.512695000000349,60.76904300000024,-83.84619099999964,106.41015599999992
95,14.230956999999762,116.9228520000006,95.0,74.61523400000078,169.23095699999976,113.20507799999996,96.79492200000004,79.61523400000078,95.38476599999922,23.205077999999958,22.82031300000017,62.30761700000039,-76.66674799999964,106.9228520000006
96,18.333496000000196,114.87158199999976,97.17968800000017,76.2822270000006,164.48730499999965,113.58984400000008,101.41015599999992,81.79492200000004,97.69238299999961,25.384765999999217,28.846190999999635,65.12841800000024,-72.05127000000039,112.05126999999993
97,22.17968800000017,112.82031300000017,98.46142599999985,77.69238299999961,159.10253900000043,112.30761700000039,104.10253900000043,85.0,98.0771479999994,26.794922000000042,34.23095699999976,69.35888699999941,-67.69238299999961,113.58984400000008
98,26.025878999999804,110.12841800000024,99.48730499999965,79.23095699999976,155.51269500000035,112.05126999999993,105.64111300000059,89.23095699999976,97.82031300000017,30.0,39.61523400000078,73.84619099999964,-61.153809000000365,108.9741210000002
99,28.333496000000196,105.25634799999989,100.64111300000059,79.87158199999976,153.3334960000002,113.84619099999964,107.05126999999993,93.20507799999996,97.94873000000007,35.0,44.48730499999965,76.6665039999998,-53.07690400000001,106.6665039999998
100,28.077147999999397,97.56396500000028,100.89746099999957,78.0771479999994,151.0258789999998,116.53857400000015,108.84619099999964,95.38476599999922,98.9741210000002,40.25634799999989,47.94873000000007,76.53857400000015,-45.64111300000013,110.38476599999922
101,27.17968800000017,90.12841800000024,99.87158199999976,74.48730499999965,149.10253900000043,118.7177729999994,110.64111300000059,95.51269500000035,101.41015599999992,45.0,50.51269500000035,75.0,-39.23071300000038,112.30761700000039
102,27.69238299999961,85.76904300000024,98.7177729999994,71.2822270000006,148.3334960000002,118.9741210000002,111.79492200000004,94.61523400000078,104.74365200000011,48.589844000000085,52.94873000000007,74.61523400000078,-33.846190999999635,107.56396500000028
103,29.48730499999965,84.10253900000043,98.58984400000008,69.61523400000078,148.3334960000002,116.41015599999992,111.15380900000036,92.94873000000007,107.30761700000039,50.51269500000035,54.61523400000078,75.76904300000024,-30.38452099999995,103.58984400000008
104,30.25634799999989,82.17968800000017,98.3334960000002,69.61523400000078,147.43603499999972,111.79492200000004,109.10253900000043,90.76904300000024,107.56396500000028,50.64111300000059,54.74365200000011,77.30761700000039,-29.8718259999996,107.30761700000039
105,29.74365200000011,78.20507799999996,97.30761700000039,70.76904300000024,146.0258789999998,108.46142599999985,107.94873000000007,89.35888699999941,106.6665039999998,50.12841800000024,53.974121000000196,78.0771479999994,-30.38452099999995,112.56396500000028
106,29.102539000000434,72.69238299999961,96.41015599999992,72.43603499999972,145.12841800000024,108.84619099999964,110.0,90.12841800000024,106.2822270000006,50.897460999999566,54.48730499999965,78.0771479999994,-28.58984399999963,111.41015599999992
107,28.589844000000085,66.15380900000036,96.9228520000006,73.7177729999994,144.61523400000078,112.05126999999993,115.0,92.82031300000017,107.30761700000039,52.30761700000039,56.53857400000015,77.69238299999961,-23.71801800000003,107.56396500000028
108,27.17968800000017,58.846190999999635,98.0771479999994,73.46142599999985,143.3334960000002,114.23095699999976,120.25634799999989,95.25634799999989,108.7177729999994,53.20507799999996,58.46142599999985,76.79492200000004,-18.461425999999847,108.58984400000008
109,25.128418000000238,52.30761700000039,98.3334960000002,72.05126999999993,141.6665039999998,113.7177729999994,122.94873000000007,96.6665039999998,110.38476599999922,53.974121000000196,60.0,75.51269500000035,-14.743652000000111,111.6665039999998
110,25.0,48.7177729999994,97.82031300000017,71.6665039999998,141.15380900000036,112.05126999999993,122.94873000000007,97.82031300000017,112.43603499999972,56.9228520000006,61.9228520000006,75.64111300000059,-11.538574000000153,109.35888699999941
111,27.43603499999972,47.69238299999961,97.82031300000017,72.94873000000007,141.9228520000006,111.2822270000006,121.15380900000036,99.48730499999965,114.61523400000078,62.56396500000028,64.61523400000078,77.30761700000039,-7.179442999999992,104.23095699999976
112,30.0,45.51269500000035,97.56396500000028,74.10253900000043,141.6665039999998,111.15380900000036,118.3334960000002,100.76904300000024,114.87158199999976,67.82031300000017,66.0258789999998,78.58984400000008,-2.6923829999996087,105.12841800000024
113,29.74365200000011,40.0,95.51269500000035,73.58984400000008,138.84619099999964,111.15380900000036,115.76904300000024,100.25634799999989,112.43603499999972,69.87158199999976,65.12841800000024,77.17968800000017,0.512695000000349,111.0258789999998
114,26.922852000000603,33.0771479999994,92.05126999999993,72.05126999999993,135.12841800000024,110.89746099999957,115.0,98.3334960000002,109.10253900000043,68.20507799999996,62.82031300000017,73.7177729999994,1.7949220000000423,112.17968800000017
115,23.461425999999847,28.077147999999397,89.61523400000078,71.0258789999998,132.82031300000017,111.0258789999998,116.15380900000036,96.0258789999998,107.05126999999993,65.25634799999989,61.53857400000015,70.89746099999957,1.4101559999999154,107.05126999999993
116,20.384765999999217,25.769043000000238,89.61523400000078,70.89746099999957,132.56396500000028,110.76904300000024,116.9228520000006,93.9741210000002,106.9228520000006,63.20507799999996,61.666503999999804,70.51269500000035,-0.38476599999921746,104.87158199999976
117,17.94873000000007,25.0,90.89746099999957,71.2822270000006,133.84619099999964,110.64111300000059,115.89746099999957,92.17968800000017,107.17968800000017,62.94873000000007,62.94873000000007,71.53857400000015,-2.3076170000003913,108.7177729999994
118,17.30761700000039,24.358886999999413,91.79492200000004,72.05126999999993,136.15380900000036,112.05126999999993,114.35888699999941,91.0258789999998,107.05126999999993,64.35888699999941,65.25634799999989,73.20507799999996,-1.2822270000006029,110.25634799999989
119,18.974121000000196,23.589844000000085,92.17968800000017,73.84619099999964,138.84619099999964,115.0,114.23095699999976,90.12841800000024,106.53857400000015,66.79492200000004,68.3334960000002,74.87158199999976,4.487304999999651,106.15380900000036
120,21.410155999999915,22.05126999999993,92.30761700000039,75.64111300000059,139.3588869999994,116.41015599999992,114.48730499999965,88.58984400000008,105.51269500000035,69.10253900000043,71.2822270000006,76.6665039999998,13.589844000000085,104.23095699999976
121,22.82031300000017,19.615234000000783,92.30761700000039,76.79492200000004,136.79492200000004,113.84619099999964,112.82031300000017,85.89746099999957,104.87158199999976,71.15380900000036,73.58984400000008,78.58984400000008,22.30761700000039,109.23095699999976
122,23.974121000000196,18.333496000000196,92.56396500000028,77.82031300000017,133.58984400000008,109.48730499999965,108.7177729999994,84.10253900000043,106.2822270000006,74.10253900000043,76.6665039999998,81.0258789999998,29.871581999999762,113.20507799999996
123,26.794922000000042,20.25634799999989,93.9741210000002,79.35888699999941,133.46142599999985,107.56396500000028,104.48730499999965,84.87158199999976,110.89746099999957,78.7177729999994,82.05126999999993,85.0,37.17968800000017,108.9741210000002
124,30.641113000000587,23.974121000000196,96.6665039999998,80.64111300000059,136.2822270000006,109.35888699999941,102.05126999999993,87.82031300000017,116.79492200000004,83.7177729999994,87.82031300000017,89.23095699999976,44.102539000000434,102.82031300000017
125,32.43603499999972,25.25634799999989,98.84619099999964,80.0,138.7177729999994,112.17968800000017,102.05126999999993,90.64111300000059,119.61523400000078,85.76904300000024,90.12841800000024,91.2822270000006,48.589844000000085,103.7177729999994
126,30.897460999999566,22.30761700000039,98.7177729999994,77.43603499999972,138.3334960000002,113.46142599999985,104.23095699999976,91.6665039999998,118.20507799999996,84.23095699999976,87.82031300000017,90.0,50.12841800000024,108.0771479999994
127,28.589844000000085,17.69238299999961,97.05126999999993,75.25634799999989,136.2822270000006,113.3334960000002,108.0771479999994,91.79492200000004,114.87158199999976,81.2822270000006,83.3334960000002,87.43603499999972,50.64111300000059,107.94873000000007
128,28.077147999999397,14.743652000000111,95.64111300000059,76.0258789999998,134.61523400000078,112.94873000000007,112.05126999999993,92.30761700000039,113.46142599999985,80.12841800000024,80.12841800000024,86.53857400000015,52.30761700000039,105.38476599999922
129,30.128418000000238,13.589844000000085,95.64111300000059,78.9741210000002,133.58984400000008,112.05126999999993,114.10253900000043,93.58984400000008,114.48730499999965,81.53857400000015,79.61523400000078,87.94873000000007,56.025878999999804,108.3334960000002
130,33.846190999999635,13.333496000000196,96.2822270000006,82.17968800000017,132.94873000000007,110.51269500000035,113.84619099999964,95.25634799999989,116.41015599999992,84.61523400000078,81.53857400000015,89.87158199999976,61.410155999999915,113.84619099999964
131,38.0771479999994,13.205077999999958,97.30761700000039,84.48730499999965,133.0771479999994,108.84619099999964,112.05126999999993,97.17968800000017,117.69238299999961,87.69238299999961,84.87158199999976,90.12841800000024,67.56396500000028,112.94873000000007
132,40.51269500000035,11.922852000000603,98.58984400000008,85.0,133.58984400000008,106.41015599999992,109.35888699999941,98.9741210000002,117.30761700000039,88.9741210000002,88.58984400000008,87.69238299999961,72.05126999999993,106.41015599999992
133,38.7177729999994,8.205077999999958,99.10253900000043,83.20507799999996,132.17968800000017,101.53857400000015,105.12841800000024,98.9741210000002,114.87158199999976,86.79492200000004,90.89746099999957,83.3334960000002,72.17968800000017,104.10253900000043
134,32.56396500000028,1.6665039999998044,97.30761700000039,79.48730499999965,127.82031300000017,94.48730499999965,99.23095699999976,96.15380900000036,110.89746099999957,81.41015599999992,90.89746099999957,78.58984400000008,67.69238299999961,108.0771479999994
135,25.0,-5.0,92.56396500000028,76.0258789999998,123.0771479999994,88.9741210000002,94.23095699999976,92.05126999999993,107.56396500000028,75.38476599999922,89.61523400000078,75.51269500000035,62.17968800000017,110.0
136,19.48730499999965,-9.102538999999979,87.56396500000028,75.25634799999989,120.51269500000035,87.69238299999961,92.94873000000007,88.46142599999985,106.15380900000036,71.0258789999998,88.9741210000002,74.74365200000011,59.61523400000078,106.2822270000006
137,16.794922000000042,-11.153809000000365,84.61523400000078,77.05126999999993,120.38476599999922,89.61523400000078,94.87158199999976,86.0258789999998,106.15380900000036,68.9741210000002,89.23095699999976,75.38476599999922,60.64111300000059,104.74365200000011
138,16.025878999999804,-12.564209000000574,84.61523400000078,79.48730499999965,120.51269500000035,91.0258789999998,97.43603499999972,84.61523400000078,106.53857400000015,68.7177729999994,90.64111300000059,75.89746099999957,63.974121000000196,108.58984400000008
139,17.56396500000028,-13.076904000000013,86.9228520000006,81.0258789999998,120.51269500000035,90.89746099999957,98.46142599999985,84.87158199999976,107.43603499999972,71.15380900000036,94.23095699999976,76.6665039999998,68.84619099999964,110.25634799999989
140,21.538574000000153,-11.41015600000037,90.64111300000059,82.05126999999993,121.15380900000036,90.64111300000059,97.94873000000007,87.05126999999993,108.9741210000002,76.53857400000015,100.12841800000024,78.3334960000002,75.0,104.74365200000011
141,25.769043000000238,-8.333252000000357,93.7177729999994,82.69238299999961,122.17968800000017,90.89746099999957,96.41015599999992,89.61523400000078,110.12841800000024,82.43603499999972,106.53857400000015,80.89746099999957,80.51269500000035,100.12841800000024
142,27.94873000000007,-6.153809000000365,93.9741210000002,83.3334960000002,122.43603499999972,90.64111300000059,94.48730499999965,90.25634799999989,109.61523400000078,85.89746099999957,110.0,82.69238299999961,83.0771479999994,104.23095699999976
143,28.205077999999958,-5.256347999999889,91.6665039999998,84.61523400000078,121.79492200000004,89.35888699999941,93.3334960000002,88.9741210000002,107.94873000000007,86.15380900000036,109.61523400000078,83.20507799999996,82.82031300000017,111.41015599999992
144,28.589844000000085,-4.487060999999812,89.48730499999965,86.79492200000004,121.6665039999998,87.94873000000007,93.20507799999996,88.0771479999994,107.43603499999972,85.25634799999989,107.69238299999961,83.3334960000002,81.9228520000006,112.30761700000039
145,29.871581999999762,-3.717772999999397,89.87158199999976,88.84619099999964,122.05126999999993,87.05126999999993,93.20507799999996,89.35888699999941,108.3334960000002,84.74365200000011,106.41015599999992,83.9741210000002,81.15380900000036,109.10253900000043
146,30.897460999999566,-4.230713000000378,92.17968800000017,89.10253900000043,121.41015599999992,86.2822270000006,92.17968800000017,91.9228520000006,109.87158199999976,84.61523400000078,106.2822270000006,84.23095699999976,79.74365200000011,109.61523400000078
147,31.153809000000365,-6.025634999999966,93.9741210000002,87.43603499999972,119.48730499999965,85.89746099999957,90.25634799999989,93.7177729999994,110.76904300000024,84.74365200000011,107.30761700000039,83.9741210000002,78.58984400000008,112.30761700000039
148,31.538574000000153,-7.179442999999992,94.48730499999965,86.15380900000036,117.94873000000007,87.17968800000017,89.35888699999941,94.10253900000043,111.15380900000036,85.76904300000024,109.35888699999941,84.10253900000043,80.0,110.51269500000035
149,31.922852000000603,-6.923095999999987,94.23095699999976,87.56396500000028,117.82031300000017,89.10253900000043,89.48730499999965,92.82031300000017,110.76904300000024,87.43603499999972,111.53857400000015,85.12841800000024,83.7177729999994,106.0258789999998
150,30.641113000000587,-6.794922000000042,93.7177729999994,90.76904300000024,118.46142599999985,89.23095699999976,88.84619099999964,89.74365200000011,109.10253900000043,87.56396500000028,111.15380900000036,85.89746099999957,86.0258789999998,107.56396500000028
151,27.56396500000028,-8.333252000000357,92.56396500000028,93.58984400000008,118.9741210000002,87.05126999999993,86.2822270000006,85.64111300000059,106.53857400000015,85.25634799999989,107.56396500000028,85.76904300000024,83.84619099999964,113.84619099999964
152,25.51269500000035,-10.38452099999995,91.2822270000006,94.87158199999976,119.74365200000011,85.0,82.82031300000017,82.82031300000017,104.74365200000011,82.56396500000028,103.3334960000002,86.0258789999998,79.23095699999976,114.87158199999976
153,26.666503999999804,-11.41015600000037,90.89746099999957,94.87158199999976,120.64111300000059,85.25634799999989,80.51269500000035,82.82031300000017,104.87158199999976,81.79492200000004,102.05126999999993,87.56396500000028,76.0258789999998,108.20507799999996
154,29.358886999999413,-11.41015600000037,91.6665039999998,94.10253900000043,119.87158199999976,86.6665039999998,79.87158199999976,84.87158199999976,106.0258789999998,83.3334960000002,104.35888699999941,89.74365200000011,75.76904300000024,102.94873000000007
155,30.769043000000238,-11.153809000000365,92.43603499999972,93.7177729999994,117.05126999999993,86.9228520000006,80.64111300000059,87.05126999999993,106.9228520000006,85.64111300000059,108.58984400000008,91.2822270000006,77.56396500000028,104.10253900000043
156,30.384765999999217,-10.1281740000004,93.0771479999994,94.74365200000011,114.61523400000078,86.41015599999992,82.69238299999961,88.7177729999994,107.69238299999961,87.82031300000017,112.69238299999961,92.56396500000028,80.12841800000024,105.12841800000024
157,29.48730499999965,-7.820557000000008,93.7177729999994,97.82031300000017,115.64111300000059,86.41015599999992,86.15380900000036,90.0,108.46142599999985,89.61523400000078,115.25634799999989,94.48730499999965,82.30761700000039,101.15380900000036
158,28.589844000000085,-6.153809000000365,93.9741210000002,101.15380900000036,118.9741210000002,86.79492200000004,88.46142599999985,90.51269500000035,108.7177729999994,90.25634799999989,114.61523400000078,96.6665039999998,81.53857400000015,98.58984400000008
159,27.82031300000017,-6.794922000000042,92.82031300000017,102.43603499999972,120.64111300000059,85.64111300000059,86.79492200000004,89.10253900000043,107.69238299999961,88.9741210000002,110.64111300000059,96.79492200000004,77.17968800000017,103.20507799999996
160,27.94873000000007,-8.58984399999963,90.51269500000035,102.30761700000039,118.84619099999964,82.94873000000007,81.2822270000006,86.2822270000006,106.41015599999992,86.9228520000006,105.89746099999957,94.23095699999976,71.79492200000004,108.58984400000008
161,30.384765999999217,-8.71801800000003,89.48730499999965,102.56396500000028,114.74365200000011,80.38476599999922,75.12841800000024,84.10253900000043,106.41015599999992,86.0258789999998,103.58984400000008,90.89746099999957,70.51269500000035,107.17968800000017
162,33.974121000000196,-6.666747999999643,91.0258789999998,103.9741210000002,110.51269500000035,78.7177729999994,71.0258789999998,83.7177729999994,107.69238299999961,86.53857400000015,104.10253900000043,89.10253900000043,73.7177729999994,104.10253900000043
163,35.76904300000024,-4.871825999999601,94.10253900000043,105.0,107.69238299999961,77.94873000000007,69.87158199999976,84.74365200000011,108.46142599999985,87.30761700000039,105.25634799999989,89.48730499999965,77.69238299999961,107.17968800000017
164,34.87158199999976,-4.487060999999812,96.2822270000006,104.23095699999976,107.43603499999972,78.84619099999964,71.0258789999998,86.6665039999998,108.3334960000002,87.43603499999972,105.25634799999989,91.9228520000006,79.23095699999976,112.94873000000007
165,33.589844000000085,-4.871825999999601,97.05126999999993,102.30761700000039,110.38476599999922,82.30761700000039,73.3334960000002,89.87158199999976,108.7177729999994,87.56396500000028,104.87158199999976,95.51269500000035,78.0771479999994,112.56396500000028
166,33.589844000000085,-5.0,96.9228520000006,100.51269500000035,114.10253900000043,86.53857400000015,74.87158199999976,93.3334960000002,110.64111300000059,88.3334960000002,104.48730499999965,98.46142599999985,75.64111300000059,107.56396500000028
167,34.102539000000434,-5.0,96.6665039999998,99.23095699999976,115.25634799999989,87.82031300000017,73.9741210000002,94.74365200000011,112.56396500000028,88.84619099999964,103.46142599999985,98.7177729999994,71.9228520000006,107.30761700000039
168,34.48730499999965,-3.9741210000001956,96.0258789999998,99.35888699999941,113.58984400000008,86.0258789999998,71.0258789999998,93.3334960000002,112.82031300000017,88.84619099999964,101.15380900000036,96.41015599999992,67.94873000000007,112.30761700000039
169,35.897460999999566,-0.769043000000238,95.38476599999922,101.9228520000006,112.43603499999972,84.61523400000078,68.58984400000008,91.2822270000006,111.6665039999998,89.23095699999976,98.9741210000002,93.84619099999964,66.41015599999992,113.58984400000008
170,39.102539000000434,4.487304999999651,95.51269500000035,106.2822270000006,114.23095699999976,87.05126999999993,69.23095699999976,91.41015599999992,110.51269500000035,91.0258789999998,98.46142599999985,93.3334960000002,68.84619099999964,108.84619099999964
171,42.56396500000028,8.589844000000085,96.53857400000015,110.89746099999957,117.30761700000039,92.05126999999993,71.9228520000006,94.10253900000043,110.0,93.84619099999964,100.25634799999989,95.25634799999989,73.84619099999964,105.89746099999957
172,44.48730499999965,9.743652000000111,98.0771479999994,114.10253900000043,119.10253900000043,96.9228520000006,74.74365200000011,97.94873000000007,110.51269500000035,96.6665039999998,103.7177729999994,98.0771479999994,79.10253900000043,107.94873000000007
173,45.0,9.743652000000111,99.61523400000078,116.0258789999998,119.74365200000011,100.12841800000024,77.05126999999993,101.6665039999998,112.30761700000039,99.61523400000078,108.58984400000008,100.38476599999922,83.84619099999964,108.58984400000008
174,45.51269500000035,10.512695000000349,101.15380900000036,117.05126999999993,121.0258789999998,101.53857400000015,79.23095699999976,104.10253900000043,114.87158199999976,102.43603499999972,113.58984400000008,101.6665039999998,87.82031300000017,105.0
175,45.76904300000024,11.025878999999804,101.2822270000006,116.2822270000006,122.30761700000039,100.76904300000024,80.89746099999957,103.84619099999964,115.76904300000024,103.0771479999994,115.12841800000024,101.0258789999998,89.23095699999976,104.48730499999965
176,44.23095699999976,9.358886999999413,98.7177729999994,113.20507799999996,121.9228520000006,98.20507799999996,80.76904300000024,99.87158199999976,112.69238299999961,100.0,110.89746099999957,98.20507799999996,86.15380900000036,110.64111300000059
177,42.05126999999993,6.794922000000042,93.9741210000002,109.23095699999976,119.87158199999976,96.15380900000036,78.84619099999964,94.35888699999941,107.30761700000039,94.48730499999965,103.0771479999994,94.48730499999965,79.61523400000078,114.74365200000011
178,40.897460999999566,6.538574000000153,90.0,106.79492200000004,117.82031300000017,96.53857400000015,76.79492200000004,91.0258789999998,103.58984400000008,89.61523400000078,96.79492200000004,92.43603499999972,73.7177729999994,110.0
179,41.153809000000365,9.358886999999413,89.48730499999965,107.05126999999993,116.53857400000015,98.46142599999985,75.38476599999922,91.53857400000015,104.10253900000043,87.94873000000007,95.25634799999989,93.0771479999994,70.89746099999957,103.3334960000002
180,41.153809000000365,13.205077999999958,91.9228520000006,108.84619099999964,115.12841800000024,98.9741210000002,73.7177729999994,94.87158199999976,107.82031300000017,90.25634799999989,97.82031300000017,95.38476599999922,71.6665039999998,103.9741210000002
181,40.64111300000059,16.666503999999804,95.0,111.15380900000036,113.9741210000002,97.30761700000039,71.15380900000036,98.7177729999994,112.05126999999993,96.15380900000036,101.79492200000004,97.82031300000017,75.76904300000024,108.9741210000002
182,41.025878999999804,19.74365200000011,97.17968800000017,113.0771479999994,114.35888699999941,95.38476599999922,68.46142599999985,101.79492200000004,115.25634799999989,103.7177729999994,104.74365200000011,99.48730499999965,82.17968800000017,108.9741210000002
183,42.17968800000017,22.30761700000039,98.0771479999994,113.9741210000002,115.38476599999922,94.74365200000011,66.53857400000015,103.0771479999994,116.9228520000006,110.38476599999922,105.51269500000035,99.87158199999976,87.82031300000017,105.12841800000024
184,43.589844000000085,23.717772999999397,97.82031300000017,113.3334960000002,115.0,95.12841800000024,66.0258789999998,102.43603499999972,117.05126999999993,114.10253900000043,105.0,98.9741210000002,89.74365200000011,105.51269500000035
185,46.153809000000365,25.384765999999217,98.0771479999994,112.43603499999972,113.20507799999996,96.53857400000015,67.05126999999993,101.0258789999998,117.05126999999993,115.89746099999957,106.0258789999998,98.46142599999985,89.35888699999941,109.10253900000043
186,52.17968800000017,30.641113000000587,100.25634799999989,113.3334960000002,112.94873000000007,99.48730499999965,69.10253900000043,101.53857400000015,119.10253900000043,118.84619099999964,110.76904300000024,101.0258789999998,91.15380900000036,108.58984400000008
187,61.025878999999804,39.61523400000078,104.23095699999976,116.2822270000006,116.0258789999998,102.82031300000017,69.87158199999976,104.35888699999941,123.0771479999994,123.84619099999964,117.43603499999972,106.9228520000006,96.79492200000004,103.9741210000002
188,67.43603499999972,47.69238299999961,107.17968800000017,118.46142599999985,120.0,103.84619099999964,66.79492200000004,106.6665039999998,125.25634799999989,126.41015599999992,120.0,111.79492200000004,101.41015599999992,103.20507799999996
189,66.41015599999992,49.61523400000078,106.15380900000036,117.56396500000028,122.05126999999993,101.41015599999992,60.76904300000024,104.87158199999976,121.53857400000015,121.2822270000006,113.7177729999994,110.89746099999957,98.3334960000002,107.05126999999993
190,58.46142599999985,45.64111300000059,101.2822270000006,113.3334960000002,121.53857400000015,97.69238299999961,55.38476599999922,98.7177729999994,111.2822270000006,107.05126999999993,100.25634799999989,103.20507799999996,85.64111300000059,107.43603499999972
191,48.0771479999994,39.74365200000011,95.51269500000035,107.56396500000028,119.48730499999965,95.89746099999957,54.102539000000434,91.15380900000036,97.94873000000007,87.94873000000007,85.76904300000024,91.9228520000006,67.94873000000007,103.0771479999994
192,40.12841800000024,35.897460999999566,91.0258789999998,101.79492200000004,116.79492200000004,96.6665039999998,57.05126999999993,85.0,86.15380900000036,70.89746099999957,76.53857400000015,82.05126999999993,53.589844000000085,102.69238299999961
193,37.69238299999961,36.2822270000006,88.58984400000008,97.30761700000039,114.87158199999976,98.20507799999996,60.76904300000024,82.30761700000039,79.61523400000078,61.9228520000006,76.2822270000006,77.17968800000017,49.61523400000078,109.87158199999976
194,40.897460999999566,41.53857400000015,87.17968800000017,94.74365200000011,115.76904300000024,100.0,62.82031300000017,83.46142599999985,80.12841800000024,63.7177729999994,84.74365200000011,78.3334960000002,57.30761700000039,115.12841800000024
195,46.025878999999804,48.333496000000196,86.53857400000015,94.23095699999976,119.87158199999976,101.2822270000006,62.17968800000017,88.0771479999994,87.05126999999993,73.9741210000002,97.43603499999972,83.58984400000008,69.74365200000011,111.53857400000015
196,47.56396500000028,51.2822270000006,86.53857400000015,94.10253900000043,123.84619099999964,100.64111300000059,58.7177729999994,93.84619099999964,97.94873000000007,87.43603499999972,107.30761700000039,88.7177729999994,76.0258789999998,105.64111300000059
197,43.46142599999985,47.82031300000017,87.56396500000028,93.46142599999985,124.61523400000078,96.6665039999998,53.7177729999994,98.9741210000002,108.84619099999964,99.23095699999976,110.89746099999957,91.2822270000006,71.41015599999992,106.2822270000006
198,39.35888699999941,42.94873000000007,90.51269500000035,93.0771479999994,122.82031300000017,91.41015599999992,49.74365200000011,102.69238299999961,117.82031300000017,107.94873000000007,111.41015599999992,92.69238299999961,63.333496000000196,110.0
199,42.56396500000028,44.35888699999941,95.64111300000059,94.10253900000043,122.56396500000028,88.84619099999964,49.23095699999976,105.64111300000059,123.3334960000002,114.10253900000043,114.48730499999965,96.53857400000015,63.7177729999994,109.10253900000043
200,53.20507799999996,53.589844000000085,100.76904300000024,94.74365200000011,125.76904300000024,91.0258789999998,53.0771479999994,106.6665039999998,123.20507799999996,115.12841800000024,120.64111300000059,102.69238299999961,76.6665039999998,106.2822270000006
201,63.0771479999994,62.94873000000007,101.6665039999998,91.53857400000015,130.6411130000006,96.53857400000015,59.48730499999965,104.23095699999976,115.25634799999989,107.43603499999972,125.76904300000024,106.53857400000015,94.48730499999965,108.46142599999985
202,64.23095699999976,63.589844000000085,96.0258789999998,82.82031300000017,133.58984400000008,102.82031300000017,65.64111300000059,99.10253900000043,101.6665039999998,92.30761700000039,127.30761700000039,104.48730499999965,107.05126999999993,112.69238299999961
203,55.64111300000059,52.69238299999961,87.05126999999993,71.15380900000036,132.43603499999972,107.30761700000039,69.23095699999976,95.0,89.61523400000078,78.3334960000002,128.58984400000008,97.94873000000007,110.51269500000035,111.0258789999998
204,42.56396500000028,35.64111300000059,80.51269500000035,60.38476599999922,126.79492200000004,107.82031300000017,68.0771479999994,95.12841800000024,86.15380900000036,74.61523400000078,134.61523400000078,92.05126999999993,108.46142599999985,105.25634799999989
205,30.897460999999566,20.641113000000587,79.23095699999976,52.56396500000028,118.20507799999996,103.46142599999985,62.56396500000028,98.9741210000002,91.6665039999998,81.79492200000004,146.2822270000006,89.87158199999976,105.51269500000035,104.23095699999976
206,24.74365200000011,14.871581999999762,81.53857400000015,47.56396500000028,110.76904300000024,98.0771479999994,57.30761700000039,102.94873000000007,98.9741210000002,90.64111300000059,160.2563479999999,90.38476599999922,104.23095699999976,108.58984400000008
207,24.48730499999965,20.128418000000238,83.46142599999985,44.48730499999965,107.56396500000028,97.94873000000007,58.846190999999635,104.87158199999976,101.15380900000036,92.30761700000039,173.0771479999994,91.2822270000006,105.76904300000024,109.48730499999965
208,27.94873000000007,31.794922000000042,83.3334960000002,41.79492200000004,106.79492200000004,105.38476599999922,68.84619099999964,105.25634799999989,98.46142599999985,88.7177729999994,186.53857400000015,91.6665039999998,110.89746099999957,104.23095699999976
209,32.56396500000028,41.79492200000004,82.05126999999993,38.20507799999996,102.43603499999972,114.48730499999965,81.15380900000036,106.6665039999998,100.25634799999989,94.10253900000043,205.38476599999922,93.20507799999996,121.6665039999998,101.0258789999998
210,37.69238299999961,45.897460999999566,82.30761700000039,34.74365200000011,90.38476599999922,117.43603499999972,86.53857400000015,112.17968800000017,116.6665039999998,121.79492200000004,232.17968800000017,98.84619099999964,138.46142599999985,103.3334960000002
211,44.35888699999941,46.153809000000365,85.64111300000059,33.846190999999635,73.84619099999964,112.05126999999993,81.53857400000015,122.43603499999972,147.17968800000017,167.3076170000004,262.6923829999996,109.23095699999976,157.6923829999996,103.58984400000008
212,51.025878999999804,46.79492200000004,90.64111300000059,35.897460999999566,60.25634799999989,103.46142599999985,71.53857400000015,132.94873000000007,175.6411130000006,205.38476599999922,284.7436520000001,120.0,168.7177729999994,96.6665039999998
213,52.94873000000007,48.7177729999994,93.58984400000008,38.589844000000085,53.7177729999994,99.10253900000043,65.38476599999922,136.0258789999998,181.0258789999998,207.43603499999972,286.2822270000006,123.0771479999994,159.87158199999976,89.61523400000078
214,46.666503999999804,50.64111300000059,91.15380900000036,38.7177729999994,53.846190999999635,102.30761700000039,67.69238299999961,127.82031300000017,155.51269500000035,165.51269500000035,265.6411130000006,113.84619099999964,129.7436520000001,89.23095699999976
215,34.87158199999976,51.53857400000015,83.58984400000008,35.76904300000024,57.05126999999993,111.15380900000036,76.0258789999998,111.79492200000004,112.56396500000028,100.12841800000024,235.0,96.0258789999998,90.76904300000024,91.0258789999998
216,24.48730499999965,52.56396500000028,74.48730499999965,30.769043000000238,59.74365200000011,119.48730499999965,83.84619099999964,96.41015599999992,76.15380900000036,45.25634799999989,212.05126999999993,78.84619099999964,59.74365200000011,88.20507799999996
217,19.871581999999762,54.102539000000434,68.0771479999994,24.230956999999762,58.589844000000085,121.15380900000036,85.64111300000059,87.82031300000017,61.2822270000006,21.538574000000153,207.43603499999972,69.61523400000078,44.35888699999941,85.25634799999989
218,21.153809000000365,56.9228520000006,65.76904300000024,16.666503999999804,53.0771479999994,115.0,80.76904300000024,86.79492200000004,65.51269500000035,26.410155999999915,220.2563479999999,69.35888699999941,41.79492200000004,88.84619099999964
219,27.05126999999993,62.69238299999961,66.53857400000015,10.256347999999889,46.666503999999804,107.05126999999993,74.61523400000078,91.2822270000006,76.6665039999998,43.846190999999635,245.38476599999922,74.74365200000011,46.2822270000006,95.12841800000024
220,36.79492200000004,73.9741210000002,68.84619099999964,7.43603499999972,44.35888699999941,103.9741210000002,72.17968800000017,98.3334960000002,85.38476599999922,60.897460999999566,278.84619099999964,82.69238299999961,55.897460999999566,94.48730499999965
221,47.69238299999961,89.35888699999941,71.6665039999998,8.077147999999397,47.94873000000007,106.2822270000006,73.58984400000008,105.12841800000024,89.61523400000078,73.7177729999994,316.9228520000006,90.12841800000024,68.58984400000008,87.94873000000007
222,55.38476599999922,104.23095699999976,74.61523400000078,9.230956999999762,55.0,109.48730499999965,75.12841800000024,108.58984400000008,91.41015599999992,82.17968800000017,353.0771479999994,95.25634799999989,79.35888699999941,83.84619099999964
223,58.0771479999994,115.0,77.43603499999972,8.974121000000196,62.43603499999972,109.87158199999976,75.12841800000024,108.84619099999964,92.43603499999972,85.64111300000059,380.2563479999999,97.69238299999961,83.7177729999994,82.69238299999961
224,59.23095699999976,122.94873000000007,80.25634799999989,7.43603499999972,69.10253900000043,108.20507799999996,75.64111300000059,109.23095699999976,94.23095699999976,84.48730499999965,396.15380900000036,99.35888699999941,83.58984400000008,77.30761700000039
225,63.46142599999985,131.41015599999992,82.94873000000007,5.897460999999566,73.46142599999985,106.79492200000004,79.23095699999976,113.84619099999964,97.94873000000007,83.20507799999996,405.2563479999999,102.94873000000007,85.64111300000059,67.94873000000007
226,71.53857400000015,142.43603499999972,85.25634799999989,5.0,73.84619099999964,106.2822270000006,85.25634799999989,122.69238299999961,103.84619099999964,86.6665039999998,412.94873000000007,108.20507799999996,92.94873000000007,64.23095699999976
227,79.87158199999976,155.89746099999957,86.15380900000036,4.871581999999762,71.41015599999992,106.6665039999998,92.05126999999993,131.79492200000004,109.87158199999976,95.38476599999922,421.4101559999999,111.79492200000004,101.41015599999992,69.61523400000078
228,83.84619099999964,169.7436520000001,85.25634799999989,5.128418000000238,70.38476599999922,108.20507799999996,97.56396500000028,136.79492200000004,112.56396500000028,103.84619099999964,428.46142599999985,110.64111300000059,103.0771479999994,77.05126999999993
229,80.51269500000035,179.61523400000078,82.56396500000028,4.871581999999762,73.3334960000002,109.35888699999941,100.25634799999989,135.2563479999999,109.35888699999941,104.35888699999941,429.6152340000008,104.35888699999941,92.82031300000017,81.9228520000006
230,70.76904300000024,181.53857400000015,78.84619099999964,2.9487300000000687,78.0771479999994,107.56396500000028,98.7177729999994,127.69238299999961,100.0,92.43603499999972,421.53857400000015,95.12841800000024,73.58984400000008,88.46142599999985
231,59.87158199999976,176.0258789999998,75.89746099999957,0.256347999999889,80.51269500000035,103.84619099999964,94.48730499999965,118.0771479999994,87.69238299999961,71.2822270000006,407.17968800000017,87.17968800000017,55.38476599999922,98.20507799999996
232,55.897460999999566,168.0771479999994,75.12841800000024,-1.0258789999998044,79.10253900000043,102.69238299999961,92.17968800000017,111.15380900000036,77.43603499999972,49.74365200000011,394.6152340000008,84.23095699999976,49.61523400000078,104.10253900000043
233,62.69238299999961,163.0771479999994,76.53857400000015,-0.38476599999921746,75.12841800000024,106.79492200000004,94.74365200000011,109.61523400000078,71.0258789999998,36.53857400000015,390.51269500000035,87.56396500000028,60.51269500000035,102.69238299999961
234,76.9228520000006,161.2822270000006,78.58984400000008,0.6411130000005869,69.23095699999976,112.56396500000028,100.0,111.15380900000036,66.6665039999998,32.56396500000028,393.84619099999964,94.35888699999941,81.2822270000006,101.15380900000036
235,91.41015599999992,159.7436520000001,80.76904300000024,0.8974609999995664,62.05126999999993,113.3334960000002,103.58984400000008,112.56396500000028,62.56396500000028,34.61523400000078,398.20507799999996,101.0258789999998,102.05126999999993,105.76904300000024
236,102.82031300000017,156.9228520000006,84.10253900000043,1.4101559999999154,55.897460999999566,107.69238299999961,104.10253900000043,113.9741210000002,62.43603499999972,41.025878999999804,398.84619099999964,106.79492200000004,119.35888699999941,111.41015599999992
237,112.69238299999961,154.3588869999994,89.10253900000043,3.846190999999635,54.23095699999976,100.38476599999922,104.61523400000078,118.84619099999964,72.82031300000017,55.0,396.0258789999998,114.23095699999976,137.3076170000004,111.0258789999998
238,123.46142599999985,152.94873000000007,95.38476599999922,8.077147999999397,56.9228520000006,95.89746099999957,107.30761700000039,128.58984400000008,95.64111300000059,78.46142599999985,392.3076170000004,124.87158199999976,159.48730499999965,108.3334960000002
239,134.48730499999965,152.3076170000004,101.2822270000006,12.43603499999972,61.153809000000365,95.89746099999957,111.2822270000006,139.23095699999976,123.58984400000008,106.6665039999998,387.3076170000004,137.05126999999993,182.6923829999996,110.0
240,144.3588869999994,152.3076170000004,105.38476599999922,16.025878999999804,65.12841800000024,99.87158199999976,114.23095699999976,145.6411130000006,145.2563479999999,129.87158199999976,378.3334960000002,146.6665039999998,198.9741210000002,113.9741210000002
241,151.79492200000004,152.43603499999972,106.79492200000004,19.358886999999413,69.10253900000043,107.43603499999972,116.53857400000015,146.41015599999992,152.43603499999972,139.7436520000001,362.5639650000003,151.79492200000004,203.46142599999985,115.12841800000024
242,155.2563479999999,150.6411130000006,105.76904300000024,22.05126999999993,73.0771479999994,116.15380900000036,119.10253900000043,143.7177729999994,145.38476599999922,134.61523400000078,338.84619099999964,152.17968800000017,197.94873000000007,115.89746099999957
243,154.48730499999965,144.61523400000078,103.58984400000008,23.717772999999397,76.15380900000036,121.41015599999992,121.6665039999998,140.12841800000024,130.76904300000024,119.61523400000078,308.7177729999994,148.9741210000002,189.61523400000078,121.15380900000036
244,153.20507799999996,136.15380900000036,102.05126999999993,25.641113000000587,79.61523400000078,121.15380900000036,123.58984400000008,136.9228520000006,117.56396500000028,102.30761700000039,277.6923829999996,144.48730499999965,186.2822270000006,126.9228520000006
245,156.41015599999992,131.15380900000036,102.43603499999972,29.74365200000011,87.56396500000028,118.3334960000002,126.53857400000015,135.12841800000024,110.38476599999922,88.58984400000008,252.3076170000004,142.43603499999972,191.15380900000036,126.6665039999998
246,165.0,132.56396500000028,104.10253900000043,36.2822270000006,101.0258789999998,116.79492200000004,132.56396500000028,134.3588869999994,106.9228520000006,79.61523400000078,236.15380900000036,144.48730499999965,200.2563479999999,123.84619099999964
247,174.7436520000001,136.6665039999998,105.89746099999957,43.20507799999996,114.61523400000078,116.79492200000004,140.89746099999957,133.7177729999994,103.58984400000008,75.64111300000059,228.46142599999985,149.10253900000043,206.53857400000015,126.41015599999992
248,181.2822270000006,137.17968800000017,107.56396500000028,49.102539000000434,120.64111300000059,115.25634799999989,146.6665039999998,134.3588869999994,104.74365200000011,82.05126999999993,227.56396500000028,154.7436520000001,208.84619099999964,132.17968800000017
249,184.87158199999976,132.17968800000017,110.0,55.25634799999989,117.43603499999972,112.17968800000017,146.9228520000006,139.7436520000001,119.10253900000043,105.51269500000035,231.2822270000006,161.79492200000004,212.05126999999993,132.43603499999972
250,187.56396500000028,123.3334960000002,113.46142599999985,62.30761700000039,109.87158199999976,110.76904300000024,142.94873000000007,151.15380900000036,147.56396500000028,143.0771479999994,233.7177729999994,170.76904300000024,219.48730499999965,128.46142599999985
251,190.0,112.82031300000017,116.2822270000006,69.48730499999965,104.10253900000043,113.0771479999994,139.48730499999965,162.6923829999996,176.0258789999998,177.82031300000017,225.76904300000024,178.46142599999985,227.56396500000028,130.12841800000024
252,191.53857400000015,102.30761700000039,117.17968800000017,76.41015599999992,102.43603499999972,117.43603499999972,139.48730499999965,165.51269500000035,186.53857400000015,192.82031300000017,203.20507799999996,181.15380900000036,231.79492200000004,138.20507799999996
253,194.87158199999976,95.38476599999922,116.15380900000036,84.87158199999976,105.25634799999989,120.38476599999922,143.0771479999994,157.6923829999996,175.6411130000006,187.94873000000007,173.84619099999964,179.87158199999976,235.2563479999999,142.56396500000028
254,202.6923829999996,94.61523400000078,114.87158199999976,97.43603499999972,111.41015599999992,120.25634799999989,147.94873000000007,146.15380900000036,156.0258789999998,179.87158199999976,150.51269500000035,179.23095699999976,244.10253900000043,141.15380900000036
255,211.79492200000004,96.0258789999998,113.7177729999994,112.94873000000007,116.6665039999998,117.17968800000017,151.9228520000006,138.58984400000008,142.56396500000028,182.17968800000017,138.3334960000002,181.0258789999998,256.4101559999999,142.94873000000007
256,215.12841800000024,91.9228520000006,111.79492200000004,127.69238299999961,114.23095699999976,112.30761700000039,153.46142599999985,136.53857400000015,139.10253900000043,191.79492200000004,130.2563479999999,180.6411130000006,261.6665039999998,152.43603499999972
257,209.7436520000001,79.10253900000043,107.82031300000017,139.10253900000043,100.76904300000024,108.9741210000002,153.58984400000008,137.43603499999972,141.41015599999992,197.82031300000017,117.43603499999972,174.10253900000043,253.46142599999985,160.76904300000024
258,201.15380900000036,63.589844000000085,103.46142599999985,149.10253900000043,79.74365200000011,109.61523400000078,155.12841800000024,140.38476599999922,145.38476599999922,196.79492200000004,99.23095699999976,164.48730499999965,239.10253900000043,162.43603499999972
259,196.41015599999992,53.0771479999994,101.79492200000004,160.6411130000006,59.102539000000434,112.94873000000007,158.58984400000008,144.48730499999965,149.48730499999965,195.12841800000024,81.6665039999998,158.20507799999996,230.51269500000035,162.94873000000007
260,196.79492200000004,48.846190999999635,103.58984400000008,175.12841800000024,45.12841800000024,114.10253900000043,161.9228520000006,147.17968800000017,151.41015599999992,198.3334960000002,68.58984400000008,157.3076170000004,232.17968800000017,165.6411130000006
261,199.61523400000078,47.82031300000017,106.53857400000015,192.6923829999996,39.23095699999976,110.38476599999922,162.43603499999972,145.38476599999922,148.0771479999994,206.41015599999992,60.0,158.84619099999964,239.3588869999994,161.2822270000006
262,204.3588869999994,48.974121000000196,108.3334960000002,213.7177729999994,37.69238299999961,105.0,160.76904300000024,140.51269500000035,141.0258789999998,217.56396500000028,55.76904300000024,160.89746099999957,247.17968800000017,143.9741210000002
263,212.05126999999993,52.43603499999972,109.10253900000043,238.46142599999985,31.410155999999915,101.79492200000004,158.84619099999964,137.17968800000017,136.0258789999998,232.3076170000004,56.025878999999804,164.10253900000043,254.48730499999965,124.35888699999941
264,221.41015599999992,56.025878999999804,109.87158199999976,264.48730499999965,9.743652000000111,101.2822270000006,157.6923829999996,138.58984400000008,138.0771479999994,251.53857400000015,57.94873000000007,167.82031300000017,261.53857400000015,115.64111300000059
265,227.94873000000007,55.0,110.89746099999957,288.0771479999994,-30.512939000000188,100.89746099999957,157.82031300000017,143.9741210000002,146.9228520000006,272.6923829999996,56.9228520000006,169.48730499999965,267.5639650000003,114.61523400000078
266,229.61523400000078,48.20507799999996,111.0258789999998,307.82031300000017,-79.23071300000038,100.25634799999989,159.87158199999976,150.89746099999957,158.0771479999994,292.94873000000007,50.76904300000024,167.82031300000017,271.6665039999998,109.61523400000078
267,227.82031300000017,38.7177729999994,109.61523400000078,325.6411130000006,-120.1281740000004,100.51269500000035,164.23095699999976,156.15380900000036,165.51269500000035,310.12841800000024,41.2822270000006,164.61523400000078,272.6923829999996,101.41015599999992
268,225.12841800000024,30.0,106.53857400000015,344.23095699999976,-143.71801800000003,101.41015599999992,168.0771479999994,156.41015599999992,164.10253900000043,321.79492200000004,29.74365200000011,160.76904300000024,268.0771479999994,100.25634799999989
269,223.3334960000002,23.589844000000085,101.15380900000036,364.23095699999976,-152.6923829999996,101.2822270000006,167.94873000000007,149.23095699999976,152.56396500000028,326.0258789999998,15.641113000000587,154.23095699999976,256.4101559999999,106.0258789999998
270,224.87158199999976,20.384765999999217,93.84619099999964,385.3847659999992,-156.15380900000036,100.51269500000035,163.9741210000002,137.05126999999993,136.2822270000006,325.51269500000035,-0.38476599999921746,144.3588869999994,241.0258789999998,107.94873000000007
271,231.9228520000006,19.615234000000783,87.05126999999993,406.6665039999998,-162.179443,101.0258789999998,159.48730499999965,125.64111300000059,124.74365200000011,327.94873000000007,-15.38452099999995,134.48730499999965,229.48730499999965,103.20507799999996
272,242.82031300000017,17.94873000000007,83.58984400000008,426.0258789999998,-175.0,101.6665039999998,156.41015599999992,119.35888699999941,124.35888699999941,340.3847659999992,-26.666747999999643,128.7177729999994,226.15380900000036,100.89746099999957
273,252.56396500000028,11.794922000000042,83.46142599999985,441.6665039999998,-194.4870609999998,98.0771479999994,152.6923829999996,118.20507799999996,133.20507799999996,361.53857400000015,-34.48706099999981,126.15380900000036,228.9741210000002,105.89746099999957
274,258.20507799999996,2.6923829999996087,84.35888699999941,453.84619099999964,-215.89746100000002,89.23095699999976,146.9228520000006,119.10253900000043,143.46142599999985,384.10253900000043,-41.28198199999997,123.84619099999964,232.43603499999972,109.48730499999965
275,261.6665039999998,-2.6923829999996087,84.23095699999976,464.6152340000008,-233.20507799999996,79.61523400000078,140.6411130000006,119.87158199999976,149.10253900000043,400.76904300000024,-48.07690400000001,120.25634799999989,232.6923829999996,105.64111300000059
276,265.6411130000006,0.38476599999921746,83.58984400000008,474.23095699999976,-244.23071300000038,74.23095699999976,136.6665039999998,119.61523400000078,148.20507799999996,409.23095699999976,-56.153809000000365,115.76904300000024,228.58984400000008,101.41015599999992
277,269.7436520000001,9.871581999999762,82.56396500000028,480.51269500000035,-251.53857400000015,74.23095699999976,135.2563479999999,117.82031300000017,142.82031300000017,410.6411130000006,-67.17944299999999,110.64111300000059,220.89746099999957,104.74365200000011
278,272.4360349999997,21.025878999999804,81.2822270000006,481.15380900000036,-257.179443,77.17968800000017,135.0,115.12841800000024,136.9228520000006,408.46142599999985,-80.51293900000019,105.0,212.17968800000017,110.64111300000059
279,274.48730499999965,31.153809000000365,80.12841800000024,476.9228520000006,-258.84619099999964,81.0258789999998,135.38476599999922,113.7177729999994,133.7177729999994,407.3076170000004,-91.92309599999999,101.41015599999992,206.53857400000015,109.10253900000043
280,277.94873000000007,40.38476599999922,81.2822270000006,470.12841800000024,-254.35888699999987,83.7177729999994,135.6411130000006,115.25634799999989,134.23095699999976,409.48730499999965,-96.53857400000015,101.9228520000006,206.15380900000036,102.69238299999961
281,282.5639650000003,49.61523400000078,85.25634799999989,462.5639650000003,-245.2563479999999,83.3334960000002,133.9741210000002,118.9741210000002,136.6665039999998,413.9741210000002,-94.61547900000005,106.0258789999998,209.23095699999976,101.6665039999998
282,286.2822270000006,58.589844000000085,90.51269500000035,454.23095699999976,-235.0,80.38476599999922,129.48730499999965,122.56396500000028,138.7177729999994,417.17968800000017,-90.76928699999962,110.38476599999922,212.43603499999972,106.53857400000015
283,286.9228520000006,66.79492200000004,94.48730499999965,443.5898440000001,-224.23071300000038,78.20507799999996,123.9741210000002,124.35888699999941,138.7177729999994,414.48730499999965,-90.25634799999989,112.30761700000039,213.7177729999994,108.58984400000008
284,282.6923829999996,72.69238299999961,95.76904300000024,428.46142599999985,-211.41015600000037,80.0,120.76904300000024,124.23095699999976,136.2822270000006,403.0771479999994,-96.02563499999997,111.0258789999998,212.3076170000004,104.74365200000011
285,273.0771479999994,74.35888699999941,94.48730499999965,406.79492200000004,-195.89746100000002,84.61523400000078,120.76904300000024,122.94873000000007,130.76904300000024,382.17968800000017,-107.43579099999943,107.30761700000039,207.56396500000028,102.69238299999961
286,260.3847659999992,72.69238299999961,92.56396500000028,380.12841800000024,-178.84619099999964,87.56396500000028,122.30761700000039,121.53857400000015,123.3334960000002,355.6411130000006,-119.8718259999996,103.20507799999996,200.76904300000024,106.53857400000015
287,250.76904300000024,72.30761700000039,92.82031300000017,353.3334960000002,-160.76928699999962,87.30761700000039,123.58984400000008,121.9228520000006,117.17968800000017,330.51269500000035,-126.79492200000004,102.56396500000028,196.79492200000004,109.74365200000011
288,248.7177729999994,77.43603499999972,97.94873000000007,331.2822270000006,-141.41015600000037,85.64111300000059,124.35888699999941,125.25634799999989,114.48730499999965,312.3076170000004,-123.97436500000003,107.82031300000017,199.7436520000001,107.05126999999993
289,252.05126999999993,86.0258789999998,107.05126999999993,313.7177729999994,-121.28198199999997,85.12841800000024,124.48730499999965,129.23095699999976,113.20507799999996,299.10253900000043,-113.84619099999964,116.53857400000015,208.46142599999985,104.10253900000043
290,253.3334960000002,92.94873000000007,115.38476599999922,296.0258789999998,-102.17944299999999,87.17968800000017,124.35888699999941,130.76904300000024,110.12841800000024,284.7436520000001,-102.94872999999961,123.20507799999996,217.6923829999996,107.17968800000017
291,247.56396500000028,95.38476599999922,118.46142599999985,272.94873000000007,-84.10253899999998,92.69238299999961,125.64111300000059,129.7436520000001,104.48730499999965,264.87158199999976,-94.35888699999987,123.84619099999964,223.20507799999996,111.53857400000015
292,235.6411130000006,95.25634799999989,116.2822270000006,243.20507799999996,-66.02563499999997,100.76904300000024,129.7436520000001,129.10253900000043,100.12841800000024,241.15380900000036,-85.38452099999995,119.61523400000078,225.12841800000024,109.61523400000078
293,222.05126999999993,95.12841800000024,112.17968800000017,209.48730499999965,-47.82055700000001,107.69238299999961,135.51269500000035,130.89746099999957,100.64111300000059,217.94873000000007,-71.02563499999997,114.48730499999965,225.51269500000035,104.48730499999965
294,210.6411130000006,95.89746099999957,109.74365200000011,176.6665039999998,-30.25634799999989,109.10253900000043,139.87158199999976,134.10253900000043,106.2822270000006,198.7177729999994,-48.974365000000034,112.05126999999993,226.79492200000004,104.74365200000011
295,203.9741210000002,97.43603499999972,110.12841800000024,149.3588869999994,-12.435790999999426,105.51269500000035,141.53857400000015,136.79492200000004,113.20507799999996,184.23095699999976,-20.1281740000004,113.84619099999964,232.05126999999993,110.25634799999989
296,202.17968800000017,99.23095699999976,112.82031300000017,128.9741210000002,7.43603499999972,101.2822270000006,142.17968800000017,138.46142599999985,116.9228520000006,172.94873000000007,11.922852000000603,118.9741210000002,243.58984400000008,112.05126999999993
297,201.41015599999992,99.74365200000011,116.53857400000015,112.94873000000007,29.74365200000011,99.74365200000011,143.3334960000002,138.84619099999964,113.84619099999964,161.0258789999998,42.94873000000007,124.10253900000043,259.48730499999965,107.69238299999961
298,196.79492200000004,96.6665039999998,119.87158199999976,96.79492200000004,52.82031300000017,100.51269500000035,145.2563479999999,137.3076170000004,104.35888699999941,145.89746099999957,69.61523400000078,125.76904300000024,273.3334960000002,103.46142599999985
299,186.9228520000006,90.51269500000035,121.41015599999992,78.7177729999994,76.53857400000015,102.43603499999972,148.20507799999996,134.48730499999965,93.46142599999985,130.0,93.46142599999985,123.46142599999985,280.89746099999957,102.17968800000017
300,175.51269500000035,84.23095699999976,121.79492200000004,61.025878999999804,101.41015599999992,105.38476599999922,152.56396500000028,133.0771479999994,87.69238299999961,118.84619099999964,119.23095699999976,120.64111300000059,283.20507799999996,98.58984400000008
301,166.15380900000036,80.25634799999989,122.05126999999993,46.53857400000015,126.15380900000036,108.7177729999994,157.56396500000028,135.0,89.74365200000011,114.48730499999965,148.9741210000002,119.74365200000011,284.87158199999976,90.64111300000059
302,158.7177729999994,77.82031300000017,122.05126999999993,36.025878999999804,146.2822270000006,110.38476599999922,161.0258789999998,138.9741210000002,95.64111300000059,113.20507799999996,179.3588869999994,120.51269500000035,288.46142599999985,83.84619099999964
303,151.6665039999998,75.89746099999957,121.0258789999998,28.205077999999958,158.9741210000002,109.87158199999976,161.6665039999998,142.82031300000017,100.0,110.12841800000024,204.87158199999976,121.15380900000036,294.6152340000008,82.56396500000028
304,145.51269500000035,75.25634799999989,119.23095699999976,22.43603499999972,166.6665039999998,110.38476599999922,161.6665039999998,146.2822270000006,100.76904300000024,104.87158199999976,223.3334960000002,121.9228520000006,303.0771479999994,82.05126999999993
305,142.05126999999993,76.79492200000004,118.9741210000002,18.974121000000196,173.46142599999985,114.10253900000043,163.46142599999985,149.87158199999976,100.12841800000024,100.89746099999957,236.0258789999998,123.84619099999964,312.3076170000004,78.7177729999994
306,140.6411130000006,78.9741210000002,121.53857400000015,17.82031300000017,179.7436520000001,118.3334960000002,166.9228520000006,152.6923829999996,100.12841800000024,100.64111300000059,245.6411130000006,127.17968800000017,318.84619099999964,77.69238299999961
307,139.7436520000001,79.10253900000043,125.76904300000024,18.846190999999635,183.84619099999964,118.84619099999964,169.61523400000078,153.3334960000002,101.53857400000015,104.10253900000043,253.84619099999964,130.6411130000006,320.0,84.35888699999941
308,138.9741210000002,77.05126999999993,129.48730499999965,21.153809000000365,186.0258789999998,114.87158199999976,170.38476599999922,152.82031300000017,103.9741210000002,110.38476599999922,261.6665039999998,133.9741210000002,316.9228520000006,94.48730499999965
309,138.3334960000002,74.74365200000011,131.53857400000015,23.974121000000196,188.7177729999994,109.35888699999941,169.48730499999965,152.6923829999996,107.30761700000039,117.43603499999972,268.7177729999994,137.05126999999993,312.6923829999996,100.25634799999989
310,136.41015599999992,73.20507799999996,132.56396500000028,25.897460999999566,191.79492200000004,105.25634799999989,167.94873000000007,153.46142599999985,110.12841800000024,122.30761700000039,272.17968800000017,138.9741210000002,307.94873000000007,102.56396500000028
311,131.79492200000004,71.9228520000006,133.20507799999996,26.282227000000603,193.46142599999985,104.10253900000043,166.2822270000006,153.84619099999964,111.41015599999992,123.3334960000002,269.7436520000001,138.84619099999964,301.9228520000006,107.05126999999993
312,126.15380900000036,71.53857400000015,133.9741210000002,26.538574000000153,193.20507799999996,107.05126999999993,165.89746099999957,153.84619099999964,112.17968800000017,122.17968800000017,263.5898440000001,138.3334960000002,295.6411130000006,112.82031300000017
313,122.82031300000017,72.69238299999961,134.61523400000078,28.589844000000085,193.3334960000002,113.58984400000008,168.46142599999985,154.3588869999994,113.3334960000002,121.53857400000015,257.6923829999996,139.61523400000078,290.6411130000006,114.35888699999941
314,122.05126999999993,74.23095699999976,134.87158199999976,32.43603499999972,194.48730499999965,120.0,172.56396500000028,155.0,113.3334960000002,120.64111300000059,253.58984400000008,142.17968800000017,286.15380900000036,113.0771479999994
315,120.89746099999957,73.84619099999964,133.58984400000008,36.410155999999915,195.12841800000024,121.6665039999998,175.6411130000006,153.9741210000002,109.48730499999965,116.53857400000015,248.9741210000002,143.0771479999994,279.6152340000008,115.38476599999922
316,117.43603499999972,71.6665039999998,130.89746099999957,38.589844000000085,194.48730499999965,118.46142599999985,176.15380900000036,150.76904300000024,102.05126999999993,108.58984400000008,243.0771479999994,140.51269500000035,270.76904300000024,121.2822270000006
317,112.82031300000017,70.0,128.20507799999996,39.48730499999965,193.7177729999994,114.74365200000011,175.38476599999922,147.43603499999972,95.51269500000035,100.51269500000035,237.3076170000004,136.6665039999998,262.6923829999996,123.7177729999994
318,109.23095699999976,69.61523400000078,127.56396500000028,40.25634799999989,193.3334960000002,113.7177729999994,175.0,146.0258789999998,94.10253900000043,96.6665039999998,232.3076170000004,134.10253900000043,257.3076170000004,121.0258789999998
319,106.79492200000004,68.84619099999964,129.48730499999965,41.666503999999804,191.79492200000004,115.12841800000024,174.7436520000001,145.89746099999957,97.82031300000017,98.58984400000008,226.9228520000006,133.46142599999985,254.10253900000043,119.61523400000078
320,105.76904300000024,67.30761700000039,132.6923829999996,44.48730499999965,188.3334960000002,116.9228520000006,173.3334960000002,146.53857400000015,104.35888699999941,105.51269500000035,220.76904300000024,134.48730499999965,251.79492200000004,122.30761700000039
321,106.79492200000004,67.05126999999993,135.89746099999957,49.74365200000011,185.38476599999922,118.46142599999985,171.0258789999998,147.94873000000007,111.41015599999992,115.12841800000024,215.89746099999957,137.3076170000004,251.0258789999998,123.84619099999964
322,109.10253900000043,68.9741210000002,138.84619099999964,56.79492200000004,185.51269500000035,119.23095699999976,168.46142599999985,150.38476599999922,116.9228520000006,124.35888699999941,213.7177729999994,141.2822270000006,251.53857400000015,121.0258789999998
323,109.61523400000078,70.38476599999922,141.53857400000015,62.94873000000007,187.94873000000007,117.94873000000007,165.6411130000006,152.56396500000028,118.46142599999985,129.10253900000043,212.6923829999996,143.58984400000008,250.2563479999999,118.84619099999964
324,107.05126999999993,68.9741210000002,142.94873000000007,65.64111300000059,189.87158199999976,114.87158199999976,162.82031300000017,153.46142599999985,116.15380900000036,128.0771479999994,210.12841800000024,143.0771479999994,244.7436520000001,121.0258789999998
325,103.58984400000008,65.76904300000024,142.82031300000017,65.25634799999989,190.2563479999999,113.0771479999994,161.6665039999998,153.9741210000002,113.3334960000002,125.25634799999989,205.2563479999999,141.15380900000036,236.9228520000006,122.43603499999972
326,102.43603499999972,62.94873000000007,141.9228520000006,64.23095699999976,190.0,115.0,163.3334960000002,155.76904300000024,114.23095699999976,125.89746099999957,199.23095699999976,140.6411130000006,230.38476599999922,118.20507799999996
327,103.20507799999996,60.76904300000024,141.2822270000006,64.10253900000043,190.0,119.87158199999976,166.53857400000015,158.0771479999994,119.35888699999941,131.9228520000006,192.82031300000017,142.05126999999993,227.43603499999972,112.94873000000007
328,103.9741210000002,58.589844000000085,141.41015599999992,65.89746099999957,190.38476599999922,124.10253900000043,168.58984400000008,159.3588869999994,125.51269500000035,140.38476599999922,187.17968800000017,143.7177729999994,228.0771479999994,112.82031300000017
329,104.74365200000011,58.333496000000196,142.17968800000017,70.38476599999922,192.6923829999996,125.76904300000024,167.82031300000017,158.9741210000002,129.7436520000001,148.20507799999996,184.61523400000078,145.38476599999922,232.3076170000004,114.35888699999941
330,107.17968800000017,62.17968800000017,143.7177729999994,76.79492200000004,197.6923829999996,125.38476599999922,165.38476599999922,158.3334960000002,131.15380900000036,153.0771479999994,186.2822270000006,147.3076170000004,239.61523400000078,110.89746099999957
331,110.38476599999922,68.3334960000002,145.6411130000006,82.43603499999972,203.0771479999994,123.9741210000002,162.3076170000004,158.0771479999994,129.23095699999976,153.7177729999994,188.84619099999964,149.48730499999965,245.51269500000035,104.87158199999976
332,111.6665039999998,71.6665039999998,146.2822270000006,84.61523400000078,204.7436520000001,122.05126999999993,158.9741210000002,157.82031300000017,124.87158199999976,149.87158199999976,187.3076170000004,150.12841800000024,245.51269500000035,103.7177729999994
333,110.51269500000035,70.0,144.87158199999976,83.3334960000002,202.56396500000028,121.2822270000006,156.6665039999998,157.6923829999996,120.76904300000024,144.3588869999994,180.76904300000024,148.7177729999994,239.48730499999965,107.30761700000039
334,108.58984400000008,65.89746099999957,142.17968800000017,81.0258789999998,200.12841800000024,123.9741210000002,156.53857400000015,158.7177729999994,120.12841800000024,141.9228520000006,173.3334960000002,145.89746099999957,232.94873000000007,108.46142599999985
335,106.6665039999998,62.17968800000017,140.2563479999999,79.74365200000011,199.7436520000001,129.10253900000043,158.0771479999994,160.12841800000024,122.56396500000028,143.3334960000002,168.84619099999964,142.6923829999996,229.61523400000078,106.2822270000006
336,103.58984400000008,59.74365200000011,138.84619099999964,79.35888699999941,200.12841800000024,131.9228520000006,158.0771479999994,158.9741210000002,124.74365200000011,145.0,167.05126999999993,138.58984400000008,228.84619099999964,106.79492200000004
337,99.23095699999976,59.102539000000434,136.9228520000006,79.61523400000078,200.2563479999999,130.0,154.3588869999994,154.10253900000043,123.3334960000002,142.56396500000028,165.76904300000024,134.23095699999976,227.17968800000017,111.41015599999992
338,96.41015599999992,61.025878999999804,134.23095699999976,81.15380900000036,200.76904300000024,125.76904300000024,148.46142599999985,147.6923829999996,119.10253900000043,136.41015599999992,163.84619099999964,131.15380900000036,224.23095699999976,113.3334960000002
339,96.79492200000004,65.12841800000024,132.56396500000028,83.84619099999964,202.82031300000017,123.46142599999985,142.82031300000017,143.0771479999994,114.35888699999941,129.7436520000001,161.2822270000006,130.51269500000035,220.76904300000024,110.12841800000024
340,98.0771479999994,67.30761700000039,132.3076170000004,85.76904300000024,204.87158199999976,123.9741210000002,139.3588869999994,141.15380900000036,110.64111300000059,125.0,157.43603499999972,130.6411130000006,216.79492200000004,107.82031300000017
341,97.05126999999993,63.7177729999994,131.9228520000006,85.12841800000024,205.2563479999999,125.89746099999957,138.46142599999985,140.89746099999957,108.20507799999996,122.56396500000028,151.6665039999998,129.48730499999965,212.43603499999972,110.0
342,93.7177729999994,56.2822270000006,130.51269500000035,82.30761700000039,204.61523400000078,128.0771479999994,139.87158199999976,141.6665039999998,107.56396500000028,122.56396500000028,146.15380900000036,126.9228520000006,209.61523400000078,111.41015599999992
343,90.38476599999922,49.61523400000078,128.84619099999964,79.61523400000078,203.9741210000002,128.9741210000002,142.82031300000017,143.3334960000002,109.74365200000011,124.74365200000011,143.3334960000002,125.0,210.51269500000035,107.82031300000017
344,88.84619099999964,46.9228520000006,128.84619099999964,78.3334960000002,202.43603499999972,127.30761700000039,144.48730499999965,145.76904300000024,113.84619099999964,128.46142599999985,143.46142599999985,125.0,214.3588869999994,104.61523400000078
345,89.23095699999976,48.7177729999994,131.15380900000036,79.35888699999941,199.10253900000043,122.69238299999961,142.17968800000017,148.46142599999985,118.84619099999964,132.56396500000028,145.0,127.05126999999993,218.58984400000008,107.17968800000017
346,92.43603499999972,53.589844000000085,134.3588869999994,82.30761700000039,195.76904300000024,118.7177729999994,137.56396500000028,151.9228520000006,123.7177729999994,137.05126999999993,147.43603499999972,130.76904300000024,222.82031300000017,111.41015599999992
347,97.82031300000017,59.87158199999976,137.17968800000017,85.51269500000035,195.6411130000006,119.61523400000078,134.7436520000001,156.41015599999992,127.69238299999961,141.15380900000036,150.51269500000035,135.38476599999922,227.17968800000017,110.25634799999989
348,101.6665039999998,63.46142599999985,137.94873000000007,86.53857400000015,198.58984400000008,125.38476599999922,136.6665039999998,159.7436520000001,128.9741210000002,142.6923829999996,151.9228520000006,138.20507799999996,230.12841800000024,106.41015599999992
349,99.74365200000011,60.76904300000024,135.76904300000024,83.7177729999994,200.6411130000006,131.6665039999998,141.9228520000006,159.3588869999994,126.6665039999998,139.61523400000078,149.87158199999976,137.05126999999993,229.48730499999965,107.17968800000017
350,93.0771479999994,53.846190999999635,131.15380900000036,78.9741210000002,198.9741210000002,134.87158199999976,146.79492200000004,155.51269500000035,122.94873000000007,133.9741210000002,145.6411130000006,132.94873000000007,226.53857400000015,111.2822270000006
351,88.3334960000002,49.23095699999976,127.43603499999972,76.41015599999992,194.23095699999976,134.23095699999976,148.0771479999994,152.05126999999993,121.9228520000006,131.53857400000015,144.23095699999976,130.51269500000035,226.6665039999998,111.41015599999992
352,90.51269500000035,51.410155999999915,127.82031300000017,78.20507799999996,187.43603499999972,130.2563479999999,143.9741210000002,152.17968800000017,125.12841800000024,135.51269500000035,148.0771479999994,132.94873000000007,232.3076170000004,107.17968800000017
353,98.58984400000008,58.20507799999996,132.17968800000017,83.0771479999994,179.7436520000001,124.10253900000043,135.6411130000006,155.0,129.87158199999976,143.3334960000002,154.61523400000078,138.7177729999994,241.0258789999998,106.0258789999998
354,107.05126999999993,64.48730499999965,137.17968800000017,87.56396500000028,172.3076170000004,118.7177729999994,127.05126999999993,158.0771479999994,131.9228520000006,149.7436520000001,159.48730499999965,143.7177729999994,247.56396500000028,109.61523400000078
355,111.6665039999998,66.0258789999998,139.48730499999965,89.61523400000078,167.94873000000007,117.17968800000017,122.43603499999972,159.61523400000078,130.2563479999999,151.53857400000015,159.87158199999976,145.51269500000035,249.61523400000078,111.6665039999998
356,110.89746099999957,62.69238299999961,138.84619099999964,89.61523400000078,166.9228520000006,119.48730499999965,122.56396500000028,158.84619099999964,126.41015599999992,148.58984400000008,156.15380900000036,144.3588869999994,248.3334960000002,109.48730499999965
357,106.6665039999998,57.17968800000017,137.56396500000028,89.10253900000043,167.17968800000017,121.79492200000004,123.0771479999994,155.6411130000006,122.94873000000007,143.3334960000002,150.2563479999999,141.9228520000006,246.2822270000006,108.3334960000002
358,103.58984400000008,54.102539000000434,137.17968800000017,90.12841800000024,166.9228520000006,120.76904300000024,120.25634799999989,151.0258789999998,122.17968800000017,140.38476599999922,145.76904300000024,140.89746099999957,247.94873000000007,111.53857400000015
359,106.41015599999992,57.43603499999972,137.82031300000017,94.10253900000043,166.79492200000004,117.56396500000028,114.74365200000011,147.94873000000007,125.12841800000024,142.94873000000007,145.76904300000024,143.7177729999994,256.15380900000036,113.46142599999985
360,114.74365200000011,64.87158199999976,139.3588869999994,100.38476599999922,167.82031300000017,115.12841800000024,110.0,147.6923829999996,129.87158199999976,149.87158199999976,149.48730499999965,149.48730499999965,268.9741210000002,110.76904300000024
361,124.10253900000043,70.25634799999989,141.2822270000006,106.53857400000015,169.10253900000043,114.74365200000011,108.46142599999985,148.7177729999994,132.82031300000017,155.2563479999999,152.43603499999972,154.61523400000078,280.0,108.9741210000002
362,131.0258789999998,69.61523400000078,142.94873000000007,111.2822270000006,170.12841800000024,116.15380900000036,108.9741210000002,148.9741210000002,131.79492200000004,154.87158199999976,151.9228520000006,156.2822270000006,285.51269500000035,113.20507799999996
363,137.56396500000028,66.6665039999998,144.87158199999976,115.89746099999957,172.3076170000004,118.3334960000002,109.48730499999965,148.7177729999994,128.46142599999985,151.41015599999992,149.7436520000001,156.53857400000015,289.7436520000001,117.56396500000028
364,147.82031300000017,67.05126999999993,148.3334960000002,121.41015599999992,176.53857400000015,120.12841800000024,108.20507799999996,149.48730499999965,126.9228520000006,151.6665039999998,150.0,159.87158199999976,300.89746099999957,114.74365200000011
365,161.2822270000006,70.64111300000059,153.20507799999996,126.9228520000006,180.76904300000024,119.61523400000078,105.12841800000024,151.79492200000004,128.58984400000008,158.58984400000008,153.7177729999994,167.6923829999996,321.15380900000036,108.84619099999964
366,173.20507799999996,71.53857400000015,157.56396500000028,129.7436520000001,181.41015599999992,116.2822270000006,102.05126999999993,154.48730499999965,132.17968800000017,168.7177729999994,157.56396500000028,176.53857400000015,344.23095699999976,108.46142599999985
367,180.2563479999999,66.2822270000006,158.58984400000008,129.48730499999965,178.20507799999996,112.69238299999961,102.17968800000017,156.53857400000015,135.51269500000035,175.6411130000006,158.20507799999996,182.17968800000017,360.89746099999957,112.94873000000007
368,182.94873000000007,58.20507799999996,156.41015599999992,128.20507799999996,174.23095699999976,111.79492200000004,105.89746099999957,157.3076170000004,137.05126999999993,176.0258789999998,154.7436520000001,182.43603499999972,365.12841800000024,114.35888699999941
369,184.7436520000001,54.87158199999976,153.3334960000002,129.23095699999976,171.41015599999992,113.20507799999996,109.10253900000043,155.76904300000024,135.76904300000024,169.48730499999965,148.58984400000008,177.94873000000007,358.20507799999996,112.05126999999993
370,190.12841800000024,62.82031300000017,151.6665039999998,134.3588869999994,170.12841800000024,113.58984400000008,106.0258789999998,150.89746099999957,131.15380900000036,159.48730499999965,141.79492200000004,172.3076170000004,347.17968800000017,112.43603499999972
371,202.6923829999996,84.35888699999941,152.82031300000017,143.0771479999994,170.6411130000006,111.15380900000036,96.15380900000036,143.84619099999964,125.64111300000059,150.89746099999957,137.17968800000017,170.38476599999922,341.0258789999998,116.15380900000036
372,222.6923829999996,114.61523400000078,156.79492200000004,152.94873000000007,173.3334960000002,107.69238299999961,85.12841800000024,138.0771479999994,122.30761700000039,147.56396500000028,135.6411130000006,175.12841800000024,343.84619099999964,116.41015599999992
373,245.2563479999999,143.3334960000002,162.05126999999993,161.0258789999998,176.15380900000036,105.25634799999989,79.23095699999976,135.38476599999922,122.17968800000017,148.20507799999996,135.2563479999999,184.23095699999976,350.6411130000006,111.41015599999992
374,264.10253900000043,162.43603499999972,166.0258789999998,165.6411130000006,176.6665039999998,104.23095699999976,80.25634799999989,135.38476599999922,123.20507799999996,148.0771479999994,132.56396500000028,191.9228520000006,352.05126999999993,108.84619099999964
375,277.17968800000017,172.6923829999996,167.17968800000017,167.82031300000017,174.87158199999976,104.48730499999965,84.61523400000078,136.6665039999998,123.3334960000002,145.12841800000024,127.05126999999993,194.87158199999976,343.20507799999996,112.17968800000017
376,287.4360349999997,183.20507799999996,166.53857400000015,171.2822270000006,174.23095699999976,106.41015599999992,87.30761700000039,137.43603499999972,122.43603499999972,140.89746099999957,121.2822270000006,193.3334960000002,328.20507799999996,114.35888699999941
377,297.94873000000007,201.53857400000015,165.89746099999957,177.56396500000028,177.3076170000004,108.58984400000008,84.87158199999976,136.15380900000036,120.51269500000035,138.0771479999994,117.05126999999993,189.61523400000078,313.46142599999985,109.87158199999976
378,307.5639650000003,226.15380900000036,166.2822270000006,184.61523400000078,181.9228520000006,108.58984400000008,77.05126999999993,131.15380900000036,117.30761700000039,135.6411130000006,112.82031300000017,185.38476599999922,301.53857400000015,105.25634799999989
379,314.3588869999994,249.87158199999976,166.15380900000036,189.3588869999994,184.3588869999994,105.64111300000059,67.82031300000017,123.58984400000008,113.20507799999996,131.2822270000006,106.15380900000036,181.79492200000004,290.2563479999999,107.82031300000017
380,318.5898440000001,267.4360349999997,164.7436520000001,190.6411130000006,184.10253900000043,102.56396500000028,62.43603499999972,117.17968800000017,110.0,124.74365200000011,96.9228520000006,180.12841800000024,277.05126999999993,112.43603499999972
381,321.79492200000004,278.84619099999964,163.0771479999994,189.7436520000001,182.6923829999996,102.30761700000039,62.30761700000039,114.48730499999965,109.61523400000078,117.69238299999961,87.56396500000028,180.51269500000035,261.53857400000015,110.89746099999957
382,324.10253900000043,287.17968800000017,162.17968800000017,188.0771479999994,181.41015599999992,104.10253900000043,63.974121000000196,114.10253900000043,110.12841800000024,111.2822270000006,79.61523400000078,181.15380900000036,244.10253900000043,105.38476599999922
383,324.7436520000001,296.0258789999998,162.6923829999996,186.9228520000006,181.0258789999998,105.38476599999922,63.0771479999994,112.82031300000017,108.9741210000002,105.38476599999922,73.46142599999985,180.38476599999922,226.0258789999998,104.61523400000078
