,EEG.AF3,EEG.F7,EEG.F3,EEG.FC5,EEG.T7,EEG.P7,EEG.O1,EEG.O2,EEG.P8,EEG.T8,EEG.FC6,EEG.F4,EEG.F8,EEG.AF4
0,32.05126999999993,63.846190999999635,81.0258789999998,89.23095699999976,142.56396500000028,89.10253900000043,29.230956999999762,77.82031300000017,99.61523400000078,75.0,58.7177729999994,80.38476599999922,40.25634799999989,105.12841800000024
1,37.82031300000017,66.2822270000006,83.3334960000002,89.48730499999965,143.20507799999996,87.94873000000007,29.615234000000783,80.76904300000024,103.7177729999994,78.46142599999985,64.74365200000011,82.30761700000039,41.9228520000006,106.15380900000036
2,39.87158199999976,67.56396500000028,85.76904300000024,88.20507799999996,142.6923829999996,85.12841800000024,26.410155999999915,84.61523400000078,113.46142599999985,87.05126999999993,70.12841800000024,85.64111300000059,44.87158199999976,110.38476599999922
3,37.30761700000039,67.69238299999961,86.2822270000006,86.15380900000036,142.56396500000028,83.84619099999964,22.05126999999993,86.79492200000004,121.53857400000015,93.7177729999994,71.79492200000004,87.69238299999961,49.102539000000434,109.48730499999965
4,32.69238299999961,67.69238299999961,85.0,84.48730499999965,143.84619099999964,84.35888699999941,19.230956999999762,86.79492200000004,122.43603499999972,93.46142599999985,70.0,87.56396500000028,52.43603499999972,104.87158199999976
5,28.974121000000196,68.58984400000008,83.3334960000002,82.82031300000017,146.2822270000006,84.87158199999976,18.846190999999635,85.0,116.0258789999998,86.6665039999998,68.3334960000002,86.0258789999998,51.53857400000015,104.87158199999976
6,28.974121000000196,71.53857400000015,82.56396500000028,80.76904300000024,149.3588869999994,84.74365200000011,20.769043000000238,83.20507799999996,106.9228520000006,78.0771479999994,70.0,85.0,46.2822270000006,108.58984400000008
7,32.69238299999961,77.30761700000039,83.3334960000002,78.0771479999994,152.94873000000007,85.76904300000024,24.358886999999413,82.82031300000017,100.12841800000024,72.69238299999961,75.25634799999989,85.89746099999957,41.2822270000006,107.94873000000007
8,36.410155999999915,83.7177729999994,84.48730499999965,75.0,155.2563479999999,88.9741210000002,28.589844000000085,84.35888699999941,99.35888699999941,72.69238299999961,81.0258789999998,87.30761700000039,41.2822270000006,102.43603499999972
9,36.025878999999804,87.30761700000039,84.35888699999941,71.41015599999992,153.20507799999996,92.82031300000017,30.897460999999566,87.17968800000017,105.12841800000024,77.56396500000028,84.35888699999941,87.05126999999993,45.897460999999566,101.6665039999998
10,31.153809000000365,86.9228520000006,82.69238299999961,67.30761700000039,146.53857400000015,95.0,30.25634799999989,90.0,115.51269500000035,85.38476599999922,85.64111300000059,84.35888699999941,50.64111300000059,108.0771479999994
11,25.897460999999566,86.0258789999998,80.89746099999957,63.46142599999985,139.10253900000043,95.38476599999922,27.69238299999961,92.94873000000007,126.53857400000015,93.58984400000008,89.23095699999976,81.15380900000036,51.410155999999915,112.43603499999972
12,24.871581999999762,88.58984400000008,80.76904300000024,59.74365200000011,135.2563479999999,94.35888699999941,25.384765999999217,96.0258789999998,133.46142599999985,99.35888699999941,99.10253900000043,80.25634799999989,48.7177729999994,109.23095699999976
13,29.102539000000434,95.64111300000059,83.0771479999994,55.64111300000059,136.0258789999998,92.05126999999993,24.102539000000434,98.58984400000008,133.9741210000002,100.38476599999922,116.53857400000015,82.82031300000017,46.153809000000365,105.38476599999922
14,35.51269500000035,104.74365200000011,86.79492200000004,50.51269500000035,138.9741210000002,88.9741210000002,24.358886999999413,99.48730499999965,128.58984400000008,96.0258789999998,139.23095699999976,87.43603499999972,46.025878999999804,107.05126999999993
15,40.51269500000035,112.56396500000028,89.74365200000011,44.61523400000078,141.41015599999992,88.46142599999985,27.30761700000039,98.7177729999994,120.0,88.58984400000008,165.12841800000024,91.53857400000015,47.56396500000028,108.58984400000008
16,42.69238299999961,117.30761700000039,91.0258789999998,37.94873000000007,142.05126999999993,92.69238299999961,33.0771479999994,97.82031300000017,113.84619099999964,84.10253900000043,194.61523400000078,93.9741210000002,50.0,104.61523400000078
17,43.46142599999985,119.35888699999941,91.53857400000015,30.51269500000035,140.51269500000035,99.35888699999941,39.23095699999976,99.48730499999965,117.43603499999972,91.2822270000006,230.51269500000035,95.76904300000024,54.35888699999941,100.51269500000035
18,45.12841800000024,121.6665039999998,93.20507799999996,22.82031300000017,139.3588869999994,103.20507799999996,41.410155999999915,105.64111300000059,133.20507799999996,113.84619099999964,275.6411130000006,98.84619099999964,62.43603499999972,102.69238299999961
19,49.35888699999941,127.94873000000007,96.6665039999998,16.282227000000603,143.20507799999996,101.9228520000006,38.333496000000196,113.9741210000002,152.94873000000007,143.58984400000008,329.48730499999965,103.58984400000008,72.17968800000017,105.76904300000024
20,54.74365200000011,138.46142599999985,100.38476599999922,10.0,156.0258789999998,98.46142599999985,33.333496000000196,119.23095699999976,159.87158199999976,161.53857400000015,385.12841800000024,107.43603499999972,75.25634799999989,101.2822270000006
21,57.56396500000028,149.3588869999994,101.53857400000015,1.5385740000001533,174.87158199999976,97.05126999999993,31.410155999999915,116.15380900000036,141.6665039999998,152.6923829999996,433.46142599999985,106.2822270000006,63.589844000000085,93.20507799999996
22,55.76904300000024,156.6665039999998,98.7177729999994,-10.769286999999622,192.05126999999993,99.35888699999941,34.74365200000011,105.64111300000059,102.43603499999972,120.38476599999922,471.4101559999999,99.23095699999976,38.0771479999994,91.15380900000036
23,52.30761700000039,161.2822270000006,93.9741210000002,-24.358886999999868,202.82031300000017,104.23095699999976,41.9228520000006,95.64111300000059,62.43603499999972,85.25634799999989,505.12841800000024,90.38476599999922,11.922852000000603,94.23095699999976
24,52.82031300000017,169.10253900000043,91.0258789999998,-34.8718259999996,210.51269500000035,108.9741210000002,50.0,94.35888699999941,40.64111300000059,67.94873000000007,545.0,86.2822270000006,1.2822270000006029,92.43603499999972
25,58.846190999999635,184.10253900000043,92.05126999999993,-41.153809000000365,221.2822270000006,111.79492200000004,57.30761700000039,102.69238299999961,40.12841800000024,73.46142599999985,596.0258789999998,89.87158199999976,13.461425999999847,83.84619099999964
26,67.30761700000039,204.7436520000001,95.89746099999957,-46.66674799999964,236.6665039999998,112.30761700000039,63.846190999999635,113.46142599999985,46.53857400000015,88.20507799999996,653.7177729999994,97.94873000000007,42.94873000000007,76.6665039999998
27,74.48730499999965,226.79492200000004,99.74365200000011,-54.8718259999996,250.6411130000006,111.9228520000006,70.64111300000059,119.35888699999941,43.20507799999996,95.0,709.4873049999997,104.48730499999965,79.48730499999965,74.87158199999976
28,80.12841800000024,248.20507799999996,101.41015599999992,-65.64111300000013,253.58984400000008,112.30761700000039,77.82031300000017,118.20507799999996,25.641113000000587,87.17968800000017,756.2822270000006,105.89746099999957,117.17968800000017,72.69238299999961
29,85.25634799999989,269.23095699999976,99.87158199999976,-75.64111300000013,239.3588869999994,112.17968800000017,83.20507799999996,113.20507799999996,4.102539000000434,71.6665039999998,791.1538090000004,102.69238299999961,156.41015599999992,68.3334960000002
30,89.35888699999941,290.0,95.12841800000024,-81.79492200000004,209.61523400000078,108.84619099999964,84.61523400000078,109.35888699999941,-6.281981999999971,61.410155999999915,814.7436520000001,97.17968800000017,199.48730499999965,68.0771479999994
31,91.2822270000006,309.7436520000001,88.9741210000002,-81.92309599999999,176.0258789999998,101.53857400000015,82.17968800000017,110.76904300000024,2.8203130000001693,65.12841800000024,831.0258789999998,92.17968800000017,246.9228520000006,73.46142599999985
32,93.20507799999996,327.6923829999996,84.48730499999965,-76.53857400000015,153.58984400000008,93.7177729999994,79.35888699999941,118.58984400000008,27.05126999999993,81.9228520000006,845.1284180000002,90.64111300000059,295.51269500000035,75.38476599999922
33,98.3334960000002,341.79492200000004,84.35888699999941,-69.10253899999998,149.3588869999994,89.87158199999976,80.0,130.0,52.94873000000007,102.43603499999972,858.4614259999998,94.74365200000011,338.3334960000002,68.84619099999964
34,107.94873000000007,349.6152340000008,89.23095699999976,-63.846190999999635,156.2822270000006,91.41015599999992,85.25634799999989,139.61523400000078,67.17968800000017,115.38476599999922,866.4101559999999,103.84619099999964,368.9741210000002,62.43603499999972
35,121.79492200000004,351.0258789999998,97.43603499999972,-60.76928699999962,160.0,95.51269500000035,92.82031300000017,143.20507799999996,66.41015599999992,116.9228520000006,862.4360349999997,115.12841800000024,388.0771479999994,66.15380900000036
36,139.87158199999976,349.6152340000008,106.9228520000006,-56.53857400000015,152.17968800000017,98.84619099999964,99.23095699999976,142.94873000000007,61.025878999999804,114.74365200000011,845.7690430000002,127.30761700000039,404.7436520000001,77.69238299999961
37,160.76904300000024,349.10253900000043,115.0,-47.564209000000574,135.2563479999999,99.35888699999941,102.82031300000017,143.84619099999964,65.89746099999957,121.53857400000015,821.0258789999998,140.0,426.53857400000015,88.9741210000002
38,179.3588869999994,349.23095699999976,119.35888699999941,-36.025634999999966,117.82031300000017,96.9228520000006,104.23095699999976,147.3076170000004,86.15380900000036,140.6411130000006,790.7690430000002,151.41015599999992,448.46142599999985,100.0
39,190.2563479999999,345.6411130000006,118.3334960000002,-27.051270000000386,106.2822270000006,93.7177729999994,106.15380900000036,149.3588869999994,111.0258789999998,160.89746099999957,752.8203130000002,157.56396500000028,456.15380900000036,114.48730499999965
40,192.82031300000017,337.05126999999993,113.20507799999996,-22.948729999999614,100.89746099999957,93.20507799999996,109.87158199999976,145.89746099999957,125.38476599999922,166.41015599999992,703.4614259999998,157.56396500000028,441.6665039999998,128.20507799999996
41,192.82031300000017,326.0258789999998,107.94873000000007,-20.89746100000002,97.43603499999972,96.41015599999992,115.0,137.82031300000017,123.46142599999985,151.53857400000015,643.0771479999994,155.12841800000024,412.5639650000003,134.10253900000043
42,196.53857400000015,315.89746099999957,106.53857400000015,-15.641113000000132,90.38476599999922,100.38476599999922,119.10253900000043,129.23095699999976,111.79492200000004,123.20507799999996,574.7436520000001,156.15380900000036,386.15380900000036,134.7436520000001
43,205.51269500000035,307.4360349999997,110.12841800000024,-4.102538999999979,78.46142599999985,99.87158199999976,120.38476599999922,123.20507799999996,101.41015599999992,94.23095699999976,502.17968800000017,162.3076170000004,375.3847659999992,138.3334960000002
44,217.82031300000017,299.23095699999976,116.41015599999992,13.077147999999397,64.48730499999965,94.74365200000011,119.48730499999965,120.38476599999922,99.74365200000011,75.51269500000035,430.0,171.53857400000015,382.05126999999993,144.3588869999994
45,230.51269500000035,290.6411130000006,121.9228520000006,31.794922000000042,52.17968800000017,89.10253900000043,119.10253900000043,119.74365200000011,108.46142599999985,73.0771479999994,362.6923829999996,180.6411130000006,398.7177729999994,145.12841800000024
46,240.6411130000006,280.6411130000006,123.46142599999985,47.94873000000007,40.76904300000024,86.53857400000015,120.76904300000024,120.0,123.84619099999964,85.51269500000035,299.87158199999976,187.17968800000017,412.5639650000003,140.6411130000006
47,245.51269500000035,267.05126999999993,120.76904300000024,60.0,27.82031300000017,86.15380900000036,123.0771479999994,118.58984400000008,138.0771479999994,102.56396500000028,234.23095699999976,189.61523400000078,411.53857400000015,138.7177729999994
48,245.51269500000035,249.7436520000001,116.79492200000004,71.2822270000006,13.205077999999958,85.51269500000035,124.74365200000011,114.61523400000078,144.23095699999976,111.41015599999992,158.3334960000002,188.20507799999996,391.15380900000036,141.15380900000036
49,245.6411130000006,232.43603499999972,115.0,86.6665039999998,0.256347999999889,85.25634799999989,126.79492200000004,110.12841800000024,142.05126999999993,108.46142599999985,75.12841800000024,186.0258789999998,359.3588869999994,141.9228520000006
50,251.2822270000006,219.23095699999976,117.17968800000017,107.56396500000028,-10.256347999999889,86.9228520000006,131.79492200000004,108.84619099999964,138.58984400000008,102.56396500000028,-1.7949220000000423,187.05126999999993,330.12841800000024,140.89746099999957
51,263.5898440000001,210.89746099999957,122.30761700000039,130.2563479999999,-21.28198199999997,89.74365200000011,139.7436520000001,112.05126999999993,141.79492200000004,106.9228520000006,-58.07690400000001,192.3076170000004,313.0771479999994,144.7436520000001
52,278.46142599999985,204.61523400000078,127.43603499999972,149.7436520000001,-32.564209000000574,91.15380900000036,147.43603499999972,117.56396500000028,154.23095699999976,126.15380900000036,-89.10253899999998,199.10253900000043,308.20507799999996,153.58984400000008
53,290.2563479999999,197.05126999999993,129.87158199999976,163.58984400000008,-36.41015600000037,90.64111300000059,152.43603499999972,122.94873000000007,171.53857400000015,153.20507799999996,-101.66674799999964,204.10253900000043,309.23095699999976,158.7177729999994
54,295.51269500000035,186.9228520000006,128.46142599999985,173.46142599999985,-23.076904000000013,90.76904300000024,155.76904300000024,127.17968800000017,186.15380900000036,174.61523400000078,-108.71801800000003,206.41015599999992,308.9741210000002,157.05126999999993
55,293.46142599999985,174.3588869999994,124.35888699999941,181.79492200000004,7.179688000000169,92.69238299999961,160.12841800000024,128.84619099999964,190.89746099999957,179.3588869999994,-121.28198199999997,205.6411130000006,301.79492200000004,158.0771479999994
56,286.4101559999999,160.2563479999999,119.61523400000078,190.76904300000024,39.35888699999941,95.25634799999989,165.76904300000024,126.6665039999998,183.46142599999985,166.15380900000036,-142.43579099999943,201.9228520000006,286.4101559999999,166.6665039999998
57,279.23095699999976,147.17968800000017,115.89746099999957,201.9228520000006,53.7177729999994,96.41015599999992,170.76904300000024,121.0258789999998,169.48730499999965,145.89746099999957,-164.7436520000001,196.2822270000006,266.6665039999998,174.3588869999994
58,276.0258789999998,138.20507799999996,113.46142599999985,215.38476599999922,38.846190999999635,96.53857400000015,173.58984400000008,116.15380900000036,159.48730499999965,136.41015599999992,-176.41015600000037,191.2822270000006,250.12841800000024,172.05126999999993
59,277.05126999999993,133.20507799999996,111.6665039999998,229.87158199999976,-2.5639650000002803,95.76904300000024,174.3588869999994,115.51269500000035,161.53857400000015,148.58984400000008,-172.820557,189.3588869999994,241.53857400000015,163.20507799999996
60,277.94873000000007,128.7177729999994,110.0,243.58984400000008,-56.025634999999966,93.7177729999994,173.9741210000002,118.7177729999994,174.7436520000001,178.58984400000008,-161.66674799999964,189.48730499999965,240.38476599999922,152.82031300000017
61,275.3847659999992,121.41015599999992,108.0771479999994,256.4101559999999,-103.71801800000003,90.38476599999922,173.84619099999964,123.3334960000002,191.0258789999998,212.3076170000004,-157.43579099999943,189.61523400000078,242.05126999999993,137.94873000000007
62,270.3847659999992,111.79492200000004,105.89746099999957,269.10253900000043,-134.4870609999998,88.20507799999996,175.6411130000006,127.17968800000017,201.15380900000036,236.0258789999998,-168.33325200000036,188.84619099999964,241.2822270000006,116.79492200000004
63,265.89746099999957,102.05126999999993,103.58984400000008,282.3076170000004,-150.89746100000002,88.58984400000008,179.7436520000001,128.9741210000002,199.87158199999976,244.61523400000078,-191.15380900000036,187.17968800000017,234.48730499999965,100.38476599999922
64,263.46142599999985,93.7177729999994,101.15380900000036,295.89746099999957,-165.0,90.25634799999989,184.23095699999976,127.43603499999972,188.20507799999996,242.17968800000017,-214.8718259999996,184.3588869999994,221.2822270000006,100.12841800000024
65,262.94873000000007,86.41015599999992,98.7177729999994,311.15380900000036,-187.43579099999943,90.89746099999957,187.05126999999993,123.7177729999994,175.76904300000024,240.38476599999922,-228.58984399999963,181.0258789999998,207.82031300000017,110.0
66,265.2563479999999,80.0,97.82031300000017,330.0,-218.33325200000036,90.12841800000024,188.3334960000002,123.3334960000002,177.3076170000004,253.0771479999994,-227.56420900000057,180.12841800000024,203.58984400000008,114.61523400000078
67,271.4101559999999,73.84619099999964,100.76904300000024,352.94873000000007,-250.5129390000002,89.35888699999941,190.0,131.79492200000004,201.9228520000006,287.05126999999993,-215.2563479999999,185.12841800000024,213.46142599999985,111.2822270000006
68,279.3588869999994,66.53857400000015,107.82031300000017,375.51269500000035,-278.33325200000036,89.23095699999976,193.46142599999985,146.9228520000006,242.3076170000004,333.20507799999996,-202.179443,194.10253900000043,230.89746099999957,108.9741210000002
69,284.48730499999965,56.2822270000006,114.74365200000011,391.2822270000006,-301.53857400000015,89.35888699999941,198.20507799999996,158.84619099999964,277.17968800000017,370.2563479999999,-199.4870609999998,200.76904300000024,243.46142599999985,110.51269500000035
70,283.3334960000002,43.846190999999635,116.2822270000006,396.79492200000004,-321.53857400000015,90.64111300000059,203.0771479999994,160.0,287.05126999999993,380.51269500000035,-210.76928699999962,199.10253900000043,242.94873000000007,108.84619099999964
71,275.89746099999957,32.17968800000017,110.38476599999922,393.5898440000001,-338.46142599999985,94.61523400000078,208.0771479999994,151.0258789999998,269.23095699999976,362.6923829999996,-230.0,189.3588869999994,231.2822270000006,102.56396500000028
72,264.23095699999976,22.82031300000017,100.38476599999922,386.4101559999999,-352.179443,100.51269500000035,212.43603499999972,138.84619099999964,239.3588869999994,332.5639650000003,-247.43579099999943,176.53857400000015,216.6665039999998,100.76904300000024
73,251.79492200000004,16.025878999999804,90.89746099999957,380.2563479999999,-362.6923829999996,105.12841800000024,214.87158199999976,131.0258789999998,217.6923829999996,310.89746099999957,-255.1281740000004,165.89746099999957,207.6923829999996,106.9228520000006
74,243.46142599999985,12.43603499999972,85.89746099999957,377.6923829999996,-368.20507799999996,106.2822270000006,213.9741210000002,131.0258789999998,217.43603499999972,311.6665039999998,-251.02563499999997,161.41015599999992,208.46142599999985,111.2822270000006
75,243.58984400000008,13.589844000000085,87.17968800000017,378.5898440000001,-365.5129390000002,103.9741210000002,209.87158199999976,138.46142599999985,236.9228520000006,334.6152340000008,-238.46142599999985,164.3588869999994,217.82031300000017,106.6665039999998
76,250.6411130000006,18.717772999999397,93.7177729999994,378.9741210000002,-352.179443,99.74365200000011,204.3588869999994,148.7177729999994,261.9228520000006,364.3588869999994,-225.0,172.17968800000017,228.9741210000002,100.12841800000024
77,257.3076170000004,23.974121000000196,101.15380900000036,374.10253900000043,-331.41015600000037,95.12841800000024,199.61523400000078,154.48730499999965,275.3847659999992,381.0258789999998,-218.71801800000003,178.84619099999964,233.58984400000008,101.0258789999998
78,256.6665039999998,26.410155999999915,104.74365200000011,362.4360349999997,-310.1281740000004,91.53857400000015,197.3076170000004,152.56396500000028,269.87158199999976,374.7436520000001,-222.6923829999996,179.10253900000043,229.23095699999976,105.51269500000035
79,247.6923829999996,26.666503999999804,102.94873000000007,346.4101559999999,-294.2307130000004,90.51269500000035,197.56396500000028,146.41015599999992,253.0771479999994,353.84619099999964,-233.46142599999985,172.94873000000007,220.2563479999999,104.35888699999941
80,235.2563479999999,26.794922000000042,97.69238299999961,330.3847659999992,-286.28198199999997,91.9228520000006,198.46142599999985,142.6923829999996,240.2563479999999,335.6411130000006,-243.97436500000003,164.7436520000001,213.0771479999994,99.35888699999941
81,224.7436520000001,27.82031300000017,92.30761700000039,316.6665039999998,-284.2307130000004,94.23095699999976,198.0771479999994,144.87158199999976,240.2563479999999,331.4101559999999,-250.2563479999999,158.3334960000002,209.48730499999965,98.84619099999964
82,219.10253900000043,29.615234000000783,89.10253900000043,305.51269500000035,-282.3076170000004,96.6665039999998,196.0258789999998,151.15380900000036,249.87158199999976,338.46142599999985,-251.53857400000015,154.87158199999976,207.43603499999972,102.56396500000028
83,218.7177729999994,33.589844000000085,88.84619099999964,297.17968800000017,-274.102539,100.12841800000024,194.10253900000043,156.79492200000004,259.10253900000043,345.6411130000006,-248.97436500000003,153.9741210000002,205.38476599999922,102.05126999999993
84,220.89746099999957,39.74365200000011,91.79492200000004,290.89746099999957,-258.20507799999996,105.0,194.10253900000043,158.7177729999994,260.6411130000006,344.3588869999994,-244.4870609999998,154.61523400000078,203.7177729999994,97.30761700000039
85,221.15380900000036,46.153809000000365,97.05126999999993,284.7436520000001,-239.4870609999998,109.23095699999976,195.12841800000024,156.53857400000015,254.10253900000043,333.46142599999985,-240.5129390000002,155.12841800000024,202.17968800000017,97.05126999999993
86,217.56396500000028,50.64111300000059,101.9228520000006,277.05126999999993,-224.10253899999998,109.87158199999976,195.2563479999999,152.43603499999972,242.6923829999996,317.3076170000004,-238.58984399999963,153.58984400000008,199.87158199999976,103.7177729999994
87,211.6665039999998,53.46142599999985,103.9741210000002,267.5639650000003,-214.23071300000038,107.94873000000007,193.7177729999994,149.7436520000001,229.7436520000001,299.87158199999976,-237.56420900000057,149.7436520000001,196.6665039999998,108.0771479999994
88,206.41015599999992,56.153809000000365,102.94873000000007,257.05126999999993,-206.02563499999997,106.15380900000036,191.79492200000004,150.51269500000035,216.2822270000006,282.3076170000004,-234.4870609999998,145.2563479999999,193.46142599999985,104.61523400000078
89,202.82031300000017,59.102539000000434,100.89746099999957,245.6411130000006,-193.20507799999996,106.41015599999992,191.0258789999998,153.7177729999994,202.43603499999972,264.10253900000043,-227.56420900000057,142.17968800000017,190.76904300000024,100.38476599999922
90,200.89746099999957,61.79492200000004,100.51269500000035,233.20507799999996,-170.2563479999999,108.0771479999994,191.6665039999998,157.56396500000028,189.3588869999994,246.53857400000015,-217.9487299999996,141.2822270000006,190.0,102.94873000000007
91,200.51269500000035,65.51269500000035,103.7177729999994,220.2563479999999,-135.5129390000002,110.0,192.82031300000017,160.6411130000006,178.84619099999964,232.94873000000007,-207.56420900000057,142.6923829999996,194.10253900000043,107.30761700000039
92,201.53857400000015,70.89746099999957,110.25634799999989,208.3334960000002,-94.48706099999981,111.15380900000036,192.6923829999996,162.43603499999972,171.79492200000004,225.12841800000024,-197.0512700000004,145.89746099999957,205.2563479999999,105.76904300000024
93,202.43603499999972,76.53857400000015,117.43603499999972,197.43603499999972,-58.46142599999985,110.76904300000024,190.12841800000024,162.17968800000017,166.6665039999998,221.15380900000036,-183.33325200000036,149.48730499999965,220.6411130000006,101.2822270000006
94,200.6411130000006,79.48730499999965,122.30761700000039,186.53857400000015,-39.23071300000038,109.10253900000043,185.38476599999922,160.0,161.53857400000015,215.89746099999957,-160.38452099999995,151.79492200000004,233.7177729999994,101.0258789999998
95,196.2822270000006,78.9741210000002,123.20507799999996,174.3588869999994,-39.10253899999998,108.0771479999994,181.15380900000036,158.3334960000002,156.15380900000036,206.6665039999998,-122.56420900000057,152.56396500000028,239.87158199999976,103.58984400000008
96,191.2822270000006,76.6665039999998,121.0258789999998,161.15380900000036,-49.8718259999996,109.48730499999965,180.0,159.10253900000043,151.15380900000036,193.9741210000002,-70.64111300000013,151.9228520000006,238.84619099999964,102.43603499999972
97,186.9228520000006,73.84619099999964,117.94873000000007,148.7177729999994,-58.974365000000034,112.30761700000039,181.53857400000015,161.41015599999992,147.17968800000017,180.89746099999957,-14.487060999999812,149.61523400000078,233.7177729999994,98.58984400000008
98,183.3334960000002,71.0258789999998,115.76904300000024,139.3588869999994,-58.20507799999996,113.7177729999994,182.94873000000007,162.43603499999972,144.61523400000078,170.89746099999957,32.56396500000028,145.51269500000035,228.84619099999964,99.74365200000011
99,181.41015599999992,69.48730499999965,115.64111300000059,135.0,-46.153809000000365,113.58984400000008,182.3076170000004,161.15380900000036,143.7177729999994,166.41015599999992,63.0771479999994,141.2822270000006,227.94873000000007,105.64111300000059
100,181.2822270000006,71.2822270000006,117.94873000000007,135.6411130000006,-27.69238299999961,113.7177729999994,180.12841800000024,158.84619099999964,145.12841800000024,167.56396500000028,78.58984400000008,139.87158199999976,232.6923829999996,107.43603499999972
101,181.41015599999992,74.87158199999976,121.9228520000006,137.17968800000017,-11.41015600000037,115.38476599999922,178.84619099999964,157.3076170000004,147.3076170000004,170.6411130000006,85.0,141.6665039999998,239.7436520000001,102.82031300000017
102,178.7177729999994,76.0258789999998,125.25634799999989,134.48730499999965,-3.9741210000001956,116.9228520000006,179.87158199999976,157.43603499999972,148.58984400000008,170.76904300000024,87.56396500000028,144.23095699999976,243.46142599999985,99.74365200000011
103,172.56396500000028,71.79492200000004,125.89746099999957,126.2822270000006,-5.0,116.79492200000004,182.94873000000007,159.10253900000043,148.20507799999996,166.41015599999992,89.23095699999976,144.3588869999994,241.0258789999998,102.69238299999961
104,166.15380900000036,64.23095699999976,123.58984400000008,116.15380900000036,-8.205077999999958,115.51269500000035,187.05126999999993,162.3076170000004,147.17968800000017,159.87158199999976,91.15380900000036,141.79492200000004,235.51269500000035,105.12841800000024
105,162.3076170000004,57.56396500000028,119.87158199999976,109.10253900000043,-7.564209000000574,113.84619099999964,189.3588869999994,165.51269500000035,146.79492200000004,154.48730499999965,92.05126999999993,138.0771479999994,232.56396500000028,102.56396500000028
106,161.15380900000036,53.846190999999635,116.2822270000006,107.43603499999972,-2.6923829999996087,111.53857400000015,187.17968800000017,165.6411130000006,146.9228520000006,151.79492200000004,89.61523400000078,134.7436520000001,235.2563479999999,101.2822270000006
107,160.76904300000024,53.20507799999996,113.9741210000002,109.35888699999941,3.3334960000001956,108.9741210000002,180.0,161.41015599999992,147.05126999999993,151.41015599999992,84.48730499999965,132.6923829999996,242.82031300000017,106.6665039999998
108,160.0,55.0,113.46142599999985,111.9228520000006,8.589844000000085,107.94873000000007,172.3076170000004,154.87158199999976,146.9228520000006,152.17968800000017,80.38476599999922,132.43603499999972,251.9228520000006,113.0771479999994
109,158.3334960000002,57.30761700000039,114.35888699999941,112.05126999999993,11.922852000000603,110.25634799999989,169.7436520000001,149.7436520000001,146.0258789999998,152.3076170000004,80.25634799999989,133.3334960000002,257.6923829999996,112.43603499999972
110,154.61523400000078,57.05126999999993,115.51269500000035,108.7177729999994,12.692382999999609,114.23095699999976,174.61523400000078,147.6923829999996,143.46142599999985,149.10253900000043,81.6665039999998,133.0771479999994,255.89746099999957,108.0771479999994
111,148.84619099999964,52.69238299999961,115.51269500000035,103.0771479999994,10.512695000000349,116.6665039999998,183.20507799999996,147.94873000000007,139.7436520000001,142.05126999999993,79.48730499999965,130.6411130000006,247.05126999999993,107.94873000000007
112,144.10253900000043,47.43603499999972,114.35888699999941,98.9741210000002,8.077147999999397,116.6665039999998,188.58984400000008,148.58984400000008,137.56396500000028,135.0,72.30761700000039,127.56396500000028,237.43603499999972,111.0258789999998
113,143.58984400000008,46.025878999999804,114.23095699999976,99.61523400000078,8.846190999999635,115.12841800000024,185.89746099999957,148.58984400000008,139.48730499999965,133.0771479999994,63.974121000000196,126.9228520000006,234.3588869999994,110.0
114,147.43603499999972,49.61523400000078,116.53857400000015,104.23095699999976,13.205077999999958,113.20507799999996,176.0258789999998,147.05126999999993,144.87158199999976,137.82031300000017,59.35888699999941,128.84619099999964,238.84619099999964,105.76904300000024
115,152.05126999999993,55.51269500000035,120.51269500000035,109.10253900000043,18.077147999999397,111.6665039999998,165.12841800000024,144.3588869999994,150.2563479999999,146.15380900000036,60.76904300000024,131.53857400000015,246.53857400000015,106.15380900000036
116,154.61523400000078,59.74365200000011,123.7177729999994,111.15380900000036,20.128418000000238,112.43603499999972,160.38476599999922,143.0771479999994,153.58984400000008,153.7177729999994,66.15380900000036,133.7177729999994,253.46142599999985,111.53857400000015
117,155.12841800000024,60.76904300000024,124.48730499999965,110.51269500000035,19.230956999999762,116.41015599999992,164.87158199999976,145.76904300000024,156.15380900000036,158.46142599999985,69.87158199999976,135.6411130000006,258.7177729999994,113.3334960000002
118,154.23095699999976,58.974121000000196,123.46142599999985,109.23095699999976,17.56396500000028,121.41015599999992,173.84619099999964,151.41015599999992,160.12841800000024,160.89746099999957,63.846190999999635,138.3334960000002,263.20507799999996,109.61523400000078
119,153.3334960000002,57.05126999999993,121.9228520000006,109.87158199999976,17.05126999999993,123.7177729999994,179.87158199999976,156.15380900000036,165.76904300000024,162.43603499999972,43.20507799999996,141.2822270000006,267.6923829999996,108.0771479999994
120,154.3588869999994,58.589844000000085,121.9228520000006,113.46142599999985,20.384765999999217,122.69238299999961,179.3588869999994,156.9228520000006,171.9228520000006,165.2563479999999,12.43603499999972,144.48730499999965,274.3588869999994,111.9228520000006
121,158.7177729999994,63.7177729999994,124.61523400000078,118.7177729999994,27.56396500000028,122.30761700000039,175.2563479999999,155.2563479999999,176.9228520000006,170.38476599999922,-15.641113000000132,148.46142599999985,285.12841800000024,113.84619099999964
122,164.61523400000078,66.53857400000015,129.48730499999965,121.0258789999998,35.25634799999989,125.25634799999989,173.84619099999964,154.61523400000078,179.7436520000001,176.6665039999998,-29.10253899999998,153.58984400000008,298.3334960000002,109.48730499999965
123,167.3076170000004,59.23095699999976,134.23095699999976,116.79492200000004,37.94873000000007,130.2563479999999,177.3076170000004,156.9228520000006,180.12841800000024,180.6411130000006,-26.41015600000037,158.58984400000008,308.7177729999994,106.0258789999998
124,164.87158199999976,41.666503999999804,136.53857400000015,106.9228520000006,34.48730499999965,133.20507799999996,182.43603499999972,161.15380900000036,179.3588869999994,180.6411130000006,-15.769286999999622,161.9228520000006,313.5898440000001,110.0
125,161.9228520000006,24.615234000000783,135.51269500000035,98.58984400000008,29.230956999999762,131.2822270000006,182.94873000000007,164.61523400000078,179.61523400000078,178.46142599999985,-7.307617000000391,163.46142599999985,315.6411130000006,114.87158199999976
126,165.12841800000024,22.05126999999993,133.58984400000008,98.9741210000002,27.94873000000007,125.12841800000024,175.2563479999999,164.61523400000078,181.6665039999998,176.53857400000015,-5.641113000000132,163.84619099999964,319.23095699999976,112.30761700000039
127,177.94873000000007,40.0,133.46142599999985,109.35888699999941,32.30761700000039,116.6665039999998,161.0258789999998,159.7436520000001,183.3334960000002,175.51269500000035,-8.461425999999847,163.9741210000002,324.87158199999976,106.0258789999998
128,198.7177729999994,73.3334960000002,136.2822270000006,124.10253900000043,40.0,109.35888699999941,147.17968800000017,152.05126999999993,182.17968800000017,173.84619099999964,-10.0,165.38476599999922,329.7436520000001,105.51269500000035
129,223.0771479999994,109.87158199999976,141.53857400000015,136.15380900000036,47.56396500000028,107.05126999999993,140.2563479999999,146.2822270000006,177.82031300000017,171.0258789999998,-6.153809000000365,169.48730499999965,332.5639650000003,109.74365200000011
130,245.89746099999957,138.0771479999994,147.56396500000028,141.9228520000006,52.43603499999972,110.76904300000024,142.05126999999993,145.12841800000024,171.53857400000015,166.79492200000004,0.6411130000005869,175.6411130000006,333.20507799999996,110.51269500000035
131,262.6923829999996,151.9228520000006,153.0771479999994,142.56396500000028,52.94873000000007,116.2822270000006,147.82031300000017,146.2822270000006,165.0,160.89746099999957,3.717772999999397,180.89746099999957,331.4101559999999,107.69238299999961
132,272.17968800000017,155.76904300000024,156.2822270000006,142.17968800000017,49.61523400000078,118.0771479999994,150.51269500000035,144.87158199999976,158.46142599999985,152.43603499999972,-1.7949220000000423,182.6923829999996,325.89746099999957,108.84619099999964
133,278.20507799999996,160.38476599999922,156.41015599999992,145.2563479999999,46.153809000000365,114.74365200000011,146.9228520000006,138.58984400000008,152.43603499999972,142.56396500000028,-12.820557000000008,181.53857400000015,317.05126999999993,113.7177729999994
134,285.51269500000035,174.48730499999965,154.48730499999965,152.56396500000028,46.53857400000015,109.23095699999976,138.9741210000002,129.3588869999994,146.79492200000004,133.0771479999994,-22.948729999999614,180.38476599999922,305.6411130000006,113.0771479999994
135,294.7436520000001,196.53857400000015,152.3076170000004,160.0,50.25634799999989,105.38476599999922,131.2822270000006,120.51269500000035,141.6665039999998,124.10253900000043,-28.58984399999963,180.6411130000006,290.89746099999957,105.38476599999922
136,302.82031300000017,217.6923829999996,151.2822270000006,163.20507799999996,54.23095699999976,104.35888699999941,126.79492200000004,114.35888699999941,136.9228520000006,115.12841800000024,-31.923095999999987,181.53857400000015,271.2822270000006,100.89746099999957
137,307.05126999999993,231.79492200000004,151.41015599999992,161.53857400000015,56.53857400000015,106.2822270000006,126.53857400000015,111.53857400000015,133.58984400000008,107.30761700000039,-35.64111300000013,181.79492200000004,247.94873000000007,105.25634799999989
138,308.46142599999985,240.12841800000024,151.9228520000006,158.46142599999985,58.589844000000085,110.0,129.10253900000043,111.53857400000015,131.79492200000004,102.17968800000017,-40.0,179.87158199999976,224.7436520000001,110.38476599999922
139,308.7177729999994,247.6923829999996,152.43603499999972,157.94873000000007,61.2822270000006,113.0771479999994,131.6665039999998,111.53857400000015,130.51269500000035,98.84619099999964,-44.61547900000005,175.12841800000024,205.6411130000006,108.58984400000008
140,307.82031300000017,257.3076170000004,152.3076170000004,159.87158199999976,63.589844000000085,112.94873000000007,132.05126999999993,108.84619099999964,127.43603499999972,94.23095699999976,-50.1281740000004,168.20507799999996,190.6411130000006,105.38476599999922
141,305.2563479999999,267.94873000000007,151.53857400000015,161.6665039999998,64.10253900000043,110.51269500000035,129.7436520000001,103.7177729999994,122.17968800000017,86.2822270000006,-56.66674799999964,161.53857400000015,177.17968800000017,107.30761700000039
142,301.4101559999999,276.9228520000006,150.12841800000024,161.2822270000006,63.7177729999994,108.7177729999994,126.41015599999992,98.9741210000002,116.41015599999992,76.0258789999998,-63.846190999999635,157.82031300000017,161.6665039999998,110.0
143,296.4101559999999,282.3076170000004,148.9741210000002,158.7177729999994,63.974121000000196,109.35888699999941,123.46142599999985,96.41015599999992,111.9228520000006,65.89746099999957,-70.76928699999962,156.79492200000004,141.41015599999992,107.05126999999993
144,289.3588869999994,283.20507799999996,148.58984400000008,154.61523400000078,65.12841800000024,110.64111300000059,120.51269500000035,95.0,108.58984400000008,57.94873000000007,-77.30761700000039,156.15380900000036,115.64111300000059,102.69238299999961
145,279.23095699999976,280.89746099999957,148.20507799999996,150.0,66.6665039999998,110.38476599999922,116.6665039999998,92.82031300000017,106.15380900000036,53.0771479999994,-82.82055700000001,153.20507799999996,87.82031300000017,105.12841800000024
146,267.05126999999993,278.5898440000001,146.6665039999998,145.51269500000035,69.35888699999941,108.84619099999964,112.69238299999961,90.12841800000024,105.0,51.79492200000004,-87.30761700000039,147.82031300000017,63.974121000000196,110.12841800000024
147,254.7436520000001,278.9741210000002,144.23095699999976,142.05126999999993,73.0771479999994,108.20507799999996,110.38476599999922,88.84619099999964,105.25634799999989,52.69238299999961,-91.92309599999999,140.2563479999999,47.56396500000028,107.82031300000017
148,243.58984400000008,281.0258789999998,142.43603499999972,139.3588869999994,76.41015599999992,109.48730499999965,110.51269500000035,89.48730499999965,105.89746099999957,51.9228520000006,-98.33325200000036,131.6665039999998,36.9228520000006,100.38476599999922
149,233.0771479999994,281.6665039999998,141.41015599999992,136.9228520000006,77.82031300000017,111.6665039999998,112.30761700000039,90.89746099999957,105.89746099999957,47.30761700000039,-106.79492200000004,123.0771479999994,26.538574000000153,99.23095699999976
150,222.56396500000028,279.10253900000043,140.6411130000006,134.7436520000001,77.94873000000007,113.0771479999994,114.23095699999976,91.2822270000006,105.25634799999989,39.48730499999965,-114.8718259999996,116.6665039999998,12.051269999999931,106.15380900000036
151,211.15380900000036,274.23095699999976,139.10253900000043,132.56396500000028,78.9741210000002,112.56396500000028,114.48730499999965,89.35888699999941,103.84619099999964,31.153809000000365,-120.0,112.43603499999972,-7.820557000000008,110.38476599999922
152,198.20507799999996,269.23095699999976,135.76904300000024,130.0,81.9228520000006,110.12841800000024,112.30761700000039,84.61523400000078,101.41015599999992,23.589844000000085,-122.69238299999961,108.84619099999964,-31.538574000000153,106.79492200000004
153,183.58984400000008,266.2822270000006,130.38476599999922,126.6665039999998,86.15380900000036,106.79492200000004,108.7177729999994,78.3334960000002,98.7177729999994,17.82031300000017,-125.51293900000019,103.9741210000002,-54.8718259999996,103.20507799999996
154,169.23095699999976,266.15380900000036,123.9741210000002,122.56396500000028,91.0258789999998,105.89746099999957,106.15380900000036,73.84619099999964,97.94873000000007,14.871581999999762,-129.7436520000001,97.94873000000007,-72.43579099999943,104.35888699999941
155,156.6665039999998,267.6923829999996,118.46142599999985,118.0771479999994,96.6665039999998,109.23095699999976,106.0258789999998,73.9741210000002,100.0,14.615234000000783,-134.8718259999996,91.41015599999992,-82.43579099999943,104.23095699999976
156,145.0,267.82031300000017,115.25634799999989,113.58984400000008,102.05126999999993,114.35888699999941,107.05126999999993,77.56396500000028,102.94873000000007,14.358886999999413,-140.1281740000004,83.84619099999964,-89.23071300000038,99.74365200000011
157,132.05126999999993,263.84619099999964,113.7177729999994,109.23095699999976,106.2822270000006,116.9228520000006,107.30761700000039,80.64111300000059,103.84619099999964,11.282227000000603,-145.2563479999999,74.61523400000078,-99.48706099999981,97.82031300000017
158,117.56396500000028,256.6665039999998,111.79492200000004,105.51269500000035,109.87158199999976,115.51269500000035,105.89746099999957,79.87158199999976,102.17968800000017,5.897460999999566,-149.10253899999998,64.87158199999976,-116.15380900000036,103.0771479999994
159,103.46142599999985,250.2563479999999,108.84619099999964,103.58984400000008,115.25634799999989,112.56396500000028,104.87158199999976,76.2822270000006,99.48730499999965,0.6411130000005869,-150.38452099999995,57.17968800000017,-134.4870609999998,107.43603499999972
160,92.43603499999972,246.6665039999998,106.2822270000006,103.0771479999994,123.20507799999996,111.53857400000015,105.51269500000035,72.43603499999972,97.43603499999972,-3.2050779999999577,-149.8718259999996,52.69238299999961,-148.33325200000036,103.9741210000002
161,85.0,245.51269500000035,106.0258789999998,102.82031300000017,131.41015599999992,112.82031300000017,107.05126999999993,70.12841800000024,96.2822270000006,-6.281981999999971,-149.8718259999996,50.76904300000024,-155.2563479999999,99.48730499999965
162,80.51269500000035,246.15380900000036,107.94873000000007,102.17968800000017,136.9228520000006,115.0,107.43603499999972,69.48730499999965,95.51269500000035,-8.846190999999635,-151.41015600000037,50.0,-157.43579099999943,102.43603499999972
163,77.94873000000007,248.9741210000002,111.0258789999998,102.05126999999993,139.61523400000078,117.05126999999993,105.64111300000059,70.25634799999989,94.87158199999976,-10.38452099999995,-151.02563499999997,50.25634799999989,-159.35888699999987,108.20507799999996
164,76.15380900000036,254.61523400000078,114.74365200000011,103.3334960000002,141.41015599999992,118.84619099999964,103.0771479999994,72.56396500000028,94.10253900000043,-10.512939000000188,-143.46142599999985,51.79492200000004,-164.4870609999998,107.56396500000028
165,73.3334960000002,261.2822270000006,117.94873000000007,104.87158199999976,143.46142599999985,120.25634799999989,101.9228520000006,75.76904300000024,92.69238299999961,-9.61547900000005,-125.25634799999989,53.7177729999994,-172.56420900000057,102.94873000000007
166,69.23095699999976,266.0258789999998,119.23095699999976,104.61523400000078,146.9228520000006,120.89746099999957,103.9741210000002,78.9741210000002,90.51269500000035,-8.076904000000013,-97.43579099999943,55.38476599999922,-179.8718259999996,103.46142599999985
167,65.38476599999922,267.4360349999997,118.0771479999994,101.9228520000006,152.43603499999972,121.41015599999992,108.58984400000008,81.9228520000006,88.84619099999964,-5.769286999999622,-65.89746100000002,56.2822270000006,-182.0512700000004,107.94873000000007
168,62.05126999999993,265.2563479999999,115.76904300000024,97.56396500000028,159.23095699999976,121.9228520000006,112.94873000000007,83.84619099999964,88.46142599999985,-3.717772999999397,-39.74365200000011,56.025878999999804,-179.8718259999996,107.94873000000007
169,57.05126999999993,259.48730499999965,113.84619099999964,92.69238299999961,164.87158199999976,121.2822270000006,114.74365200000011,83.9741210000002,88.58984400000008,-4.358886999999868,-26.666747999999643,53.7177729999994,-179.8718259999996,103.84619099999964
170,48.7177729999994,251.0258789999998,112.30761700000039,87.05126999999993,167.6923829999996,118.84619099999964,113.58984400000008,82.43603499999972,88.46142599999985,-8.846190999999635,-26.923095999999987,49.23095699999976,-187.6923829999996,103.9741210000002
171,39.23095699999976,242.43603499999972,110.64111300000059,80.76904300000024,169.87158199999976,116.2822270000006,112.56396500000028,81.0258789999998,88.0771479999994,-15.0,-30.769286999999622,45.12841800000024,-199.7436520000001,108.58984400000008
172,32.94873000000007,236.15380900000036,109.23095699999976,73.9741210000002,175.89746099999957,116.53857400000015,114.23095699999976,81.9228520000006,87.56396500000028,-19.230713000000378,-25.38452099999995,44.48730499999965,-205.64111300000013,108.7177729999994
173,31.922852000000603,231.0258789999998,109.10253900000043,67.43603499999972,187.3076170000004,119.48730499999965,118.9741210000002,85.25634799999989,86.79492200000004,-19.8718259999996,-5.128174000000399,48.0771479999994,-197.179443,102.56396500000028
174,33.846190999999635,222.94873000000007,110.64111300000059,61.410155999999915,200.51269500000035,121.9228520000006,123.7177729999994,88.9741210000002,85.51269500000035,-17.69238299999961,25.0,53.7177729999994,-176.41015600000037,98.9741210000002
175,36.153809000000365,210.89746099999957,112.30761700000039,57.05126999999993,210.2563479999999,121.15380900000036,126.15380900000036,92.05126999999993,84.74365200000011,-13.461425999999847,54.35888699999941,58.20507799999996,-152.56420900000057,101.79492200000004
176,38.20507799999996,198.9741210000002,113.9741210000002,55.51269500000035,214.23095699999976,117.82031300000017,126.15380900000036,95.0,86.0258789999998,-7.179442999999992,75.64111300000059,61.025878999999804,-134.61547900000005,103.9741210000002
177,40.897460999999566,191.53857400000015,116.53857400000015,56.666503999999804,212.3076170000004,113.58984400000008,125.12841800000024,98.0771479999994,89.10253900000043,0.0,88.84619099999964,62.69238299999961,-126.53857400000015,101.2822270000006
178,43.0771479999994,188.3334960000002,119.35888699999941,57.05126999999993,205.76904300000024,109.87158199999976,123.58984400000008,100.51269500000035,92.05126999999993,5.769043000000238,99.74365200000011,64.10253900000043,-125.89746100000002,99.74365200000011
179,43.7177729999994,185.51269500000035,120.76904300000024,53.46142599999985,197.3076170000004,107.43603499999972,121.9228520000006,100.89746099999957,93.58984400000008,8.589844000000085,116.9228520000006,65.38476599999922,-125.38452099999995,102.69238299999961
180,43.46142599999985,180.76904300000024,119.61523400000078,46.2822270000006,191.15380900000036,107.56396500000028,120.64111300000059,100.0,93.9741210000002,9.487304999999651,145.2563479999999,67.05126999999993,-117.30761700000039,103.0771479999994
181,43.20507799999996,174.10253900000043,117.30761700000039,39.61523400000078,190.89746099999957,110.38476599999922,120.89746099999957,99.23095699999976,93.9741210000002,9.871581999999762,182.05126999999993,69.10253900000043,-100.0,97.17968800000017
182,42.17968800000017,165.51269500000035,115.64111300000059,36.410155999999915,196.41015599999992,113.9741210000002,123.58984400000008,99.74365200000011,93.58984400000008,10.256347999999889,217.82031300000017,70.38476599999922,-79.61547900000005,93.84619099999964
183,38.974121000000196,155.76904300000024,114.35888699999941,36.410155999999915,205.38476599999922,115.76904300000024,128.58984400000008,101.41015599999992,92.69238299999961,10.256347999999889,243.46142599999985,68.9741210000002,-63.46142599999985,100.12841800000024
184,34.61523400000078,146.6665039999998,112.94873000000007,36.9228520000006,216.15380900000036,115.89746099999957,134.3588869999994,104.10253900000043,91.15380900000036,10.641113000000587,258.20507799999996,65.64111300000059,-53.33325200000036,108.3334960000002
185,32.30761700000039,141.0258789999998,111.9228520000006,35.64111300000059,227.17968800000017,115.64111300000059,138.9741210000002,107.17968800000017,89.61523400000078,12.43603499999972,268.5898440000001,63.333496000000196,-44.35888699999987,108.3334960000002
186,33.20507799999996,138.84619099999964,112.43603499999972,31.794922000000042,236.6665039999998,115.76904300000024,141.15380900000036,110.25634799999989,88.46142599999985,16.025878999999804,282.4360349999997,64.61523400000078,-31.666747999999643,103.0771479999994
187,35.51269500000035,136.6665039999998,113.84619099999964,26.666503999999804,242.6923829999996,115.25634799999989,141.41015599999992,112.82031300000017,87.94873000000007,20.641113000000587,301.9228520000006,69.74365200000011,-15.38452099999995,102.30761700000039
188,36.666503999999804,131.2822270000006,115.0,23.589844000000085,245.51269500000035,114.74365200000011,141.9228520000006,115.64111300000059,88.84619099999964,26.410155999999915,324.3588869999994,76.41015599999992,1.5385740000001533,105.51269500000035
189,36.53857400000015,123.46142599999985,115.89746099999957,25.384765999999217,248.3334960000002,115.51269500000035,145.0,120.0,91.53857400000015,32.94873000000007,345.12841800000024,81.9228520000006,16.282227000000603,104.87158199999976
190,36.153809000000365,116.2822270000006,117.43603499999972,31.666503999999804,253.20507799999996,118.3334960000002,150.6411130000006,125.51269500000035,95.38476599999922,39.23095699999976,359.7436520000001,84.35888699999941,27.56396500000028,101.79492200000004
191,35.25634799999989,111.53857400000015,119.23095699999976,38.46142599999985,259.10253900000043,121.41015599999992,156.2822270000006,129.48730499999965,98.84619099999964,43.46142599999985,366.2822270000006,83.3334960000002,35.64111300000059,103.0771479999994
192,33.20507799999996,109.35888699999941,119.74365200000011,41.2822270000006,264.23095699999976,123.20507799999996,159.61523400000078,130.38476599999922,101.41015599999992,45.51269500000035,366.6665039999998,80.51269500000035,41.666503999999804,107.05126999999993
193,30.769043000000238,108.46142599999985,118.84619099999964,39.35888699999941,268.0771479999994,122.94873000000007,160.51269500000035,129.61523400000078,102.94873000000007,46.53857400000015,365.51269500000035,78.84619099999964,47.82031300000017,105.25634799999989
194,29.230956999999762,106.9228520000006,117.30761700000039,35.51269500000035,271.0258789999998,121.0258789999998,160.12841800000024,128.84619099999964,103.3334960000002,47.30761700000039,365.89746099999957,79.87158199999976,55.897460999999566,98.9741210000002
195,29.230956999999762,102.56396500000028,116.0258789999998,32.69238299999961,272.94873000000007,117.17968800000017,158.9741210000002,127.94873000000007,102.05126999999993,47.30761700000039,367.05126999999993,82.69238299999961,65.25634799999989,98.9741210000002
196,30.384765999999217,94.87158199999976,114.35888699999941,32.17968800000017,274.10253900000043,111.9228520000006,157.43603499999972,125.25634799999989,98.58984400000008,46.410155999999915,367.17968800000017,84.48730499999965,74.23095699999976,107.05126999999993
197,31.922852000000603,86.41015599999992,112.43603499999972,33.846190999999635,275.3847659999992,107.82031300000017,156.15380900000036,120.51269500000035,93.9741210000002,45.0,366.9228520000006,84.87158199999976,81.79492200000004,112.17968800000017
198,33.20507799999996,80.25634799999989,111.15380900000036,36.2822270000006,276.9228520000006,106.2822270000006,156.6665039999998,115.64111300000059,89.74365200000011,43.46142599999985,368.0771479999994,84.87158199999976,87.30761700000039,108.58984400000008
199,32.43603499999972,76.0258789999998,110.64111300000059,38.0771479999994,277.17968800000017,106.9228520000006,159.3588869999994,112.94873000000007,87.43603499999972,41.79492200000004,370.0,85.89746099999957,89.35888699999941,104.74365200000011
200,29.358886999999413,72.17968800000017,109.48730499999965,38.333496000000196,275.0,107.43603499999972,163.0771479999994,113.46142599999985,87.30761700000039,40.0,370.0,86.6665039999998,87.56396500000028,108.20507799999996
201,26.153809000000365,68.20507799999996,106.79492200000004,38.333496000000196,271.6665039999998,106.9228520000006,166.41015599999992,116.79492200000004,88.84619099999964,39.23095699999976,365.76904300000024,85.51269500000035,84.10253900000043,113.0771479999994
202,25.25634799999989,65.0,103.7177729999994,39.87158199999976,269.3588869999994,105.89746099999957,168.84619099999964,121.2822270000006,91.6665039999998,40.0,358.20507799999996,82.17968800000017,82.56396500000028,112.17968800000017
203,26.666503999999804,62.94873000000007,101.9228520000006,42.69238299999961,268.5898440000001,104.48730499999965,170.12841800000024,124.10253900000043,94.35888699999941,42.30761700000039,350.2563479999999,78.20507799999996,84.48730499999965,109.87158199999976
204,27.94873000000007,61.53857400000015,101.79492200000004,45.51269500000035,267.94873000000007,102.05126999999993,170.51269500000035,123.84619099999964,96.15380900000036,45.0,344.48730499999965,75.51269500000035,88.0771479999994,112.94873000000007
205,27.56396500000028,60.0,102.43603499999972,47.17968800000017,266.79492200000004,99.48730499999965,170.89746099999957,121.79492200000004,96.79492200000004,47.82031300000017,341.53857400000015,75.25634799999989,91.0258789999998,116.53857400000015
206,26.153809000000365,58.46142599999985,103.20507799999996,48.589844000000085,266.0258789999998,98.9741210000002,172.17968800000017,121.2822270000006,97.17968800000017,50.64111300000059,340.3847659999992,77.30761700000039,92.43603499999972,112.56396500000028
207,25.0,56.025878999999804,104.48730499999965,50.12841800000024,265.89746099999957,100.89746099999957,174.48730499999965,123.0771479999994,97.82031300000017,52.94873000000007,339.6152340000008,80.51269500000035,93.20507799999996,105.25634799999989
208,24.74365200000011,52.43603499999972,106.2822270000006,52.05126999999993,265.12841800000024,103.46142599999985,176.6665039999998,125.64111300000059,98.46142599999985,53.974121000000196,338.3334960000002,83.84619099999964,94.35888699999941,104.87158199999976
209,25.769043000000238,49.48730499999965,108.0771479999994,53.974121000000196,263.0771479999994,105.0,178.0771479999994,126.53857400000015,98.7177729999994,53.846190999999635,337.6923829999996,87.43603499999972,96.6665039999998,110.89746099999957
210,28.205077999999958,49.48730499999965,110.12841800000024,56.153809000000365,260.51269500000035,105.51269500000035,179.48730499999965,126.15380900000036,98.46142599999985,54.102539000000434,338.20507799999996,92.43603499999972,99.10253900000043,113.58984400000008
211,30.897460999999566,51.2822270000006,112.43603499999972,57.43603499999972,258.84619099999964,105.12841800000024,181.2822270000006,125.64111300000059,97.56396500000028,55.897460999999566,338.46142599999985,97.94873000000007,99.48730499999965,110.89746099999957
212,31.794922000000042,50.897460999999566,114.10253900000043,57.05126999999993,257.6923829999996,103.58984400000008,182.94873000000007,126.15380900000036,96.6665039999998,58.846190999999635,335.89746099999957,101.0258789999998,96.15380900000036,110.51269500000035
213,30.897460999999566,46.79492200000004,113.9741210000002,55.0,257.17968800000017,101.53857400000015,183.3334960000002,128.0771479999994,97.30761700000039,63.0771479999994,330.12841800000024,99.48730499999965,92.17968800000017,113.84619099999964
214,30.51269500000035,41.9228520000006,112.30761700000039,53.589844000000085,258.0771479999994,101.0258789999998,183.20507799999996,131.15380900000036,100.76904300000024,68.58984400000008,324.6152340000008,94.35888699999941,93.3334960000002,113.46142599999985
215,32.17968800000017,39.74365200000011,110.64111300000059,53.974121000000196,260.12841800000024,102.69238299999961,183.9741210000002,134.10253900000043,105.89746099999957,74.10253900000043,322.6923829999996,89.87158199999976,101.41015599999992,107.69238299999961
216,33.974121000000196,40.25634799999989,109.23095699999976,55.897460999999566,260.51269500000035,104.23095699999976,185.89746099999957,134.61523400000078,109.48730499999965,76.6665039999998,323.20507799999996,88.84619099999964,110.64111300000059,105.25634799999989
217,32.94873000000007,40.76904300000024,107.05126999999993,58.333496000000196,257.05126999999993,102.69238299999961,186.9228520000006,131.6665039999998,109.48730499999965,74.48730499999965,322.05126999999993,90.64111300000059,112.05126999999993,110.38476599999922
218,29.230956999999762,39.102539000000434,103.84619099999964,61.153809000000365,251.53857400000015,98.58984400000008,185.51269500000035,127.30761700000039,106.41015599999992,68.84619099999964,316.15380900000036,92.94873000000007,103.46142599999985,114.23095699999976
219,26.410155999999915,35.76904300000024,100.64111300000059,64.87158199999976,247.56396500000028,94.48730499999965,182.3076170000004,124.74365200000011,103.20507799999996,63.589844000000085,306.4101559999999,93.46142599999985,91.53857400000015,109.87158199999976
220,26.666503999999804,32.43603499999972,99.35888699999941,68.46142599999985,246.53857400000015,92.05126999999993,179.48730499999965,125.12841800000024,102.43603499999972,62.17968800000017,296.9228520000006,91.53857400000015,85.89746099999957,104.87158199999976
221,29.74365200000011,31.153809000000365,100.51269500000035,70.38476599999922,246.6665039999998,91.0258789999998,178.9741210000002,126.6665039999998,104.48730499999965,65.0,291.53857400000015,88.3334960000002,90.64111300000059,107.30761700000039
222,33.589844000000085,32.56396500000028,102.56396500000028,69.87158199999976,246.15380900000036,91.2822270000006,181.0258789999998,128.3334960000002,107.69238299999961,69.74365200000011,291.4101559999999,86.6665039999998,101.79492200000004,112.69238299999961
223,36.025878999999804,35.12841800000024,104.23095699999976,67.56396500000028,244.23095699999976,92.56396500000028,184.61523400000078,129.87158199999976,110.12841800000024,73.46142599999985,294.10253900000043,87.82031300000017,109.87158199999976,112.30761700000039
224,35.64111300000059,36.410155999999915,104.74365200000011,65.0,240.6411130000006,93.46142599999985,187.43603499999972,131.2822270000006,109.87158199999976,73.7177729999994,294.7436520000001,90.64111300000059,107.43603499999972,108.9741210000002
225,33.333496000000196,35.64111300000059,104.10253900000043,64.10253900000043,235.89746099999957,92.69238299999961,187.3076170000004,131.79492200000004,106.9228520000006,71.2822270000006,290.2563479999999,92.69238299999961,96.0258789999998,110.76904300000024
226,32.05126999999993,34.48730499999965,102.94873000000007,67.17968800000017,232.3076170000004,90.89746099999957,184.3588869999994,131.2822270000006,103.46142599999985,68.9741210000002,283.20507799999996,92.82031300000017,85.51269500000035,115.0
227,33.333496000000196,34.48730499999965,102.56396500000028,73.9741210000002,231.79492200000004,90.38476599999922,181.0258789999998,130.6411130000006,102.30761700000039,70.12841800000024,278.3334960000002,92.56396500000028,85.12841800000024,113.3334960000002
228,34.74365200000011,33.7177729999994,103.46142599999985,80.51269500000035,233.46142599999985,91.41015599999992,179.48730499999965,130.51269500000035,104.10253900000043,74.35888699999941,276.53857400000015,92.56396500000028,94.23095699999976,107.05126999999993
229,31.025878999999804,28.077147999999397,104.48730499999965,81.0258789999998,233.58984400000008,91.6665039999998,179.87158199999976,130.38476599999922,106.53857400000015,78.46142599999985,273.84619099999964,91.6665039999998,102.56396500000028,106.15380900000036
230,20.897460999999566,16.922852000000603,103.84619099999964,73.9741210000002,229.7436520000001,90.25634799999989,180.38476599999922,129.61523400000078,106.79492200000004,78.84619099999964,266.15380900000036,88.58984400000008,100.38476599999922,111.41015599999992
231,9.487304999999651,5.641113000000587,101.2822270000006,64.87158199999976,223.58984400000008,88.58984400000008,179.61523400000078,128.20507799999996,103.9741210000002,75.0,254.87158199999976,84.23095699999976,87.05126999999993,113.58984400000008
232,4.230956999999762,1.9228520000006029,98.58984400000008,62.05126999999993,219.48730499999965,88.9741210000002,177.3076170000004,126.53857400000015,100.0,69.74365200000011,244.61523400000078,81.6665039999998,71.0258789999998,109.74365200000011
233,9.230956999999762,9.358886999999413,97.56396500000028,69.61523400000078,219.48730499999965,90.64111300000059,174.10253900000043,124.35888699999941,97.69238299999961,66.9228520000006,239.23095699999976,82.69238299999961,62.05126999999993,108.20507799999996
234,22.69238299999961,25.25634799999989,98.46142599999985,83.7177729999994,222.82031300000017,92.30761700000039,170.89746099999957,122.30761700000039,99.10253900000043,68.7177729999994,239.23095699999976,87.43603499999972,65.64111300000059,112.43603499999972
235,38.846190999999635,42.69238299999961,100.51269500000035,95.89746099999957,227.17968800000017,93.3334960000002,168.9741210000002,121.41015599999992,103.46142599999985,74.48730499999965,242.43603499999972,93.84619099999964,79.35888699999941,114.10253900000043
236,50.897460999999566,54.23095699999976,102.30761700000039,99.35888699999941,229.23095699999976,93.9741210000002,168.84619099999964,122.05126999999993,107.94873000000007,80.12841800000024,245.0,99.10253900000043,93.7177729999994,108.20507799999996
237,53.974121000000196,55.0,102.30761700000039,93.84619099999964,226.41015599999992,93.9741210000002,169.23095699999976,122.56396500000028,109.61523400000078,81.6665039999998,244.10253900000043,100.76904300000024,98.46142599999985,102.82031300000017
238,48.333496000000196,46.79492200000004,100.64111300000059,85.64111300000059,220.2563479999999,92.69238299999961,168.46142599999985,122.94873000000007,109.23095699999976,78.9741210000002,239.87158199999976,98.9741210000002,91.41015599999992,105.76904300000024
239,40.12841800000024,37.30761700000039,98.46142599999985,82.30761700000039,215.89746099999957,90.76904300000024,166.53857400000015,124.87158199999976,110.38476599999922,76.0258789999998,235.0,96.6665039999998,79.23095699999976,111.53857400000015
240,35.12841800000024,33.46142599999985,97.43603499999972,86.9228520000006,217.43603499999972,89.61523400000078,165.0,130.2563479999999,115.51269500000035,77.43603499999972,231.15380900000036,96.15380900000036,71.15380900000036,111.2822270000006
241,34.35888699999941,35.12841800000024,98.0771479999994,95.0,224.10253900000043,89.74365200000011,165.12841800000024,137.56396500000028,123.0771479999994,83.58984400000008,226.6665039999998,96.6665039999998,69.10253900000043,107.94873000000007
242,34.61523400000078,37.43603499999972,98.84619099999964,99.48730499999965,230.89746099999957,90.89746099999957,166.6665039999998,143.20507799999996,128.9741210000002,90.76904300000024,220.0,96.15380900000036,69.48730499999965,109.10253900000043
243,33.333496000000196,37.17968800000017,99.23095699999976,97.17968800000017,233.58984400000008,92.94873000000007,167.82031300000017,144.61523400000078,131.2822270000006,95.0,212.82031300000017,93.84619099999964,68.46142599999985,112.43603499999972
244,31.538574000000153,36.53857400000015,99.61523400000078,91.6665039999998,232.17968800000017,95.51269500000035,167.05126999999993,142.43603499999972,131.15380900000036,93.84619099999964,207.6923829999996,91.79492200000004,66.6665039999998,110.25634799999989
245,31.410155999999915,38.589844000000085,101.53857400000015,89.23095699999976,229.10253900000043,97.69238299999961,163.20507799999996,137.94873000000007,130.38476599999922,87.05126999999993,204.7436520000001,92.30761700000039,66.2822270000006,104.61523400000078
246,32.69238299999961,43.333496000000196,104.74365200000011,92.69238299999961,226.15380900000036,97.05126999999993,156.9228520000006,132.17968800000017,128.20507799999996,75.76904300000024,200.51269500000035,95.64111300000059,66.9228520000006,104.61523400000078
247,34.35888699999941,48.20507799999996,108.0771479999994,99.87158199999976,224.61523400000078,93.58984400000008,150.2563479999999,125.25634799999989,122.05126999999993,63.846190999999635,193.0771479999994,99.61523400000078,67.30761700000039,110.25634799999989
248,35.51269500000035,50.76904300000024,110.0,106.2822270000006,224.3588869999994,89.48730499999965,145.6411130000006,117.56396500000028,110.51269500000035,55.897460999999566,184.10253900000043,101.79492200000004,65.51269500000035,112.43603499999972
249,35.38476599999922,49.61523400000078,109.23095699999976,108.46142599999985,224.10253900000043,86.53857400000015,143.3334960000002,109.87158199999976,95.0,53.846190999999635,175.12841800000024,100.38476599999922,60.38476599999922,108.84619099999964
250,32.05126999999993,43.974121000000196,104.35888699999941,105.51269500000035,221.6665039999998,84.74365200000011,141.6665039999998,102.82031300000017,80.25634799999989,56.025878999999804,164.87158199999976,94.48730499999965,51.153809000000365,107.30761700000039
251,24.871581999999762,35.64111300000059,95.89746099999957,99.87158199999976,216.79492200000004,83.20507799999996,138.58984400000008,97.94873000000007,71.9228520000006,58.46142599999985,149.3588869999994,85.64111300000059,39.48730499999965,110.89746099999957
252,16.410155999999915,28.846190999999635,86.79492200000004,94.48730499999965,212.43603499999972,82.17968800000017,134.3588869999994,97.43603499999972,72.82031300000017,58.46142599999985,125.89746099999957,76.53857400000015,30.0,112.05126999999993
253,9.871581999999762,26.666503999999804,80.25634799999989,90.89746099999957,211.0258789999998,82.94873000000007,130.89746099999957,101.2822270000006,80.51269500000035,55.76904300000024,96.9228520000006,70.25634799999989,26.410155999999915,107.17968800000017
254,7.051269999999931,28.589844000000085,77.94873000000007,89.10253900000043,212.56396500000028,85.64111300000059,129.7436520000001,106.41015599999992,89.23095699999976,52.82031300000017,69.10253900000043,67.43603499999972,28.077147999999397,104.48730499999965
255,7.692382999999609,31.538574000000153,79.10253900000043,88.7177729999994,215.0,89.74365200000011,131.0258789999998,108.9741210000002,93.9741210000002,52.43603499999972,50.25634799999989,67.43603499999972,32.05126999999993,109.48730499999965
256,10.897460999999566,34.48730499999965,82.05126999999993,90.38476599999922,217.56396500000028,95.0,133.46142599999985,108.20507799999996,93.84619099999964,57.05126999999993,44.35888699999941,69.87158199999976,35.64111300000059,114.61523400000078
257,14.871581999999762,36.9228520000006,85.38476599999922,93.84619099999964,219.3588869999994,100.0,135.38476599999922,106.6665039999998,92.56396500000028,65.25634799999989,47.56396500000028,73.58984400000008,37.94873000000007,112.05126999999993
258,16.794922000000042,38.333496000000196,87.69238299999961,96.41015599999992,218.9741210000002,102.05126999999993,135.51269500000035,106.79492200000004,93.46142599999985,72.43603499999972,50.38476599999922,77.05126999999993,37.69238299999961,107.30761700000039
259,14.230956999999762,36.9228520000006,87.43603499999972,95.76904300000024,215.6411130000006,100.0,133.7177729999994,108.0771479999994,96.41015599999992,73.3334960000002,44.23095699999976,77.94873000000007,33.333496000000196,109.10253900000043
260,8.589844000000085,33.20507799999996,84.48730499999965,93.7177729999994,211.41015599999992,96.15380900000036,131.2822270000006,108.84619099999964,98.3334960000002,67.43603499999972,28.974121000000196,75.76904300000024,26.153809000000365,114.23095699999976
261,4.358886999999413,29.74365200000011,81.15380900000036,94.10253900000043,209.3588869999994,94.23095699999976,129.87158199999976,108.20507799999996,97.82031300000017,59.87158199999976,12.948730000000069,72.43603499999972,19.871581999999762,113.9741210000002
262,4.358886999999413,29.230956999999762,80.51269500000035,98.9741210000002,209.87158199999976,94.87158199999976,128.84619099999964,106.79492200000004,96.0258789999998,56.666503999999804,4.6152340000007825,70.25634799999989,17.82031300000017,109.61523400000078
263,8.589844000000085,32.43603499999972,82.69238299999961,106.53857400000015,210.76904300000024,95.51269500000035,126.79492200000004,105.64111300000059,95.51269500000035,59.23095699999976,5.641113000000587,70.64111300000059,19.230956999999762,109.61523400000078
264,15.0,38.333496000000196,85.64111300000059,112.94873000000007,210.51269500000035,94.35888699999941,123.58984400000008,105.38476599999922,97.43603499999972,63.974121000000196,11.025878999999804,73.0771479999994,21.153809000000365,113.46142599999985
265,21.794922000000042,45.64111300000059,87.43603499999972,116.0258789999998,210.2563479999999,92.94873000000007,121.0258789999998,106.0258789999998,101.0258789999998,66.41015599999992,14.615234000000783,77.05126999999993,21.922852000000603,112.82031300000017
266,27.30761700000039,52.69238299999961,88.7177729999994,115.25634799999989,211.2822270000006,92.56396500000028,120.38476599999922,107.43603499999972,105.12841800000024,66.0258789999998,13.717772999999397,81.53857400000015,22.17968800000017,107.17968800000017
267,31.282227000000603,58.46142599999985,90.76904300000024,112.43603499999972,212.94873000000007,93.3334960000002,120.76904300000024,108.9741210000002,109.23095699999976,66.0258789999998,9.358886999999413,85.25634799999989,23.589844000000085,105.76904300000024
268,35.0,63.333496000000196,93.84619099999964,110.38476599999922,214.23095699999976,94.74365200000011,120.12841800000024,110.76904300000024,112.82031300000017,69.87158199999976,4.487304999999651,87.56396500000028,28.333496000000196,110.64111300000059
269,39.87158199999976,68.46142599999985,97.43603499999972,111.6665039999998,214.7436520000001,96.6665039999998,117.82031300000017,113.3334960000002,115.64111300000059,77.69238299999961,0.6411130000005869,88.7177729999994,35.64111300000059,112.69238299999961
270,44.74365200000011,73.20507799999996,99.87158199999976,115.0,213.20507799999996,97.30761700000039,113.7177729999994,115.89746099999957,116.79492200000004,85.12841800000024,-3.717772999999397,88.9741210000002,41.153809000000365,108.3334960000002
271,45.897460999999566,74.61523400000078,98.9741210000002,116.2822270000006,208.20507799999996,94.10253900000043,108.46142599999985,115.51269500000035,115.51269500000035,86.9228520000006,-11.153809000000365,87.82031300000017,39.23095699999976,105.76904300000024
272,41.9228520000006,71.0258789999998,94.23095699999976,113.46142599999985,200.6411130000006,87.43603499999972,102.94873000000007,110.76904300000024,112.17968800000017,82.05126999999993,-22.179442999999992,84.48730499999965,28.974121000000196,110.12841800000024
273,35.897460999999566,65.38476599999922,87.69238299999961,108.58984400000008,194.87158199999976,81.15380900000036,98.9741210000002,103.7177729999994,108.20507799999996,74.35888699999941,-32.69238299999961,80.38476599999922,17.17968800000017,113.84619099999964
274,32.69238299999961,61.53857400000015,83.3334960000002,106.15380900000036,194.61523400000078,79.74365200000011,97.30761700000039,98.58984400000008,105.51269500000035,70.0,-38.58984399999963,77.69238299999961,12.051269999999931,110.51269500000035
275,33.7177729999994,61.025878999999804,82.94873000000007,107.30761700000039,198.3334960000002,82.94873000000007,96.79492200000004,98.0771479999994,105.12841800000024,71.53857400000015,-39.35888699999987,77.05126999999993,15.641113000000587,105.89746099999957
276,36.2822270000006,61.9228520000006,85.0,109.87158199999976,201.2822270000006,87.30761700000039,95.38476599999922,101.15380900000036,106.15380900000036,76.6665039999998,-39.35888699999987,76.9228520000006,22.43603499999972,107.17968800000017
277,37.94873000000007,62.82031300000017,86.41015599999992,110.64111300000059,201.0258789999998,89.87158199999976,92.17968800000017,104.74365200000011,107.69238299999961,80.89746099999957,-41.41015600000037,75.76904300000024,26.153809000000365,110.38476599999922
278,38.0771479999994,63.589844000000085,86.15380900000036,108.84619099999964,199.23095699999976,90.51269500000035,88.7177729999994,106.2822270000006,108.9741210000002,81.15380900000036,-45.38452099999995,73.58984400000008,24.48730499999965,108.58984400000008
279,37.30761700000039,64.23095699999976,85.51269500000035,105.38476599999922,197.6923829999996,90.0,87.05126999999993,105.0,109.35888699999941,77.82031300000017,-48.58984399999963,71.9228520000006,19.230956999999762,105.89746099999957
280,36.153809000000365,64.10253900000043,85.51269500000035,101.79492200000004,196.53857400000015,88.9741210000002,87.43603499999972,101.53857400000015,108.0771479999994,72.94873000000007,-49.35888699999987,71.79492200000004,14.230956999999762,109.74365200000011
281,35.38476599999922,63.333496000000196,86.15380900000036,99.10253900000043,194.7436520000001,88.3334960000002,88.0771479999994,98.0771479999994,105.0,69.48730499999965,-47.82055700000001,73.0771479999994,12.17968800000017,116.0258789999998
282,35.51269500000035,62.30761700000039,86.2822270000006,97.82031300000017,192.05126999999993,89.10253900000043,87.17968800000017,96.9228520000006,100.89746099999957,68.46142599999985,-45.25634799999989,75.0,12.82031300000017,114.23095699999976
283,35.897460999999566,60.76904300000024,85.12841800000024,97.69238299999961,188.7177729999994,90.76904300000024,84.35888699999941,97.30761700000039,96.79492200000004,68.46142599999985,-44.48706099999981,76.0258789999998,13.205077999999958,105.64111300000059
284,35.38476599999922,58.46142599999985,82.69238299999961,98.0771479999994,185.2563479999999,92.17968800000017,81.0258789999998,97.17968800000017,93.9741210000002,67.69238299999961,-46.79492200000004,75.0,11.282227000000603,101.53857400000015
285,35.25634799999989,57.56396500000028,80.89746099999957,99.23095699999976,183.7177729999994,93.84619099999964,79.61523400000078,96.15380900000036,94.10253900000043,66.9228520000006,-50.1281740000004,73.20507799999996,9.615234000000783,105.12841800000024
286,38.20507799999996,61.410155999999915,82.05126999999993,102.69238299999961,186.53857400000015,97.30761700000039,81.2822270000006,95.89746099999957,97.82031300000017,68.7177729999994,-50.38452099999995,73.84619099999964,12.948730000000069,108.20507799999996
287,45.0,69.61523400000078,86.79492200000004,108.3334960000002,193.0771479999994,101.79492200000004,84.74365200000011,98.0771479999994,103.84619099999964,73.9741210000002,-45.76928699999962,78.7177729999994,22.56396500000028,107.17968800000017
288,52.17968800000017,77.43603499999972,92.30761700000039,113.46142599999985,198.84619099999964,104.35888699999941,87.05126999999993,101.9228520000006,108.7177729999994,80.51269500000035,-39.10253899999998,86.53857400000015,33.0771479999994,107.82031300000017
289,55.76904300000024,79.61523400000078,95.89746099999957,114.74365200000011,199.87158199999976,102.94873000000007,86.0258789999998,105.51269500000035,110.25634799999989,84.61523400000078,-34.35888699999987,93.3334960000002,38.0771479999994,112.05126999999993
290,55.12841800000024,76.2822270000006,96.6665039999998,111.9228520000006,196.15380900000036,99.10253900000043,82.17968800000017,107.30761700000039,108.46142599999985,85.0,-32.17944299999999,97.05126999999993,36.025878999999804,112.43603499999972
291,52.69238299999961,71.0258789999998,95.76904300000024,107.43603499999972,190.51269500000035,95.76904300000024,77.56396500000028,106.9228520000006,105.89746099999957,82.82031300000017,-30.641113000000132,97.17968800000017,30.641113000000587,106.53857400000015
292,50.51269500000035,67.17968800000017,94.48730499999965,104.35888699999941,185.76904300000024,94.23095699999976,74.10253900000043,104.74365200000011,104.35888699999941,80.25634799999989,-27.820557000000008,94.23095699999976,26.538574000000153,103.20507799999996
293,49.35888699999941,66.15380900000036,92.56396500000028,103.9741210000002,183.0771479999994,93.84619099999964,72.30761700000039,102.05126999999993,104.48730499999965,79.35888699999941,-23.974365000000034,89.74365200000011,26.538574000000153,108.84619099999964
294,50.25634799999989,68.0771479999994,90.64111300000059,106.2822270000006,183.58984400000008,94.74365200000011,72.17968800000017,100.38476599999922,106.0258789999998,81.53857400000015,-20.38452099999995,86.0258789999998,30.897460999999566,115.38476599999922
295,53.333496000000196,71.9228520000006,89.87158199999976,109.35888699999941,186.9228520000006,96.9228520000006,72.94873000000007,100.76904300000024,108.3334960000002,86.0258789999998,-18.076904000000013,85.25634799999989,37.56396500000028,113.3334960000002
296,57.56396500000028,75.38476599999922,90.76904300000024,110.76904300000024,190.38476599999922,98.7177729999994,73.58984400000008,102.30761700000039,110.64111300000059,90.38476599999922,-17.948729999999614,87.69238299999961,42.17968800000017,106.79492200000004
297,60.897460999999566,76.15380900000036,92.82031300000017,109.48730499999965,191.0258789999998,98.46142599999985,72.56396500000028,102.94873000000007,111.6665039999998,92.05126999999993,-19.61547900000005,91.0258789999998,42.30761700000039,105.51269500000035
298,62.69238299999961,74.61523400000078,94.48730499999965,107.05126999999993,188.46142599999985,95.76904300000024,70.0,102.30761700000039,111.0258789999998,90.64111300000059,-20.769286999999622,93.46142599999985,39.48730499999965,108.46142599999985
299,63.46142599999985,72.69238299999961,95.25634799999989,105.89746099999957,184.87158199999976,92.17968800000017,67.05126999999993,101.0258789999998,109.35888699999941,87.56396500000028,-20.0,94.10253900000043,37.69238299999961,107.94873000000007
300,62.69238299999961,71.53857400000015,94.87158199999976,106.53857400000015,181.79492200000004,89.10253900000043,64.23095699999976,99.35888699999941,106.79492200000004,84.35888699999941,-18.974365000000034,92.69238299999961,38.333496000000196,104.74365200000011
301,60.12841800000024,70.12841800000024,93.58984400000008,107.17968800000017,179.7436520000001,86.9228520000006,61.410155999999915,96.9228520000006,104.23095699999976,81.9228520000006,-20.25634799999989,90.12841800000024,38.846190999999635,106.41015599999992
302,57.17968800000017,68.84619099999964,92.82031300000017,107.05126999999993,178.84619099999964,86.0258789999998,58.7177729999994,94.61523400000078,102.82031300000017,80.89746099999957,-22.820557000000008,88.7177729999994,37.43603499999972,111.79492200000004
303,56.9228520000006,69.48730499999965,94.10253900000043,106.79492200000004,179.87158199999976,87.43603499999972,57.05126999999993,94.61523400000078,104.10253900000043,82.56396500000028,-22.69238299999961,90.64111300000059,35.76904300000024,112.05126999999993
304,60.38476599999922,72.30761700000039,97.43603499999972,107.30761700000039,181.9228520000006,90.25634799999989,56.79492200000004,96.9228520000006,107.82031300000017,86.79492200000004,-17.179442999999992,96.15380900000036,36.153809000000365,106.53857400000015
305,65.12841800000024,75.25634799999989,100.51269500000035,108.46142599999985,182.82031300000017,91.9228520000006,56.79492200000004,99.74365200000011,111.15380900000036,91.15380900000036,-7.948729999999614,101.6665039999998,38.974121000000196,104.10253900000043
306,68.46142599999985,76.6665039999998,100.25634799999989,110.38476599999922,182.05126999999993,91.2822270000006,55.64111300000059,100.38476599999922,111.41015599999992,92.30761700000039,0.12841800000023795,103.9741210000002,42.56396500000028,108.0771479999994
307,69.74365200000011,77.17968800000017,96.6665039999998,112.43603499999972,181.2822270000006,89.74365200000011,53.846190999999635,98.7177729999994,107.94873000000007,88.9741210000002,3.3334960000001956,102.43603499999972,45.38476599999922,109.87158199999976
308,69.35888699999941,77.94873000000007,91.79492200000004,113.3334960000002,181.79492200000004,89.61523400000078,52.82031300000017,96.15380900000036,102.43603499999972,82.82031300000017,-0.12841800000023795,98.46142599999985,45.897460999999566,105.89746099999957
309,66.41015599999992,78.0771479999994,87.94873000000007,111.15380900000036,182.3076170000004,90.89746099999957,52.82031300000017,93.7177729999994,97.43603499999972,76.2822270000006,-9.743652000000111,93.20507799999996,42.17968800000017,103.20507799999996
310,60.25634799999989,75.38476599999922,85.64111300000059,105.89746099999957,181.2822270000006,92.30761700000039,53.7177729999994,91.53857400000015,94.61523400000078,71.6665039999998,-21.923095999999987,87.56396500000028,33.46142599999985,107.30761700000039
311,52.69238299999961,69.35888699999941,84.48730499999965,100.12841800000024,179.3588869999994,93.20507799999996,54.87158199999976,90.12841800000024,94.35888699999941,69.74365200000011,-31.41015600000037,82.43603499999972,22.56396500000028,111.15380900000036
312,47.43603499999972,62.05126999999993,84.23095699999976,97.17968800000017,178.0771479999994,94.10253900000043,56.025878999999804,90.25634799999989,95.51269500000035,69.10253900000043,-34.10253899999998,79.61523400000078,14.102539000000434,107.69238299999961
313,46.666503999999804,56.666503999999804,85.0,97.43603499999972,177.82031300000017,94.48730499999965,56.025878999999804,90.89746099999957,96.2822270000006,67.56396500000028,-30.1281740000004,80.25634799999989,11.538574000000153,102.69238299999961
314,51.153809000000365,56.025878999999804,86.53857400000015,99.74365200000011,177.94873000000007,93.7177729999994,53.46142599999985,90.76904300000024,95.25634799999989,64.35888699999941,-22.179442999999992,84.23095699999976,15.769043000000238,103.9741210000002
315,60.76904300000024,61.9228520000006,88.9741210000002,102.82031300000017,178.0771479999994,92.17968800000017,48.846190999999635,90.12841800000024,93.3334960000002,62.30761700000039,-11.923095999999987,91.0258789999998,26.410155999999915,107.94873000000007
316,73.58984400000008,72.43603499999972,92.69238299999961,105.89746099999957,178.3334960000002,91.53857400000015,44.23095699999976,90.38476599999922,92.82031300000017,64.74365200000011,-0.38476599999921746,98.9741210000002,41.153809000000365,106.79492200000004
317,84.48730499999965,81.79492200000004,96.9228520000006,107.30761700000039,178.20507799999996,92.05126999999993,41.666503999999804,92.43603499999972,94.87158199999976,71.9228520000006,10.512695000000349,105.25634799999989,55.25634799999989,103.46142599999985
318,88.46142599999985,83.84619099999964,99.35888699999941,105.89746099999957,176.53857400000015,92.30761700000039,41.9228520000006,94.35888699999941,98.46142599999985,80.25634799999989,17.30761700000039,106.41015599999992,62.94873000000007,106.41015599999992
319,84.61523400000078,78.0771479999994,98.3334960000002,102.17968800000017,173.58984400000008,92.05126999999993,44.102539000000434,94.61523400000078,101.0258789999998,84.87158199999976,18.077147999999397,101.9228520000006,61.79492200000004,113.46142599999985
320,77.17968800000017,69.61523400000078,94.35888699999941,98.7177729999994,171.41015599999992,92.17968800000017,45.897460999999566,93.3334960000002,101.41015599999992,84.23095699999976,14.487304999999651,94.35888699999941,55.38476599999922,114.35888699999941
321,71.2822270000006,64.35888699999941,90.0,97.56396500000028,171.15380900000036,92.94873000000007,45.25634799999989,91.53857400000015,100.12841800000024,80.0,9.358886999999413,88.0771479999994,49.48730499999965,108.46142599999985
322,68.3334960000002,64.10253900000043,87.43603499999972,98.0771479999994,172.05126999999993,93.20507799999996,41.53857400000015,89.87158199999976,98.0771479999994,75.12841800000024,5.128418000000238,85.64111300000059,47.05126999999993,105.25634799999989
323,67.82031300000017,66.79492200000004,87.30761700000039,98.84619099999964,172.56396500000028,92.05126999999993,37.05126999999993,88.46142599999985,96.79492200000004,72.17968800000017,2.3076170000003913,86.6665039999998,47.82031300000017,107.56396500000028
324,68.3334960000002,69.87158199999976,88.9741210000002,99.10253900000043,172.82031300000017,90.64111300000059,35.12841800000024,88.0771479999994,96.79492200000004,72.05126999999993,0.8974609999995664,88.84619099999964,49.23095699999976,107.94873000000007
325,69.10253900000043,71.15380900000036,91.6665039999998,98.7177729999994,172.6923829999996,89.61523400000078,37.05126999999993,89.35888699999941,98.0771479999994,73.84619099999964,0.8974609999995664,90.0,48.974121000000196,104.35888699999941
326,69.23095699999976,69.74365200000011,94.10253900000043,97.17968800000017,171.41015599999992,88.84619099999964,41.2822270000006,91.6665039999998,100.12841800000024,76.15380900000036,2.1796880000001693,88.9741210000002,47.17968800000017,104.48730499999965
327,68.58984400000008,66.53857400000015,95.38476599999922,95.25634799999989,168.7177729999994,88.46142599999985,44.61523400000078,93.58984400000008,102.17968800000017,78.58984400000008,4.743652000000111,86.6665039999998,45.51269500000035,111.41015599999992
328,68.46142599999985,64.10253900000043,95.12841800000024,94.48730499999965,166.6665039999998,89.48730499999965,45.51269500000035,94.87158199999976,103.7177729999994,81.41015599999992,8.846190999999635,85.25634799999989,46.79492200000004,115.64111300000059
329,69.87158199999976,65.25634799999989,94.10253900000043,96.53857400000015,167.05126999999993,92.94873000000007,44.61523400000078,95.64111300000059,104.10253900000043,84.10253900000043,13.846190999999635,86.0258789999998,51.025878999999804,111.0258789999998
330,71.79492200000004,68.9741210000002,92.69238299999961,100.25634799999989,169.10253900000043,96.79492200000004,43.46142599999985,95.76904300000024,102.43603499999972,84.74365200000011,17.05126999999993,88.0771479999994,54.61523400000078,104.87158199999976
331,72.05126999999993,72.56396500000028,90.76904300000024,102.82031300000017,170.12841800000024,97.82031300000017,42.05126999999993,94.48730499999965,98.7177729999994,81.9228520000006,16.538574000000153,89.23095699999976,54.35888699999941,105.64111300000059
332,70.25634799999989,74.10253900000043,87.82031300000017,102.69238299999961,168.7177729999994,95.51269500000035,40.38476599999922,92.05126999999993,94.48730499999965,76.9228520000006,13.077147999999397,87.94873000000007,51.025878999999804,109.35888699999941
333,67.43603499999972,73.46142599999985,85.12841800000024,100.76904300000024,166.41015599999992,92.05126999999993,38.7177729999994,90.0,92.05126999999993,72.69238299999961,9.743652000000111,84.87158199999976,47.82031300000017,107.82031300000017
334,64.74365200000011,71.15380900000036,83.3334960000002,98.84619099999964,164.3588869999994,89.87158199999976,37.69238299999961,88.84619099999964,92.30761700000039,70.51269500000035,8.461425999999847,81.79492200000004,46.53857400000015,104.23095699999976
335,62.56396500000028,67.17968800000017,82.43603499999972,97.94873000000007,162.94873000000007,89.61523400000078,37.43603499999972,87.82031300000017,94.10253900000043,69.74365200000011,8.589844000000085,79.74365200000011,46.53857400000015,106.2822270000006
336,61.53857400000015,63.0771479999994,81.53857400000015,98.46142599999985,162.05126999999993,90.64111300000059,37.43603499999972,86.0258789999998,95.51269500000035,68.84619099999964,9.230956999999762,78.58984400000008,47.30761700000039,111.0258789999998
337,61.9228520000006,61.410155999999915,80.38476599999922,99.74365200000011,161.79492200000004,92.30761700000039,37.17968800000017,83.3334960000002,94.61523400000078,67.30761700000039,10.641113000000587,78.0771479999994,49.102539000000434,109.35888699999941
338,63.20507799999996,63.0771479999994,79.48730499999965,100.25634799999989,161.2822270000006,92.56396500000028,35.64111300000059,80.51269500000035,91.0258789999998,65.25634799999989,13.205077999999958,77.30761700000039,50.76904300000024,102.30761700000039
339,63.7177729999994,66.0258789999998,78.7177729999994,98.84619099999964,159.48730499999965,90.38476599999922,32.43603499999972,77.69238299999961,85.51269500000035,63.46142599999985,16.666503999999804,75.89746099999957,50.51269500000035,100.12841800000024
340,62.94873000000007,67.56396500000028,78.20507799999996,96.6665039999998,157.17968800000017,87.30761700000039,28.077147999999397,75.76904300000024,80.38476599999922,62.56396500000028,20.25634799999989,74.10253900000043,48.0771479999994,104.48730499999965
341,62.56396500000028,67.30761700000039,78.3334960000002,95.89746099999957,156.6665039999998,86.2822270000006,25.128418000000238,75.76904300000024,77.56396500000028,63.46142599999985,22.56396500000028,72.82031300000017,45.897460999999566,106.9228520000006
342,63.974121000000196,66.41015599999992,79.74365200000011,97.56396500000028,158.46142599999985,88.58984400000008,26.025878999999804,77.82031300000017,77.69238299999961,65.64111300000059,22.82031300000017,72.82031300000017,45.38476599999922,104.23095699999976
343,66.9228520000006,65.51269500000035,81.79492200000004,99.35888699999941,159.7436520000001,91.6665039999998,30.641113000000587,80.64111300000059,80.0,67.17968800000017,20.128418000000238,73.58984400000008,45.64111300000059,103.58984400000008
344,70.25634799999989,65.12841800000024,83.58984400000008,99.74365200000011,158.3334960000002,93.0771479999994,35.897460999999566,82.43603499999972,83.3334960000002,67.05126999999993,16.282227000000603,75.38476599999922,45.64111300000059,107.69238299999961
345,73.46142599999985,66.53857400000015,84.23095699999976,99.10253900000043,155.12841800000024,92.43603499999972,39.102539000000434,83.84619099999964,87.17968800000017,66.15380900000036,14.871581999999762,78.58984400000008,46.410155999999915,109.35888699999941
346,75.76904300000024,69.48730499999965,83.9741210000002,99.35888699999941,152.6923829999996,91.53857400000015,39.23095699999976,85.76904300000024,90.64111300000059,66.9228520000006,18.077147999999397,83.0771479999994,48.846190999999635,104.48730499999965
347,75.64111300000059,71.79492200000004,83.7177729999994,101.0258789999998,152.56396500000028,90.76904300000024,37.43603499999972,88.3334960000002,93.0771479999994,70.0,24.48730499999965,87.05126999999993,51.153809000000365,100.89746099999957
348,73.3334960000002,71.79492200000004,83.84619099999964,103.0771479999994,153.84619099999964,90.0,35.38476599999922,90.38476599999922,94.10253900000043,74.61523400000078,29.358886999999413,88.58984400000008,51.666503999999804,104.87158199999976
349,71.53857400000015,70.76904300000024,84.74365200000011,104.23095699999976,155.2563479999999,89.23095699999976,34.48730499999965,91.2822270000006,93.9741210000002,79.10253900000043,30.0,87.30761700000039,51.53857400000015,109.74365200000011
350,72.43603499999972,70.38476599999922,86.2822270000006,103.58984400000008,155.51269500000035,88.7177729999994,35.12841800000024,91.0258789999998,93.58984400000008,81.6665039999998,27.17968800000017,85.51269500000035,53.20507799999996,107.94873000000007
351,75.38476599999922,70.51269500000035,87.82031300000017,101.0258789999998,153.20507799999996,87.82031300000017,35.64111300000059,89.74365200000011,93.20507799999996,81.53857400000015,24.230956999999762,85.51269500000035,56.2822270000006,104.10253900000043
352,77.30761700000039,70.12841800000024,88.3334960000002,97.43603499999972,148.3334960000002,85.76904300000024,33.974121000000196,87.30761700000039,92.17968800000017,78.84619099999964,24.74365200000011,87.82031300000017,58.20507799999996,106.6665039999998
353,77.17968800000017,69.10253900000043,87.69238299999961,94.61523400000078,143.46142599999985,83.58984400000008,29.48730499999965,84.61523400000078,91.15380900000036,75.25634799999989,29.230956999999762,91.79492200000004,57.69238299999961,112.17968800000017
354,75.89746099999957,68.20507799999996,86.6665039999998,94.10253900000043,141.53857400000015,82.69238299999961,24.102539000000434,83.20507799999996,91.2822270000006,72.56396500000028,35.12841800000024,95.25634799999989,55.12841800000024,111.53857400000015
355,74.23095699999976,66.9228520000006,86.41015599999992,95.51269500000035,142.6923829999996,82.82031300000017,19.871581999999762,82.82031300000017,92.82031300000017,70.64111300000059,37.43603499999972,96.15380900000036,51.025878999999804,106.6665039999998
356,72.05126999999993,63.974121000000196,87.05126999999993,96.41015599999992,143.9741210000002,82.56396500000028,18.077147999999397,81.9228520000006,94.10253900000043,68.58984400000008,33.46142599999985,93.46142599999985,45.25634799999989,106.9228520000006
357,69.61523400000078,60.64111300000059,87.69238299999961,95.76904300000024,143.58984400000008,81.41015599999992,18.461425999999847,79.48730499999965,92.56396500000028,65.25634799999989,25.51269500000035,88.84619099999964,39.102539000000434,111.9228520000006
358,68.20507799999996,59.87158199999976,87.94873000000007,94.74365200000011,142.56396500000028,80.38476599999922,20.128418000000238,76.6665039999998,87.56396500000028,61.2822270000006,19.102539000000434,85.38476599999922,35.51269500000035,112.05126999999993
359,68.58984400000008,62.82031300000017,87.69238299999961,94.48730499999965,142.43603499999972,80.38476599999922,21.794922000000042,75.12841800000024,81.41015599999992,58.20507799999996,17.82031300000017,85.12841800000024,36.2822270000006,106.0258789999998
360,69.35888699999941,66.79492200000004,87.05126999999993,94.61523400000078,143.0771479999994,80.51269500000035,22.56396500000028,75.51269500000035,77.56396500000028,57.30761700000039,20.384765999999217,86.9228520000006,39.87158199999976,102.94873000000007
361,69.10253900000043,68.84619099999964,86.79492200000004,94.48730499999965,143.84619099999964,80.25634799999989,22.82031300000017,77.82031300000017,77.82031300000017,58.846190999999635,23.974121000000196,88.7177729999994,43.589844000000085,106.0258789999998
362,68.46142599999985,68.58984400000008,87.30761700000039,94.61523400000078,145.12841800000024,80.64111300000059,23.333496000000196,81.15380900000036,81.41015599999992,62.17968800000017,27.17968800000017,89.10253900000043,45.51269500000035,107.69238299999961
363,68.46142599999985,67.56396500000028,88.46142599999985,95.51269500000035,147.17968800000017,82.30761700000039,24.358886999999413,84.74365200000011,85.25634799999989,65.0,30.0,88.9741210000002,45.64111300000059,105.0
364,68.3334960000002,66.9228520000006,88.9741210000002,96.53857400000015,148.84619099999964,84.35888699999941,24.615234000000783,86.15380900000036,86.0258789999998,65.12841800000024,32.69238299999961,88.9741210000002,43.7177729999994,105.12841800000024
365,67.43603499999972,67.17968800000017,87.69238299999961,96.6665039999998,148.9741210000002,84.74365200000011,22.30761700000039,84.35888699999941,82.69238299999961,61.79492200000004,35.25634799999989,89.61523400000078,41.025878999999804,111.53857400000015
366,67.17968800000017,69.61523400000078,85.64111300000059,96.41015599999992,148.0771479999994,83.3334960000002,17.94873000000007,80.51269500000035,77.17968800000017,57.30761700000039,37.94873000000007,91.15380900000036,40.64111300000059,115.25634799999989
367,69.23095699999976,74.10253900000043,85.51269500000035,96.9228520000006,146.9228520000006,81.53857400000015,14.102539000000434,77.43603499999972,73.9741210000002,55.38476599999922,40.64111300000059,94.23095699999976,44.61523400000078,109.35888699999941
368,73.20507799999996,78.9741210000002,88.84619099999964,98.9741210000002,145.76904300000024,80.25634799999989,12.43603499999972,77.05126999999993,76.15380900000036,58.0771479999994,42.30761700000039,98.7177729999994,51.666503999999804,101.41015599999992
369,77.17968800000017,82.69238299999961,94.35888699999941,102.05126999999993,144.48730499999965,80.0,12.692382999999609,79.10253900000043,83.58984400000008,65.38476599999922,43.20507799999996,103.7177729999994,58.0771479999994,101.53857400000015
370,80.76904300000024,85.89746099999957,99.23095699999976,105.25634799999989,144.61523400000078,81.53857400000015,13.974121000000196,82.94873000000007,92.69238299999961,75.12841800000024,45.64111300000059,108.0771479999994,62.17968800000017,106.6665039999998
371,84.74365200000011,90.51269500000035,101.9228520000006,107.05126999999993,147.05126999999993,84.48730499999965,14.871581999999762,87.05126999999993,98.46142599999985,83.20507799999996,51.410155999999915,111.6665039999998,65.0,108.0771479999994
372,88.58984400000008,95.0,101.9228520000006,106.15380900000036,150.38476599999922,86.41015599999992,14.102539000000434,89.10253900000043,97.94873000000007,85.51269500000035,59.23095699999976,113.7177729999994,67.17968800000017,106.15380900000036
373,91.0258789999998,96.53857400000015,100.38476599999922,102.05126999999993,151.41015599999992,84.35888699999941,11.025878999999804,87.94873000000007,92.82031300000017,82.05126999999993,66.41015599999992,114.23095699999976,69.61523400000078,107.94873000000007
374,92.17968800000017,94.87158199999976,98.9741210000002,97.69238299999961,149.61523400000078,79.48730499999965,7.307617000000391,85.76904300000024,88.7177729999994,78.20507799999996,72.43603499999972,114.10253900000043,73.58984400000008,111.41015599999992
375,94.10253900000043,93.84619099999964,99.23095699999976,96.53857400000015,147.94873000000007,76.53857400000015,5.641113000000587,86.0258789999998,91.41015599999992,80.51269500000035,78.84619099999964,115.12841800000024,80.51269500000035,108.84619099999964
376,97.56396500000028,96.6665039999998,101.41015599999992,99.48730499999965,148.58984400000008,77.82031300000017,7.307617000000391,89.48730499999965,100.64111300000059,90.76904300000024,85.64111300000059,117.43603499999972,88.84619099999964,101.9228520000006
377,100.64111300000059,102.56396500000028,103.58984400000008,103.84619099999964,150.6411130000006,81.15380900000036,10.128418000000238,92.05126999999993,110.25634799999989,102.69238299999961,90.0,118.9741210000002,93.58984400000008,100.51269500000035
378,100.89746099999957,107.30761700000039,104.10253900000043,106.79492200000004,152.17968800000017,82.94873000000007,11.153809000000365,90.25634799999989,112.56396500000028,107.43603499999972,89.35888699999941,117.94873000000007,91.0258789999998,105.51269500000035
379,98.0771479999994,107.94873000000007,102.43603499999972,106.9228520000006,152.82031300000017,82.43603499999972,9.743652000000111,83.7177729999994,104.10253900000043,100.12841800000024,84.48730499999965,114.35888699999941,82.17968800000017,107.69238299999961
380,93.46142599999985,103.84619099999964,99.61523400000078,105.12841800000024,153.0771479999994,80.64111300000059,7.307617000000391,76.15380900000036,87.94873000000007,83.58984400000008,78.3334960000002,109.23095699999976,70.64111300000059,103.58984400000008
381,88.20507799999996,96.9228520000006,96.53857400000015,101.9228520000006,152.17968800000017,78.20507799999996,5.128418000000238,70.76904300000024,71.15380900000036,65.64111300000059,73.58984400000008,104.10253900000043,59.87158199999976,101.2822270000006
382,83.58984400000008,91.2822270000006,93.0771479999994,97.82031300000017,150.0,75.51269500000035,3.846190999999635,69.35888699999941,61.2822270000006,54.74365200000011,72.30761700000039,100.38476599999922,51.9228520000006,105.12841800000024
383,81.53857400000015,91.53857400000015,90.25634799999989,94.35888699999941,148.20507799999996,74.23095699999976,3.4614259999998467,72.05126999999993,62.30761700000039,54.87158199999976,75.51269500000035,99.23095699999976,48.589844000000085,108.20507799999996
