,EEG.AF3,EEG.F7,EEG.F3,EEG.FC5,EEG.T7,EEG.P7,EEG.O1,EEG.O2,EEG.P8,EEG.T8,EEG.FC6,EEG.F4,EEG.F8,EEG.AF4
0,83.3334960000002,284.3588869999994,85.76904300000024,193.9741210000002,60.51269500000035,101.2822270000006,-31.794922000000042,16.282227000000603,81.79492200000004,40.76904300000024,-134.35888699999987,44.35888699999941,-121.02563499999997,101.2822270000006
1,81.79492200000004,278.7177729999994,91.15380900000036,189.48730499999965,51.53857400000015,97.05126999999993,-21.666747999999643,30.128418000000238,90.0,51.2822270000006,-122.17944299999999,49.74365200000011,-117.69238299999961,103.7177729999994
2,85.38476599999922,280.89746099999957,101.15380900000036,183.46142599999985,40.0,91.15380900000036,-7.820557000000008,47.56396500000028,101.2822270000006,66.53857400000015,-111.15380900000036,60.51269500000035,-107.17944299999999,103.7177729999994
3,95.25634799999989,291.2822270000006,113.20507799999996,176.0258789999998,31.538574000000153,85.76904300000024,5.897460999999566,65.89746099999957,114.48730499999965,84.74365200000011,-100.64111300000013,75.51269500000035,-88.71801800000003,98.7177729999994
4,106.2822270000006,303.5898440000001,122.43603499999972,168.84619099999964,31.282227000000603,84.74365200000011,14.102539000000434,76.9228520000006,122.94873000000007,97.56396500000028,-91.79492200000004,88.9741210000002,-70.38452099999995,98.0771479999994
5,108.46142599999985,307.5639650000003,123.0771479999994,162.6923829999996,40.12841800000024,90.38476599999922,12.82031300000017,72.56396500000028,119.87158199999976,95.89746099999957,-88.20507799999996,92.69238299999961,-65.25634799999989,104.61523400000078
6,96.79492200000004,298.5898440000001,114.23095699999976,156.9228520000006,53.846190999999635,100.38476599999922,3.3334960000001956,53.846190999999635,104.74365200000011,78.7177729999994,-90.51293900000019,83.46142599999985,-78.07690400000001,108.0771479999994
7,77.69238299999961,282.17968800000017,103.84619099999964,151.41015599999992,65.76904300000024,110.12841800000024,-7.692382999999609,33.0771479999994,86.41015599999992,57.30761700000039,-93.71801800000003,69.10253900000043,-98.46142599999985,102.69238299999961
8,63.46142599999985,269.48730499999965,101.6665039999998,145.51269500000035,71.6665039999998,114.48730499999965,-12.051270000000386,24.74365200000011,76.6665039999998,47.43603499999972,-91.15380900000036,62.05126999999993,-109.35888699999987,98.46142599999985
9,61.410155999999915,267.5639650000003,109.61523400000078,137.43603499999972,71.2822270000006,110.76904300000024,-6.666747999999643,34.35888699999941,81.6665039999998,56.2822270000006,-81.92309599999999,67.30761700000039,-102.05127000000039,102.69238299999961
10,68.0771479999994,275.0,120.51269500000035,125.51269500000035,68.7177729999994,101.15380900000036,4.358886999999413,54.74365200000011,96.6665039999998,76.79492200000004,-70.89746100000002,79.48730499999965,-82.17944299999999,107.05126999999993
11,73.9741210000002,283.9741210000002,126.15380900000036,109.74365200000011,69.74365200000011,93.3334960000002,13.461425999999847,72.69238299999961,110.38476599999922,94.35888699999941,-63.20507799999996,88.7177729999994,-63.46142599999985,102.30761700000039
12,71.0258789999998,286.15380900000036,123.7177729999994,91.53857400000015,76.9228520000006,93.9741210000002,15.769043000000238,78.3334960000002,112.94873000000007,97.82031300000017,-59.48706099999981,89.61523400000078,-57.30761700000039,96.2822270000006
13,57.69238299999961,276.4101559999999,116.41015599999992,71.53857400000015,87.56396500000028,102.69238299999961,12.56396500000028,69.48730499999965,102.69238299999961,86.79492200000004,-55.89746100000002,83.20507799999996,-65.76928699999962,99.61523400000078
14,39.102539000000434,257.17968800000017,108.84619099999964,50.51269500000035,97.05126999999993,113.84619099999964,8.717772999999397,52.94873000000007,87.56396500000028,70.76904300000024,-47.69238299999961,74.35888699999941,-81.28198199999997,106.6665039999998
15,25.0,237.82031300000017,105.51269500000035,30.769043000000238,103.46142599999985,122.05126999999993,8.717772999999397,39.74365200000011,78.46142599999985,62.30761700000039,-31.41015600000037,68.9741210000002,-90.25634799999989,105.12841800000024
16,23.333496000000196,229.3588869999994,108.9741210000002,15.769043000000238,106.9228520000006,124.87158199999976,14.102539000000434,39.48730499999965,82.05126999999993,68.58984400000008,-7.051270000000386,70.89746099999957,-82.69238299999961,97.56396500000028
17,33.333496000000196,235.12841800000024,116.9228520000006,7.051269999999931,108.0771479999994,122.43603499999972,23.461425999999847,53.333496000000196,96.2822270000006,86.79492200000004,20.51269500000035,78.9741210000002,-60.25634799999989,96.53857400000015
18,45.64111300000059,247.56396500000028,123.46142599999985,2.4360349999997197,107.17968800000017,116.53857400000015,33.846190999999635,74.35888699999941,112.17968800000017,105.89746099999957,43.974121000000196,87.30761700000039,-35.25634799999989,101.53857400000015
19,49.87158199999976,255.51269500000035,124.74365200000011,-1.9228520000006029,105.51269500000035,110.64111300000059,42.82031300000017,92.69238299999961,120.76904300000024,115.25634799999989,59.23095699999976,91.15380900000036,-21.153809000000365,101.0258789999998
20,42.69238299999961,252.43603499999972,122.05126999999993,-8.333252000000357,106.6665039999998,109.48730499999965,49.87158199999976,102.69238299999961,120.51269500000035,113.0771479999994,68.9741210000002,90.38476599999922,-20.89746100000002,94.74365200000011
21,28.974121000000196,240.38476599999922,119.23095699999976,-16.794922000000042,113.0771479999994,113.7177729999994,56.9228520000006,104.74365200000011,117.17968800000017,107.17968800000017,80.0,88.3334960000002,-27.179442999999992,94.74365200000011
22,16.025878999999804,226.6665039999998,118.20507799999996,-26.666747999999643,124.35888699999941,118.9741210000002,65.0,103.84619099999964,117.56396500000028,107.05126999999993,98.46142599999985,86.6665039999998,-28.974365000000034,102.56396500000028
23,8.589844000000085,218.20507799999996,117.30761700000039,-36.79492200000004,139.10253900000043,120.0,72.56396500000028,104.61523400000078,121.9228520000006,115.51269500000035,126.2822270000006,84.35888699999941,-21.153809000000365,105.12841800000024
24,6.153809000000365,217.17968800000017,114.74365200000011,-46.153809000000365,156.9228520000006,116.9228520000006,77.17968800000017,108.84619099999964,123.3334960000002,126.6665039999998,161.79492200000004,80.25634799999989,-6.666747999999643,97.17968800000017
25,3.846190999999635,219.87158199999976,110.12841800000024,-54.48706099999981,176.79492200000004,113.7177729999994,77.82031300000017,113.3334960000002,114.10253900000043,131.41015599999992,200.76904300000024,73.7177729999994,6.538574000000153,90.76904300000024
26,-2.9487300000000687,220.12841800000024,103.9741210000002,-62.30761700000039,195.89746099999957,114.48730499999965,75.76904300000024,112.56396500000028,92.82031300000017,125.51269500000035,239.10253900000043,65.51269500000035,13.589844000000085,94.74365200000011
27,-13.974365000000034,215.76904300000024,97.56396500000028,-70.0,211.41015599999992,119.23095699999976,73.46142599999985,105.51269500000035,67.17968800000017,112.82031300000017,275.76904300000024,57.69238299999961,18.589844000000085,100.64111300000059
28,-22.69238299999961,211.2822270000006,94.48730499999965,-76.02563499999997,222.82031300000017,125.38476599999922,73.7177729999994,98.46142599999985,50.0,103.3334960000002,314.10253900000043,54.74365200000011,32.30761700000039,99.10253900000043
29,-21.923095999999987,213.3334960000002,98.20507799999996,-79.48706099999981,231.2822270000006,128.46142599999985,78.46142599999985,99.74365200000011,49.74365200000011,104.61523400000078,357.4360349999997,59.48730499999965,62.05126999999993,95.64111300000059
30,-11.28198199999997,223.46142599999985,107.17968800000017,-82.17944299999999,239.7436520000001,126.41015599999992,87.69238299999961,111.79492200000004,62.69238299999961,114.87158199999976,404.87158199999976,69.48730499999965,104.10253900000043,98.84619099999964
31,1.9228520000006029,236.41015599999992,114.74365200000011,-87.56420900000057,253.3334960000002,121.9228520000006,99.23095699999976,127.82031300000017,75.51269500000035,123.58984400000008,450.0,77.17968800000017,146.9228520000006,103.20507799999996
32,9.615234000000783,245.38476599999922,114.74365200000011,-97.05127000000039,277.3076170000004,120.12841800000024,109.87158199999976,138.84619099999964,76.6665039999998,120.89746099999957,487.6923829999996,77.05126999999993,181.2822270000006,98.58984400000008
33,8.846190999999635,246.9228520000006,107.82031300000017,-108.20507799999996,311.9228520000006,122.94873000000007,117.69238299999961,141.41015599999992,65.64111300000059,106.53857400000015,518.5898440000001,69.74365200000011,206.79492200000004,89.61523400000078
34,3.717772999999397,242.43603499999972,100.12841800000024,-116.92309599999999,349.7436520000001,126.2822270000006,123.46142599999985,138.58984400000008,52.94873000000007,89.87158199999976,549.1025390000004,61.53857400000015,228.7177729999994,88.9741210000002
35,0.6411130000005869,236.6665039999998,97.69238299999961,-120.89746100000002,381.9228520000006,124.48730499999965,129.10253900000043,136.9228520000006,48.846190999999635,82.30761700000039,585.1284180000002,58.46142599999985,250.2563479999999,97.17968800000017
36,3.9741210000001956,234.7436520000001,101.41015599999992,-120.89746100000002,406.2822270000006,117.05126999999993,136.15380900000036,139.87158199999976,55.12841800000024,86.9228520000006,625.5126950000003,61.79492200000004,267.4360349999997,102.82031300000017
37,12.307617000000391,238.46142599999985,107.82031300000017,-119.61547900000005,428.20507799999996,108.84619099999964,144.10253900000043,146.41015599999992,64.87158199999976,97.05126999999993,661.6665039999998,67.30761700000039,271.9228520000006,101.41015599999992
38,18.974121000000196,243.84619099999964,110.76904300000024,-119.35888699999987,453.84619099999964,105.38476599999922,152.17968800000017,152.3076170000004,69.74365200000011,102.82031300000017,682.5639650000003,68.46142599999985,258.3334960000002,100.76904300000024
39,18.461425999999847,244.48730499999965,107.30761700000039,-120.89746100000002,482.3076170000004,108.0771479999994,159.87158199999976,154.87158199999976,67.56396500000028,100.12841800000024,684.1025390000004,61.666503999999804,231.53857400000015,105.25634799999989
40,11.538574000000153,237.82031300000017,98.9741210000002,-122.43579099999943,507.17968800000017,113.84619099999964,168.20507799999996,156.15380900000036,63.589844000000085,93.58984400000008,672.9487300000001,50.0,206.41015599999992,107.82031300000017
41,3.9741210000001956,225.89746099999957,91.2822270000006,-122.05127000000039,521.794922,118.46142599999985,178.20507799999996,160.0,64.48730499999965,91.0258789999998,661.4101559999999,40.76904300000024,197.43603499999972,104.35888699999941
42,-0.512695000000349,212.17968800000017,88.7177729999994,-120.64111300000013,523.205078,118.84619099999964,189.7436520000001,167.43603499999972,72.17968800000017,96.41015599999992,658.0771479999994,38.333496000000196,206.6665039999998,101.41015599999992
43,-2.5639650000002803,197.6923829999996,90.38476599999922,-120.38452099999995,514.2309569999998,115.12841800000024,201.79492200000004,174.87158199999976,82.56396500000028,106.6665039999998,662.1796880000002,41.2822270000006,222.6923829999996,105.89746099999957
44,-5.769286999999622,182.82031300000017,92.43603499999972,-121.02563499999997,501.4101559999999,110.38476599999922,212.6923829999996,178.3334960000002,89.87158199999976,116.0258789999998,666.9228520000006,44.61523400000078,231.41015599999992,112.94873000000007
45,-12.692382999999609,167.05126999999993,91.6665039999998,-119.35888699999987,491.0258789999998,108.0771479999994,220.76904300000024,175.6411130000006,90.89746099999957,119.74365200000011,665.2563479999999,43.974121000000196,226.41015599999992,114.61523400000078
46,-23.974365000000034,149.87158199999976,86.6665039999998,-112.30761700000039,484.7436520000001,108.7177729999994,225.38476599999922,166.79492200000004,85.51269500000035,115.38476599999922,653.0771479999994,37.94873000000007,210.51269500000035,112.30761700000039
47,-38.46142599999985,130.51269500000035,78.0771479999994,-100.76928699999962,479.87158199999976,111.41015599999992,227.82031300000017,152.94873000000007,75.64111300000059,103.7177729999994,630.8974609999996,27.17968800000017,190.0,113.7177729999994
48,-52.435790999999426,110.25634799999989,68.7177729999994,-87.82055700000001,472.4360349999997,115.25634799999989,230.38476599999922,137.43603499999972,65.38476599999922,89.35888699999941,603.4614259999998,15.641113000000587,170.76904300000024,118.7177729999994
49,-61.153809000000365,92.94873000000007,63.20507799999996,-75.64111300000013,458.9741210000002,119.35888699999941,236.2822270000006,126.6665039999998,59.74365200000011,80.64111300000059,578.5898440000001,9.358886999999413,157.6923829999996,120.38476599999922
50,-62.82055700000001,81.79492200000004,64.61523400000078,-64.23071300000038,437.6923829999996,121.0258789999998,247.05126999999993,125.51269500000035,62.05126999999993,84.87158199999976,561.0258789999998,12.17968800000017,153.9741210000002,117.56396500000028
51,-60.64111300000013,75.64111300000059,71.53857400000015,-52.051270000000386,408.84619099999964,116.6665039999998,260.2563479999999,132.43603499999972,71.53857400000015,101.53857400000015,548.7177729999994,22.30761700000039,157.6923829999996,116.0258789999998
52,-60.1281740000004,69.74365200000011,77.94873000000007,-38.20507799999996,375.6411130000006,107.17968800000017,270.0,140.51269500000035,82.94873000000007,121.2822270000006,535.0,32.56396500000028,161.6665039999998,118.46142599999985
53,-65.0,59.87158199999976,78.20507799999996,-22.30761700000039,343.0771479999994,98.58984400000008,271.2822270000006,142.17968800000017,89.61523400000078,131.41015599999992,514.6152340000008,35.25634799999989,157.3076170000004,119.61523400000078
54,-75.1281740000004,43.974121000000196,70.64111300000059,-6.153809000000365,315.2563479999999,97.30761700000039,263.7177729999994,134.7436520000001,88.84619099999964,125.25634799999989,486.0258789999998,27.69238299999961,141.41015599999992,115.89746099999957
55,-87.43579099999943,24.615234000000783,58.589844000000085,8.333496000000196,290.76904300000024,103.0771479999994,252.82031300000017,121.9228520000006,83.0771479999994,107.30761700000039,452.6923829999996,13.717772999999397,121.15380900000036,112.30761700000039
56,-97.30761700000039,7.307617000000391,48.589844000000085,21.794922000000042,265.2563479999999,109.23095699999976,245.89746099999957,111.41015599999992,78.7177729999994,90.12841800000024,420.6411130000006,1.7949220000000423,111.0258789999998,113.9741210000002
57,-100.64111300000013,-2.9487300000000687,46.410155999999915,37.56396500000028,234.23095699999976,109.23095699999976,247.43603499999972,110.25634799999989,81.41015599999992,85.64111300000059,395.3847659999992,-1.0258789999998044,123.3334960000002,117.94873000000007
58,-98.07690400000001,-7.564209000000574,52.17968800000017,57.56396500000028,196.79492200000004,101.6665039999998,255.51269500000035,119.87158199999976,90.76904300000024,96.0258789999998,376.6665039999998,5.769043000000238,156.9228520000006,117.94873000000007
59,-95.76928699999962,-13.71801800000003,58.974121000000196,78.20507799999996,157.17968800000017,90.51269500000035,263.3334960000002,132.82031300000017,100.76904300000024,111.53857400000015,357.5639650000003,14.615234000000783,195.0,115.0
60,-99.74365200000011,-26.923095999999987,58.974121000000196,93.0771479999994,123.20507799999996,82.69238299999961,263.84619099999964,138.3334960000002,103.9741210000002,118.84619099999964,331.15380900000036,16.666503999999804,217.05126999999993,114.35888699999941
61,-109.35888699999987,-44.35888699999987,51.025878999999804,98.9741210000002,101.9228520000006,82.43603499999972,255.6411130000006,132.17968800000017,98.9741210000002,112.69238299999961,298.20507799999996,9.871581999999762,213.9741210000002,116.2822270000006
62,-118.84619099999964,-57.82055700000001,41.025878999999804,99.35888699999941,93.84619099999964,88.0771479999994,243.84619099999964,120.51269500000035,91.0258789999998,99.10253900000043,266.2822270000006,0.512695000000349,192.94873000000007,116.41015599999992
63,-123.46142599999985,-62.051270000000386,35.897460999999566,99.23095699999976,91.41015599999992,93.0771479999994,235.38476599999922,112.43603499999972,86.9228520000006,89.61523400000078,241.6665039999998,-3.9741210000001956,169.48730499999965,114.48730499999965
64,-124.35888699999987,-58.974365000000034,37.05126999999993,100.51269500000035,85.64111300000059,91.53857400000015,233.20507799999996,111.2822270000006,88.46142599999985,90.0,222.94873000000007,-1.2822270000006029,154.48730499999965,114.74365200000011
65,-125.1281740000004,-54.23071300000038,40.38476599999922,101.53857400000015,74.87158199999976,84.61523400000078,233.58984400000008,112.56396500000028,91.53857400000015,96.53857400000015,204.3588869999994,3.9741210000001956,149.87158199999976,117.30761700000039
66,-127.17944299999999,-51.28198199999997,41.79492200000004,99.74365200000011,64.35888699999941,79.35888699999941,231.9228520000006,111.0258789999998,90.64111300000059,101.6665039999998,183.84619099999964,6.538574000000153,150.6411130000006,117.30761700000039
67,-128.33325200000036,-50.38452099999995,40.64111300000059,95.0,59.48730499999965,80.51269500000035,226.53857400000015,106.79492200000004,85.76904300000024,101.53857400000015,164.61523400000078,5.256347999999889,150.6411130000006,113.58984400000008
68,-126.15380900000036,-49.35888699999987,39.74365200000011,89.10253900000043,59.23095699999976,85.51269500000035,220.0,105.25634799999989,82.82031300000017,99.35888699999941,151.9228520000006,3.9741210000001956,147.56396500000028,111.0258789999998
69,-119.61547900000005,-45.38452099999995,42.17968800000017,85.0,58.974121000000196,88.0771479999994,215.89746099999957,111.0258789999998,87.30761700000039,101.53857400000015,148.7177729999994,7.43603499999972,143.9741210000002,112.17968800000017
70,-110.64111300000013,-37.051270000000386,47.94873000000007,84.35888699999941,57.17968800000017,86.15380900000036,214.3588869999994,122.30761700000039,98.20507799999996,109.87158199999976,153.20507799999996,16.538574000000153,143.58984400000008,112.69238299999961
71,-103.58984399999963,-26.794922000000042,53.846190999999635,85.25634799999989,55.64111300000059,82.82031300000017,212.56396500000028,129.61523400000078,107.56396500000028,119.87158199999976,158.58984400000008,27.05126999999993,146.2822270000006,108.9741210000002
72,-101.92309599999999,-19.230713000000378,56.153809000000365,84.61523400000078,57.43603499999972,81.41015599999992,207.17968800000017,125.12841800000024,107.17968800000017,123.9741210000002,158.46142599999985,32.82031300000017,147.56396500000028,105.12841800000024
73,-104.8718259999996,-17.69238299999961,54.23095699999976,81.2822270000006,62.69238299999961,82.43603499999972,198.9741210000002,109.48730499999965,95.76904300000024,118.7177729999994,151.9228520000006,31.538574000000153,144.87158199999976,105.89746099999957
74,-107.69238299999961,-20.512939000000188,51.025878999999804,77.56396500000028,70.25634799999989,84.87158199999976,191.53857400000015,93.0771479999994,79.61523400000078,107.43603499999972,144.87158199999976,26.538574000000153,140.12841800000024,109.10253900000043
75,-106.79492200000004,-23.58984399999963,49.87158199999976,76.0258789999998,77.17968800000017,87.05126999999993,188.9741210000002,86.41015599999992,67.94873000000007,97.17968800000017,144.61523400000078,22.82031300000017,136.79492200000004,109.23095699999976
76,-102.94872999999961,-24.74365200000011,51.153809000000365,75.51269500000035,80.38476599999922,88.0771479999994,190.89746099999957,91.6665039999998,65.38476599999922,92.94873000000007,152.17968800000017,22.43603499999972,135.6411130000006,106.79492200000004
77,-100.1281740000004,-24.358886999999868,52.56396500000028,73.20507799999996,79.23095699999976,87.94873000000007,193.20507799999996,101.9228520000006,69.87158199999976,94.23095699999976,162.3076170000004,23.846190999999635,134.23095699999976,106.0258789999998
78,-100.51293900000019,-22.435790999999426,52.05126999999993,67.82031300000017,77.56396500000028,88.0771479999994,191.53857400000015,108.7177729999994,75.38476599999922,96.15380900000036,168.58984400000008,24.871581999999762,131.79492200000004,106.79492200000004
79,-103.33325200000036,-18.974365000000034,49.102539000000434,60.38476599999922,80.76904300000024,90.25634799999989,185.76904300000024,107.69238299999961,76.53857400000015,93.9741210000002,168.9741210000002,24.74365200000011,129.61523400000078,105.0
80,-106.92309599999999,-14.743652000000111,45.38476599999922,52.30761700000039,89.74365200000011,93.46142599999985,179.10253900000043,100.38476599999922,71.6665039999998,86.2822270000006,165.6411130000006,22.82031300000017,128.3334960000002,101.79492200000004
81,-109.10253899999998,-11.666747999999643,42.30761700000039,44.23095699999976,99.61523400000078,94.87158199999976,175.12841800000024,92.69238299999961,64.87158199999976,77.30761700000039,164.10253900000043,19.615234000000783,128.46142599999985,102.17968800000017
82,-107.17944299999999,-8.58984399999963,41.666503999999804,37.17968800000017,105.0,92.43603499999972,173.7177729999994,92.05126999999993,64.61523400000078,76.79492200000004,170.89746099999957,17.82031300000017,132.17968800000017,106.41015599999992
83,-98.46142599999985,-1.5385740000001533,45.64111300000059,32.82031300000017,105.25634799999989,86.79492200000004,172.3076170000004,102.05126999999993,78.58984400000008,93.9741210000002,189.48730499999965,21.025878999999804,143.3334960000002,108.58984400000008
84,-85.0,11.153809000000365,53.46142599999985,31.410155999999915,103.9741210000002,80.64111300000059,168.46142599999985,119.74365200000011,105.51269500000035,127.56396500000028,216.2822270000006,30.128418000000238,161.6665039999998,106.15380900000036
85,-73.33325200000036,24.871581999999762,61.666503999999804,31.410155999999915,104.23095699999976,77.05126999999993,163.58984400000008,136.41015599999992,132.56396500000028,162.43603499999972,241.0258789999998,40.51269500000035,179.10253900000043,103.9741210000002
86,-70.51293900000019,32.56396500000028,65.0,29.871581999999762,107.05126999999993,78.0771479999994,160.51269500000035,143.58984400000008,141.9228520000006,176.79492200000004,255.0,45.25634799999989,183.7177729999994,105.12841800000024
87,-78.33325200000036,30.769043000000238,61.153809000000365,24.230956999999762,111.41015599999992,84.23095699999976,161.9228520000006,137.6923829999996,123.3334960000002,157.05126999999993,257.17968800000017,40.51269500000035,169.10253900000043,105.76904300000024
88,-93.20507799999996,23.077147999999397,51.9228520000006,13.333496000000196,115.12841800000024,93.3334960000002,167.17968800000017,122.17968800000017,82.05126999999993,107.94873000000007,254.61523400000078,27.56396500000028,139.48730499999965,102.82031300000017
89,-108.33325200000036,17.05126999999993,41.666503999999804,-2.1796869999998307,116.15380900000036,101.6665039999998,173.84619099999964,106.2822270000006,37.43603499999972,52.43603499999972,255.89746099999957,11.538574000000153,107.69238299999961,100.25634799999989
90,-116.79492200000004,20.128418000000238,35.12841800000024,-18.333252000000357,115.64111300000059,106.2822270000006,179.10253900000043,99.87158199999976,11.410155999999915,18.589844000000085,267.05126999999993,-0.512695000000349,88.84619099999964,102.43603499999972
91,-113.20507799999996,35.38476599999922,35.76904300000024,-28.71801800000003,117.30761700000039,107.69238299999961,181.0258789999998,107.69238299999961,15.256347999999889,23.333496000000196,289.48730499999965,-2.4360349999997197,92.82031300000017,106.0258789999998
92,-98.07690400000001,59.48730499999965,44.102539000000434,-30.1281740000004,124.23095699999976,107.69238299999961,179.23095699999976,125.12841800000024,42.69238299999961,61.2822270000006,320.89746099999957,7.43603499999972,117.56396500000028,104.61523400000078
93,-79.10253899999998,83.7177729999994,56.666503999999804,-25.38452099999995,135.0,106.6665039999998,174.3588869999994,140.6411130000006,75.12841800000024,109.35888699999941,356.15380900000036,24.230956999999762,148.7177729999994,100.0
94,-65.38452099999995,100.12841800000024,67.69238299999961,-21.41015600000037,144.7436520000001,103.3334960000002,167.17968800000017,145.6411130000006,94.61523400000078,141.6665039999998,389.87158199999976,39.48730499999965,168.46142599999985,98.9741210000002
95,-60.76928699999962,107.69238299999961,73.0771479999994,-22.69238299999961,150.51269500000035,97.82031300000017,158.84619099999964,141.15380900000036,95.51269500000035,147.05126999999993,418.20507799999996,47.05126999999993,167.43603499999972,102.17968800000017
96,-62.564209000000574,111.41015599999992,72.43603499999972,-28.205077999999958,152.6923829999996,91.41015599999992,152.17968800000017,136.53857400000015,86.0258789999998,132.56396500000028,438.3334960000002,46.025878999999804,150.51269500000035,103.20507799999996
97,-65.76928699999962,116.41015599999992,67.69238299999961,-34.10253899999998,153.46142599999985,86.53857400000015,149.87158199999976,139.10253900000043,79.10253900000043,115.38476599999922,447.94873000000007,39.87158199999976,129.7436520000001,100.12841800000024
98,-68.07690400000001,123.46142599999985,61.79492200000004,-37.435790999999426,154.61523400000078,85.51269500000035,152.82031300000017,147.43603499999972,81.41015599999992,108.0771479999994,446.53857400000015,32.82031300000017,114.87158199999976,98.58984400000008
99,-69.61547900000005,130.38476599999922,57.82031300000017,-36.79492200000004,157.17968800000017,90.25634799999989,159.23095699999976,152.82031300000017,87.94873000000007,111.0258789999998,438.5898440000001,28.077147999999397,108.7177729999994,100.89746099999957
100,-70.38452099999995,135.12841800000024,57.30761700000039,-33.33325200000036,160.76904300000024,99.61523400000078,165.2563479999999,147.82031300000017,88.0771479999994,114.87158199999976,431.9228520000006,27.30761700000039,108.20507799999996,101.41015599999992
101,-69.48706099999981,139.23095699999976,59.74365200000011,-28.461425999999847,163.84619099999964,108.7177729999994,168.58984400000008,132.56396500000028,75.89746099999957,110.25634799999989,432.4360349999997,29.230956999999762,108.7177729999994,97.30761700000039
102,-65.51293900000019,145.6411130000006,61.79492200000004,-23.71801800000003,165.0,112.05126999999993,168.7177729999994,115.25634799999989,55.897460999999566,95.25634799999989,438.5898440000001,31.153809000000365,106.15380900000036,95.51269500000035
103,-59.35888699999987,156.0258789999998,60.0,-19.10253899999998,164.7436520000001,108.84619099999964,167.17968800000017,105.25634799999989,38.333496000000196,75.89746099999957,442.5639650000003,30.128418000000238,98.58984400000008,102.05126999999993
104,-55.0,166.6665039999998,52.82031300000017,-15.0,164.10253900000043,103.3334960000002,165.51269500000035,106.15380900000036,30.51269500000035,59.74365200000011,435.76904300000024,24.358886999999413,84.61523400000078,110.64111300000059
105,-58.58984399999963,169.7436520000001,41.666503999999804,-13.205077999999958,162.94873000000007,99.74365200000011,163.9741210000002,113.20507799999996,32.56396500000028,50.897460999999566,416.2822270000006,13.974121000000196,64.10253900000043,112.05126999999993
106,-71.66674799999964,159.87158199999976,31.410155999999915,-15.769286999999622,159.23095699999976,98.84619099999964,161.41015599999992,119.10253900000043,39.74365200000011,50.0,392.3076170000004,2.6923829999996087,41.410155999999915,108.58984400000008
107,-86.79492200000004,140.12841800000024,27.17968800000017,-21.153809000000365,152.17968800000017,99.35888699999941,157.56396500000028,120.76904300000024,48.0771479999994,57.17968800000017,376.79492200000004,-3.2050779999999577,26.410155999999915,109.48730499999965
108,-91.66674799999964,121.0258789999998,31.538574000000153,-24.358886999999868,142.6923829999996,100.25634799999989,154.23095699999976,121.41015599999992,56.666503999999804,71.2822270000006,378.0771479999994,0.769043000000238,28.846190999999635,114.48730499999965
109,-78.71801800000003,111.0258789999998,41.666503999999804,-20.769286999999622,132.94873000000007,100.25634799999989,154.61523400000078,125.25634799999989,66.0258789999998,88.46142599999985,392.3076170000004,13.717772999999397,49.74365200000011,115.25634799999989
110,-51.41015600000037,111.79492200000004,51.410155999999915,-10.1281740000004,123.84619099999964,97.69238299999961,159.10253900000043,132.3076170000004,75.89746099999957,102.30761700000039,406.4101559999999,28.974121000000196,78.84619099999964,111.0258789999998
111,-21.41015600000037,118.20507799999996,56.79492200000004,3.5898440000000846,116.15380900000036,92.56396500000028,164.48730499999965,138.58984400000008,83.9741210000002,108.0771479999994,409.23095699999976,40.897460999999566,102.56396500000028,111.15380900000036
112,0.769043000000238,123.84619099999964,57.30761700000039,15.512695000000349,111.2822270000006,87.56396500000028,166.79492200000004,140.51269500000035,87.17968800000017,105.51269500000035,399.6152340000008,48.0771479999994,112.69238299999961,117.94873000000007
113,11.922852000000603,124.61523400000078,56.025878999999804,22.17968800000017,109.61523400000078,85.38476599999922,165.0,137.56396500000028,84.35888699999941,98.0771479999994,385.6411130000006,51.666503999999804,110.51269500000035,121.9228520000006
114,16.282227000000603,119.61523400000078,55.25634799999989,23.974121000000196,109.48730499999965,85.89746099999957,161.53857400000015,131.9228520000006,77.94873000000007,90.0,375.6411130000006,53.589844000000085,103.84619099999964,118.46142599999985
115,22.56396500000028,111.6665039999998,56.666503999999804,24.871581999999762,107.69238299999961,87.30761700000039,159.48730499999965,126.6665039999998,72.82031300000017,85.89746099999957,371.9228520000006,55.897460999999566,101.79492200000004,116.15380900000036
116,37.56396500000028,105.64111300000059,60.38476599999922,29.615234000000783,101.15380900000036,88.3334960000002,160.2563479999999,124.35888699999941,72.43603499999972,87.94873000000007,370.51269500000035,60.897460999999566,109.35888699999941,121.0258789999998
117,60.897460999999566,104.35888699999941,65.25634799999989,39.23095699999976,87.69238299999961,89.10253900000043,163.7177729999994,126.2822270000006,76.79492200000004,95.38476599999922,364.3588869999994,68.58984400000008,124.48730499999965,125.25634799999989
118,86.0258789999998,105.89746099999957,69.74365200000011,49.87158199999976,67.05126999999993,89.10253900000043,168.0771479999994,130.2563479999999,82.94873000000007,104.23095699999976,349.10253900000043,76.79492200000004,140.2563479999999,120.51269500000035
119,106.6665039999998,107.05126999999993,73.58984400000008,57.30761700000039,41.9228520000006,88.20507799999996,170.89746099999957,133.20507799999996,87.56396500000028,111.6665039999998,327.5639650000003,84.61523400000078,151.41015599999992,113.3334960000002
120,122.05126999999993,106.79492200000004,77.82031300000017,61.153809000000365,17.69238299999961,86.6665039999998,170.76904300000024,133.0771479999994,90.12841800000024,117.30761700000039,306.6665039999998,93.20507799999996,159.7436520000001,114.35888699999941
121,135.51269500000035,105.64111300000059,82.56396500000028,64.74365200000011,-1.6665039999998044,85.64111300000059,168.0771479999994,130.38476599999922,91.53857400000015,121.6665039999998,290.76904300000024,103.0771479999994,169.23095699999976,120.38476599999922
122,147.94873000000007,102.56396500000028,85.76904300000024,70.76904300000024,-17.820557000000008,84.87158199999976,165.2563479999999,126.15380900000036,92.56396500000028,123.20507799999996,276.9228520000006,111.79492200000004,179.61523400000078,120.89746099999957
123,158.0771479999994,95.12841800000024,85.12841800000024,79.48730499999965,-36.025634999999966,83.46142599999985,164.61523400000078,121.6665039999998,92.82031300000017,120.12841800000024,260.0,116.53857400000015,186.41015599999992,117.43603499999972
124,165.38476599999922,83.84619099999964,81.6665039999998,90.64111300000059,-58.974365000000034,81.41015599999992,165.89746099999957,117.69238299999961,91.9228520000006,113.20507799999996,238.3334960000002,117.43603499999972,186.79492200000004,119.48730499999965
125,172.43603499999972,73.3334960000002,78.58984400000008,104.61523400000078,-83.58984399999963,79.48730499999965,166.6665039999998,115.76904300000024,90.51269500000035,107.43603499999972,214.7436520000001,117.94873000000007,183.58984400000008,125.76904300000024
126,181.41015599999992,67.56396500000028,77.69238299999961,120.12841800000024,-105.0,77.05126999999993,165.2563479999999,116.2822270000006,90.51269500000035,107.17968800000017,190.6411130000006,120.12841800000024,181.53857400000015,125.76904300000024
127,190.89746099999957,65.76904300000024,78.9741210000002,134.23095699999976,-121.02563499999997,73.58984400000008,161.2822270000006,117.43603499999972,92.94873000000007,112.82031300000017,164.61523400000078,123.46142599999985,181.9228520000006,118.46142599999985
128,198.0771479999994,64.10253900000043,80.76904300000024,145.2563479999999,-132.820557,68.9741210000002,156.41015599999992,117.56396500000028,96.9228520000006,120.51269500000035,135.76904300000024,126.2822270000006,183.58984400000008,115.51269500000035
129,202.17968800000017,60.25634799999989,81.9228520000006,153.84619099999964,-143.076904,65.76904300000024,152.17968800000017,116.41015599999992,100.51269500000035,126.0258789999998,106.79492200000004,128.46142599999985,185.12841800000024,120.76904300000024
130,205.0,54.87158199999976,81.53857400000015,161.0258789999998,-153.58984399999963,65.25634799999989,150.2563479999999,115.25634799999989,102.30761700000039,127.30761700000039,81.6665039999998,130.51269500000035,185.2563479999999,124.48730499999965
131,207.94873000000007,49.87158199999976,79.35888699999941,166.53857400000015,-164.4870609999998,66.15380900000036,150.76904300000024,114.87158199999976,101.41015599999992,125.38476599999922,63.589844000000085,132.94873000000007,182.43603499999972,121.2822270000006
132,211.79492200000004,46.2822270000006,77.05126999999993,170.12841800000024,-172.0512700000004,66.2822270000006,152.82031300000017,115.38476599999922,98.58984400000008,122.82031300000017,53.20507799999996,136.2822270000006,176.0258789999998,118.7177729999994
133,216.41015599999992,44.74365200000011,77.05126999999993,173.0771479999994,-171.79492200000004,64.74365200000011,154.23095699999976,116.53857400000015,95.38476599999922,122.82031300000017,47.56396500000028,140.76904300000024,167.94873000000007,122.82031300000017
134,221.41015599999992,44.87158199999976,79.74365200000011,177.05126999999993,-162.820557,62.94873000000007,153.46142599999985,117.82031300000017,93.84619099999964,126.15380900000036,41.153809000000365,146.0258789999998,161.6665039999998,126.2822270000006
135,225.2563479999999,44.74365200000011,82.94873000000007,181.53857400000015,-150.76928699999962,61.9228520000006,151.2822270000006,118.20507799999996,95.38476599999922,131.0258789999998,30.0,150.38476599999922,158.3334960000002,122.05126999999993
136,226.79492200000004,42.56396500000028,84.23095699999976,184.3588869999994,-143.33325200000036,61.79492200000004,149.7436520000001,117.05126999999993,100.0,135.0,16.153809000000365,152.3076170000004,156.2822270000006,116.0258789999998
137,227.17968800000017,38.589844000000085,83.9741210000002,184.3588869999994,-142.9487299999996,63.20507799999996,150.12841800000024,115.64111300000059,107.05126999999993,136.6665039999998,7.179688000000169,152.05126999999993,153.58984400000008,116.6665039999998
138,228.84619099999964,35.12841800000024,83.9741210000002,182.6923829999996,-145.2563479999999,66.41015599999992,152.56396500000028,116.0258789999998,115.12841800000024,136.9228520000006,7.179688000000169,151.53857400000015,150.6411130000006,120.38476599999922
139,231.6665039999998,32.94873000000007,86.15380900000036,181.15380900000036,-144.4870609999998,70.0,155.2563479999999,118.84619099999964,122.30761700000039,137.3076170000004,10.897460999999566,152.6923829999996,147.82031300000017,119.48730499999965
140,234.23095699999976,31.153809000000365,90.76904300000024,181.2822270000006,-139.35888699999987,72.05126999999993,156.79492200000004,122.56396500000028,126.79492200000004,139.61523400000078,6.666503999999804,156.15380900000036,145.6411130000006,116.0258789999998
141,235.89746099999957,28.077147999999397,96.79492200000004,183.58984400000008,-131.66674799999964,72.17968800000017,156.79492200000004,125.38476599999922,128.9741210000002,144.48730499999965,-13.333252000000357,161.6665039999998,145.76904300000024,116.41015599999992
142,238.0771479999994,23.077147999999397,102.82031300000017,187.82031300000017,-124.48706099999981,71.79492200000004,155.89746099999957,127.17968800000017,130.6411130000006,152.17968800000017,-45.64111300000013,168.7177729999994,149.87158199999976,118.3334960000002
143,241.15380900000036,16.282227000000603,106.6665039999998,192.82031300000017,-119.48706099999981,71.9228520000006,155.6411130000006,128.7177729999994,133.46142599999985,161.0258789999998,-79.35888699999987,175.76904300000024,156.79492200000004,114.87158199999976
144,243.84619099999964,8.589844000000085,107.05126999999993,196.9228520000006,-117.56420900000057,72.05126999999993,156.15380900000036,129.61523400000078,136.79492200000004,168.58984400000008,-104.35888699999987,180.38476599999922,162.3076170000004,109.10253900000043
145,244.48730499999965,2.0512699999999313,105.12841800000024,200.51269500000035,-117.94872999999961,72.30761700000039,156.9228520000006,129.61523400000078,138.3334960000002,172.43603499999972,-117.05127000000039,181.2822270000006,163.3334960000002,109.35888699999941
146,243.46142599999985,-1.153809000000365,103.46142599999985,205.76904300000024,-118.07690400000001,73.7177729999994,157.43603499999972,129.23095699999976,136.79492200000004,172.43603499999972,-120.38452099999995,180.0,160.51269500000035,115.12841800000024
147,241.2822270000006,-2.4360349999997197,103.46142599999985,213.20507799999996,-116.28198199999997,76.79492200000004,157.82031300000017,129.48730499999965,133.58984400000008,170.89746099999957,-120.76928699999962,178.58984400000008,156.79492200000004,117.94873000000007
148,237.6923829999996,-6.666747999999643,104.23095699999976,220.6411130000006,-113.71801800000003,79.23095699999976,157.82031300000017,130.51269500000035,131.15380900000036,170.12841800000024,-123.46142599999985,177.6923829999996,152.43603499999972,115.89746099999957
149,231.6665039999998,-17.051270000000386,103.3334960000002,225.0,-112.43579099999943,78.7177729999994,156.41015599999992,131.53857400000015,130.89746099999957,171.0258789999998,-128.84619099999964,176.41015599999992,146.2822270000006,115.38476599999922
150,225.2563479999999,-30.25634799999989,100.12841800000024,225.6411130000006,-112.56420900000057,75.51269500000035,152.82031300000017,132.17968800000017,132.05126999999993,172.94873000000007,-132.56420900000057,173.9741210000002,138.20507799999996,117.94873000000007
151,221.53857400000015,-38.974365000000034,95.89746099999957,225.0,-111.66674799999964,72.43603499999972,148.0771479999994,133.20507799999996,133.7177729999994,175.12841800000024,-131.28198199999997,171.0258789999998,129.87158199999976,117.69238299999961
152,221.6665039999998,-38.71801800000003,92.94873000000007,225.76904300000024,-108.46142599999985,71.6665039999998,143.9741210000002,134.61523400000078,135.51269500000035,176.79492200000004,-127.17944299999999,168.3334960000002,122.56396500000028,112.82031300000017
153,223.46142599999985,-31.538574000000153,93.20507799999996,228.9741210000002,-104.8718259999996,73.20507799999996,142.05126999999993,134.61523400000078,135.89746099999957,177.05126999999993,-127.05127000000039,166.0258789999998,115.64111300000059,109.48730499999965
154,223.58984400000008,-22.948729999999614,96.9228520000006,233.0771479999994,-102.94872999999961,75.89746099999957,142.3076170000004,132.17968800000017,133.3334960000002,175.2563479999999,-135.38452099999995,163.84619099999964,108.58984400000008,109.74365200000011
155,220.51269500000035,-17.435790999999426,102.05126999999993,235.12841800000024,-101.79492200000004,78.7177729999994,143.58984400000008,128.46142599999985,127.30761700000039,171.0258789999998,-148.84619099999964,161.2822270000006,100.64111300000059,108.3334960000002
156,213.84619099999964,-16.41015600000037,105.38476599999922,232.05126999999993,-100.0,80.51269500000035,144.61523400000078,125.51269500000035,119.48730499999965,164.61523400000078,-159.61547900000005,158.20507799999996,91.15380900000036,103.58984400000008
157,204.61523400000078,-18.58984399999963,104.61523400000078,223.3334960000002,-96.79492200000004,80.25634799999989,144.10253900000043,124.10253900000043,112.56396500000028,157.17968800000017,-162.820557,154.10253900000043,80.0,102.05126999999993
158,194.7436520000001,-21.28198199999997,100.38476599999922,212.17968800000017,-93.07690400000001,78.7177729999994,141.6665039999998,123.7177729999994,107.82031300000017,149.87158199999976,-160.1281740000004,148.7177729999994,68.84619099999964,106.9228520000006
159,186.79492200000004,-21.538574000000153,95.25634799999989,202.3076170000004,-89.74365200000011,78.20507799999996,138.46142599999985,123.9741210000002,106.0258789999998,144.48730499999965,-156.28198199999997,143.20507799999996,60.64111300000059,111.2822270000006
160,181.6665039999998,-18.846190999999635,91.41015599999992,195.76904300000024,-87.05127000000039,79.35888699999941,136.41015599999992,125.0,107.17968800000017,142.3076170000004,-155.1281740000004,138.58984400000008,56.666503999999804,108.9741210000002
161,178.0771479999994,-14.743652000000111,89.48730499999965,191.41015599999992,-84.8718259999996,81.15380900000036,136.15380900000036,126.79492200000004,110.12841800000024,143.20507799999996,-156.41015600000037,135.2563479999999,55.0,105.25634799999989
162,175.12841800000024,-10.512939000000188,89.35888699999941,188.20507799999996,-82.17944299999999,81.9228520000006,136.6665039999998,129.23095699999976,112.30761700000039,145.51269500000035,-156.923096,133.58984400000008,52.69238299999961,106.6665039999998
163,173.46142599999985,-5.256347999999889,90.38476599999922,186.41015599999992,-77.43579099999943,81.41015599999992,136.9228520000006,132.17968800000017,112.56396500000028,147.43603499999972,-154.10253899999998,134.23095699999976,49.23095699999976,109.23095699999976
164,173.7177729999994,1.4101559999999154,92.30761700000039,186.0258789999998,-70.89746100000002,80.64111300000059,136.41015599999992,135.12841800000024,111.79492200000004,147.82031300000017,-148.20507799999996,137.56396500000028,45.897460999999566,106.79492200000004
165,174.3588869999994,6.922852000000603,93.84619099999964,186.0258789999998,-64.74365200000011,79.61523400000078,135.51269500000035,137.17968800000017,111.53857400000015,146.15380900000036,-143.33325200000036,141.53857400000015,43.333496000000196,102.43603499999972
166,172.6923829999996,8.846190999999635,94.35888699999941,184.48730499999965,-61.66674799999964,77.94873000000007,134.10253900000043,137.56396500000028,112.17968800000017,143.3334960000002,-142.6923829999996,143.3334960000002,40.51269500000035,103.46142599999985
167,167.17968800000017,7.307617000000391,93.20507799999996,181.0258789999998,-61.41015600000037,76.2822270000006,131.41015599999992,136.41015599999992,112.69238299999961,140.89746099999957,-146.02563499999997,141.41015599999992,36.410155999999915,107.69238299999961
168,159.7436520000001,5.769043000000238,91.0258789999998,175.89746099999957,-61.53857400000015,75.38476599999922,127.56396500000028,135.0,111.9228520000006,140.0,-149.4870609999998,136.9228520000006,31.410155999999915,108.20507799999996
169,153.0771479999994,6.922852000000603,89.35888699999941,169.48730499999965,-60.0,75.38476599999922,123.58984400000008,133.84619099999964,109.61523400000078,139.87158199999976,-150.64111300000013,132.3076170000004,26.922852000000603,106.15380900000036
170,148.9741210000002,9.871581999999762,89.23095699999976,162.43603499999972,-55.51293900000019,75.38476599999922,121.0258789999998,132.82031300000017,105.76904300000024,138.20507799999996,-150.1281740000004,130.0,23.589844000000085,108.3334960000002
171,148.3334960000002,12.82031300000017,90.76904300000024,157.3076170000004,-47.30761700000039,75.51269500000035,119.74365200000011,131.41015599999992,100.38476599999922,132.82031300000017,-149.35888699999987,130.2563479999999,21.794922000000042,113.58984400000008
172,149.48730499999965,14.871581999999762,92.69238299999961,156.6665039999998,-35.25634799999989,76.6665039999998,118.9741210000002,129.61523400000078,94.10253900000043,123.7177729999994,-147.6923829999996,131.6665039999998,20.897460999999566,113.9741210000002
173,149.7436520000001,16.410155999999915,93.20507799999996,160.2563479999999,-20.89746100000002,78.9741210000002,118.0771479999994,127.56396500000028,87.82031300000017,112.94873000000007,-143.97436500000003,131.41015599999992,19.102539000000434,108.58984400000008
174,147.05126999999993,18.077147999999397,91.53857400000015,164.23095699999976,-7.435790999999426,81.0258789999998,117.30761700000039,125.89746099999957,82.69238299999961,103.84619099999964,-138.076904,127.56396500000028,15.641113000000587,105.64111300000059
175,142.05126999999993,20.25634799999989,88.58984400000008,164.7436520000001,2.5639650000002803,82.30761700000039,117.82031300000017,125.89746099999957,80.0,99.74365200000011,-131.02563499999997,121.2822270000006,12.051269999999931,107.56396500000028
176,138.9741210000002,23.589844000000085,86.79492200000004,160.89746099999957,9.487304999999651,83.9741210000002,120.25634799999989,128.46142599999985,80.25634799999989,101.41015599999992,-124.23071300000038,116.41015599999992,12.948730000000069,107.69238299999961
177,140.51269500000035,27.94873000000007,88.0771479999994,154.87158199999976,14.615234000000783,86.9228520000006,123.46142599999985,133.46142599999985,82.94873000000007,106.9228520000006,-118.20507799999996,116.15380900000036,20.897460999999566,103.46142599999985
178,145.89746099999957,32.30761700000039,91.6665039999998,149.23095699999976,19.358886999999413,90.12841800000024,125.51269500000035,138.46142599999985,86.2822270000006,112.17968800000017,-112.82055700000001,120.0,33.589844000000085,101.53857400000015
179,151.53857400000015,35.897460999999566,95.25634799999989,145.89746099999957,24.871581999999762,91.79492200000004,125.12841800000024,141.53857400000015,88.3334960000002,114.87158199999976,-106.66674799999964,124.74365200000011,45.25634799999989,105.89746099999957
180,154.48730499999965,38.589844000000085,97.05126999999993,145.12841800000024,32.17968800000017,92.05126999999993,123.58984400000008,142.94873000000007,88.7177729999994,115.51269500000035,-97.82055700000001,127.05126999999993,51.666503999999804,109.23095699999976
181,153.58984400000008,40.38476599999922,97.05126999999993,145.0,40.897460999999566,92.69238299999961,123.7177729999994,144.48730499999965,87.82031300000017,116.53857400000015,-87.17944299999999,126.15380900000036,51.9228520000006,105.64111300000059
182,149.61523400000078,40.25634799999989,96.41015599999992,143.0771479999994,48.46142599999985,94.35888699999941,126.79492200000004,146.41015599999992,87.30761700000039,118.7177729999994,-78.33325200000036,122.56396500000028,48.333496000000196,100.89746099999957
183,144.10253900000043,38.589844000000085,95.64111300000059,138.3334960000002,52.69238299999961,96.6665039999998,131.6665039999998,147.56396500000028,88.0771479999994,120.64111300000059,-74.10253899999998,117.82031300000017,44.23095699999976,102.82031300000017
184,140.12841800000024,37.82031300000017,94.74365200000011,132.6923829999996,54.48730499999965,98.7177729999994,135.89746099999957,147.43603499999972,90.51269500000035,120.64111300000059,-72.05127000000039,113.84619099999964,43.589844000000085,107.17968800000017
185,140.12841800000024,40.38476599999922,93.9741210000002,129.7436520000001,56.2822270000006,100.38476599999922,137.17968800000017,146.9228520000006,93.46142599999985,118.9741210000002,-66.79492200000004,112.30761700000039,48.0771479999994,105.89746099999957
186,143.3334960000002,45.38476599999922,94.10253900000043,131.0258789999998,58.846190999999635,101.15380900000036,134.7436520000001,146.53857400000015,95.12841800000024,116.6665039999998,-55.64111300000013,113.3334960000002,55.76904300000024,101.41015599999992
187,146.15380900000036,48.974121000000196,95.12841800000024,134.10253900000043,61.153809000000365,100.12841800000024,130.12841800000024,145.38476599999922,94.10253900000043,114.61523400000078,-42.17944299999999,115.89746099999957,62.69238299999961,102.17968800000017
188,146.41015599999992,48.7177729999994,97.05126999999993,135.0,63.0771479999994,98.20507799999996,126.0258789999998,143.0771479999994,90.0,112.05126999999993,-33.33325200000036,118.0771479999994,65.89746099999957,107.05126999999993
189,144.48730499999965,46.2822270000006,99.23095699999976,131.6665039999998,66.2822270000006,96.9228520000006,125.12841800000024,141.15380900000036,84.87158199999976,109.23095699999976,-32.435790999999426,118.7177729999994,65.76904300000024,107.82031300000017
190,141.6665039999998,44.74365200000011,101.2822270000006,124.74365200000011,72.05126999999993,97.56396500000028,128.0771479999994,141.6665039999998,81.6665039999998,107.17968800000017,-36.92309599999999,117.30761700000039,63.846190999999635,104.35888699999941
191,139.10253900000043,45.64111300000059,102.30761700000039,117.05126999999993,79.10253900000043,99.23095699999976,132.43603499999972,144.48730499999965,82.30761700000039,107.05126999999993,-40.0,114.23095699999976,61.025878999999804,104.48730499999965
192,136.53857400000015,47.69238299999961,101.53857400000015,111.53857400000015,85.64111300000059,100.76904300000024,135.12841800000024,146.9228520000006,85.76904300000024,107.94873000000007,-37.051270000000386,111.15380900000036,57.94873000000007,109.10253900000043
193,133.84619099999964,48.589844000000085,99.23095699999976,109.48730499999965,90.89746099999957,101.0258789999998,134.23095699999976,146.0258789999998,87.94873000000007,107.56396500000028,-28.974365000000034,109.10253900000043,54.74365200000011,110.38476599999922
194,130.76904300000024,46.2822270000006,96.41015599999992,109.23095699999976,94.61523400000078,99.61523400000078,129.7436520000001,140.0,85.12841800000024,103.58984400000008,-21.28198199999997,108.3334960000002,51.2822270000006,106.0258789999998
195,126.79492200000004,40.897460999999566,93.9741210000002,107.05126999999993,96.79492200000004,96.53857400000015,123.7177729999994,130.51269500000035,77.17968800000017,95.64111300000059,-18.461425999999847,107.94873000000007,46.9228520000006,103.9741210000002
196,123.20507799999996,35.25634799999989,93.0771479999994,101.2822270000006,98.3334960000002,93.0771479999994,118.7177729999994,121.53857400000015,67.56396500000028,86.53857400000015,-19.358886999999868,107.56396500000028,42.82031300000017,107.82031300000017
197,122.05126999999993,33.46142599999985,94.35888699999941,94.61523400000078,100.89746099999957,91.79492200000004,117.05126999999993,117.94873000000007,61.666503999999804,80.64111300000059,-18.205077999999958,108.58984400000008,41.2822270000006,110.0
198,123.7177729999994,36.2822270000006,98.0771479999994,91.6665039999998,105.12841800000024,93.84619099999964,120.0,121.41015599999992,61.9228520000006,81.41015599999992,-11.41015600000037,112.05126999999993,44.102539000000434,105.89746099999957
199,125.89746099999957,40.38476599999922,102.94873000000007,94.74365200000011,109.74365200000011,98.20507799999996,126.2822270000006,128.9741210000002,67.30761700000039,88.20507799999996,-0.38476599999921746,117.43603499999972,49.87158199999976,102.43603499999972
200,126.15380900000036,41.9228520000006,106.41015599999992,101.53857400000015,113.0771479999994,102.43603499999972,133.20507799999996,135.12841800000024,73.3334960000002,96.79492200000004,9.358886999999413,122.30761700000039,56.410155999999915,106.2822270000006
201,124.74365200000011,40.64111300000059,107.30761700000039,107.56396500000028,115.25634799999989,105.64111300000059,137.43603499999972,136.6665039999998,76.15380900000036,102.82031300000017,14.358886999999413,124.87158199999976,62.43603499999972,111.15380900000036
202,123.84619099999964,40.0,106.6665039999998,108.3334960000002,117.56396500000028,107.56396500000028,137.56396500000028,134.61523400000078,75.89746099999957,104.74365200000011,16.025878999999804,125.12841800000024,68.20507799999996,108.9741210000002
203,125.0,42.05126999999993,106.6665039999998,103.3334960000002,121.0258789999998,108.20507799999996,134.61523400000078,132.56396500000028,75.25634799999989,104.87158199999976,17.82031300000017,124.35888699999941,73.7177729999994,103.58984400000008
204,127.17968800000017,45.897460999999566,107.94873000000007,96.2822270000006,124.61523400000078,107.82031300000017,131.41015599999992,133.46142599999985,77.43603499999972,107.17968800000017,22.05126999999993,124.23095699999976,77.94873000000007,103.58984400000008
205,128.46142599999985,48.974121000000196,109.35888699999941,92.30761700000039,127.43603499999972,107.69238299999961,130.38476599999922,137.6923829999996,83.0771479999994,112.94873000000007,28.077147999999397,125.51269500000035,80.76904300000024,107.82031300000017
206,128.0771479999994,49.61523400000078,110.12841800000024,94.10253900000043,129.3588869999994,109.10253900000043,132.56396500000028,142.94873000000007,88.9741210000002,120.25634799999989,34.74365200000011,127.43603499999972,82.30761700000039,108.7177729999994
207,126.15380900000036,47.43603499999972,110.25634799999989,99.10253900000043,130.12841800000024,112.17968800000017,136.6665039999998,146.41015599999992,91.6665039999998,125.0,40.897460999999566,128.84619099999964,82.69238299999961,106.79492200000004
208,124.10253900000043,44.23095699999976,111.2822270000006,102.69238299999961,130.2563479999999,115.38476599999922,140.38476599999922,146.79492200000004,90.38476599999922,125.51269500000035,46.2822270000006,129.23095699999976,82.43603499999972,108.3334960000002
209,124.48730499999965,42.82031300000017,114.10253900000043,102.43603499999972,130.2563479999999,117.05126999999993,141.9228520000006,146.2822270000006,88.46142599999985,123.84619099999964,51.79492200000004,130.2563479999999,83.3334960000002,111.79492200000004
210,128.3334960000002,44.61523400000078,118.84619099999964,100.0,131.2822270000006,117.05126999999993,140.76904300000024,147.82031300000017,90.38476599999922,124.48730499999965,57.82031300000017,133.3334960000002,87.30761700000039,109.61523400000078
211,133.9741210000002,48.333496000000196,123.84619099999964,98.20507799999996,133.20507799999996,116.0258789999998,137.94873000000007,151.53857400000015,97.30761700000039,129.23095699999976,62.82031300000017,138.20507799999996,93.46142599999985,102.56396500000028
212,137.3076170000004,50.38476599999922,126.79492200000004,98.58984400000008,134.48730499999965,114.35888699999941,135.2563479999999,154.7436520000001,105.25634799999989,135.6411130000006,64.23095699999976,142.17968800000017,98.0771479999994,100.38476599999922
213,136.15380900000036,49.48730499999965,126.6665039999998,101.0258789999998,134.3588869999994,112.82031300000017,133.84619099999964,154.48730499999965,108.0771479999994,138.84619099999964,61.79492200000004,142.56396500000028,97.82031300000017,105.51269500000035
214,132.05126999999993,47.56396500000028,124.10253900000043,104.10253900000043,134.3588869999994,113.0771479999994,133.84619099999964,150.51269500000035,102.82031300000017,135.2563479999999,58.589844000000085,138.7177729999994,93.20507799999996,108.46142599999985
215,127.82031300000017,47.05126999999993,121.0258789999998,106.41015599999992,136.6665039999998,115.51269500000035,134.87158199999976,144.61523400000078,91.9228520000006,125.38476599999922,58.46142599999985,132.17968800000017,86.9228520000006,104.87158199999976
216,124.61523400000078,47.56396500000028,118.7177729999994,106.41015599999992,141.2822270000006,118.20507799999996,135.76904300000024,138.7177729999994,80.64111300000059,113.20507799999996,61.153809000000365,125.38476599999922,81.2822270000006,102.05126999999993
217,122.56396500000028,47.43603499999972,117.43603499999972,103.20507799999996,146.2822270000006,118.58984400000008,135.6411130000006,134.3588869999994,74.35888699999941,104.87158199999976,62.56396500000028,119.74365200000011,77.82031300000017,106.0258789999998
218,121.6665039999998,45.64111300000059,117.30761700000039,97.05126999999993,149.87158199999976,116.79492200000004,134.3588869999994,132.43603499999972,74.74365200000011,104.23095699999976,60.38476599999922,117.43603499999972,76.9228520000006,110.64111300000059
219,122.17968800000017,43.974121000000196,118.46142599999985,89.61523400000078,151.41015599999992,115.0,132.82031300000017,133.7177729999994,80.0,110.76904300000024,57.17968800000017,120.38476599999922,77.94873000000007,108.9741210000002
220,123.58984400000008,43.974121000000196,121.53857400000015,83.84619099999964,150.76904300000024,114.87158199999976,132.17968800000017,137.17968800000017,86.53857400000015,120.12841800000024,57.94873000000007,128.58984400000008,79.23095699999976,105.51269500000035
221,124.74365200000011,46.410155999999915,125.89746099999957,82.43603499999972,148.7177729999994,116.15380900000036,132.6923829999996,141.2822270000006,91.41015599999992,127.82031300000017,66.53857400000015,139.10253900000043,80.38476599999922,106.79492200000004
222,124.87158199999976,49.48730499999965,129.7436520000001,86.41015599999992,146.79492200000004,117.43603499999972,133.20507799999996,144.61523400000078,94.23095699999976,131.79492200000004,80.64111300000059,147.3076170000004,82.56396500000028,109.48730499999965
223,124.35888699999941,50.64111300000059,131.53857400000015,93.84619099999964,146.0258789999998,117.82031300000017,132.3076170000004,146.6665039999998,95.64111300000059,132.3076170000004,93.20507799999996,149.61523400000078,87.30761700000039,106.9228520000006
224,122.56396500000028,47.56396500000028,130.51269500000035,99.61523400000078,145.6411130000006,116.53857400000015,129.48730499999965,146.41015599999992,96.15380900000036,130.6411130000006,96.53857400000015,145.2563479999999,92.82031300000017,102.30761700000039
225,119.23095699999976,40.897460999999566,127.56396500000028,99.48730499999965,144.61523400000078,114.23095699999976,125.38476599999922,143.58984400000008,95.25634799999989,127.69238299999961,88.58984400000008,137.56396500000028,95.0,103.9741210000002
226,115.38476599999922,34.48730499999965,124.23095699999976,93.58984400000008,143.20507799999996,112.82031300000017,121.9228520000006,139.23095699999976,92.43603499999972,124.35888699999941,75.64111300000059,131.0258789999998,91.41015599999992,109.87158199999976
227,112.69238299999961,33.0771479999994,122.43603499999972,86.41015599999992,143.58984400000008,113.9741210000002,120.76904300000024,136.0258789999998,88.46142599999985,121.53857400000015,67.17968800000017,129.48730499999965,83.58984400000008,111.15380900000036
228,111.79492200000004,37.05126999999993,123.0771479999994,83.0771479999994,146.53857400000015,116.6665039999998,121.9228520000006,134.87158199999976,85.51269500000035,120.0,68.0771479999994,133.58984400000008,76.2822270000006,106.9228520000006
229,112.43603499999972,42.82031300000017,125.12841800000024,85.51269500000035,150.6411130000006,117.94873000000007,123.0771479999994,135.0,85.25634799999989,119.61523400000078,75.76904300000024,140.51269500000035,73.9741210000002,104.87158199999976
230,114.23095699999976,46.2822270000006,127.56396500000028,91.6665039999998,154.23095699999976,116.53857400000015,121.79492200000004,134.87158199999976,87.56396500000028,120.51269500000035,84.48730499999965,146.53857400000015,78.58984400000008,106.2822270000006
231,117.69238299999961,46.9228520000006,130.12841800000024,97.94873000000007,156.79492200000004,114.35888699999941,117.82031300000017,133.9741210000002,91.15380900000036,122.30761700000039,90.12841800000024,150.0,87.82031300000017,104.48730499999965
232,122.56396500000028,46.79492200000004,133.0771479999994,101.41015599999992,158.46142599999985,113.84619099999964,113.7177729999994,133.20507799999996,93.9741210000002,124.48730499999965,92.69238299999961,151.15380900000036,96.15380900000036,98.84619099999964
233,126.9228520000006,48.46142599999985,136.15380900000036,101.15380900000036,159.61523400000078,115.38476599999922,112.94873000000007,133.3334960000002,94.87158199999976,126.41015599999992,94.35888699999941,150.89746099999957,98.58984400000008,98.0771479999994
234,129.3588869999994,52.43603499999972,138.58984400000008,99.48730499999965,160.38476599999922,118.46142599999985,116.0258789999998,134.61523400000078,95.0,127.82031300000017,96.79492200000004,150.0,94.87158199999976,105.25634799999989
235,130.76904300000024,57.82031300000017,139.7436520000001,99.87158199999976,161.6665039999998,122.69238299999961,120.89746099999957,137.3076170000004,95.89746099999957,130.12841800000024,99.61523400000078,149.10253900000043,90.38476599999922,111.2822270000006
236,132.94873000000007,63.333496000000196,140.0,103.3334960000002,163.84619099999964,126.53857400000015,124.10253900000043,140.76904300000024,98.9741210000002,133.9741210000002,101.0258789999998,149.10253900000043,91.2822270000006,109.10253900000043
237,136.41015599999992,67.43603499999972,139.61523400000078,107.56396500000028,166.0258789999998,127.82031300000017,123.84619099999964,143.20507799999996,102.94873000000007,138.84619099999964,99.74365200000011,150.2563479999999,98.46142599999985,104.61523400000078
238,139.48730499999965,69.35888699999941,138.58984400000008,108.9741210000002,166.79492200000004,125.51269500000035,120.12841800000024,142.6923829999996,105.51269500000035,142.17968800000017,96.41015599999992,151.79492200000004,106.53857400000015,105.25634799999989
239,140.2563479999999,69.74365200000011,137.05126999999993,106.79492200000004,166.2822270000006,121.41015599999992,115.12841800000024,139.23095699999976,104.74365200000011,142.43603499999972,93.7177729999994,152.05126999999993,109.35888699999941,107.43603499999972
240,138.3334960000002,69.74365200000011,136.0258789999998,103.3334960000002,165.6411130000006,118.20507799999996,111.2822270000006,134.87158199999976,101.15380900000036,138.9741210000002,93.3334960000002,150.2563479999999,105.0,105.0
241,134.48730499999965,68.84619099999964,136.53857400000015,101.0258789999998,165.12841800000024,117.17968800000017,109.35888699999941,131.53857400000015,97.05126999999993,133.0771479999994,94.74365200000011,146.6665039999998,96.53857400000015,101.53857400000015
242,129.87158199999976,66.9228520000006,138.20507799999996,100.51269500000035,164.23095699999976,117.56396500000028,108.58984400000008,129.61523400000078,94.10253900000043,126.9228520000006,95.76904300000024,142.43603499999972,88.9741210000002,104.10253900000043
243,126.41015599999992,64.35888699999941,139.48730499999965,100.38476599999922,162.94873000000007,118.7177729999994,108.20507799999996,129.10253900000043,93.0771479999994,123.58984400000008,96.15380900000036,139.48730499999965,85.76904300000024,109.35888699999941
244,125.12841800000024,62.30761700000039,139.23095699999976,99.10253900000043,161.79492200000004,120.38476599999922,107.69238299999961,129.61523400000078,93.58984400000008,123.84619099999964,96.41015599999992,138.58984400000008,86.2822270000006,108.46142599999985
245,124.74365200000011,60.38476599999922,136.79492200000004,95.64111300000059,160.76904300000024,121.9228520000006,106.9228520000006,129.7436520000001,94.10253900000043,125.89746099999957,96.41015599999992,138.20507799999996,87.17968800000017,103.0771479999994
246,122.94873000000007,57.05126999999993,132.56396500000028,91.15380900000036,158.9741210000002,121.9228520000006,105.76904300000024,127.69238299999961,92.94873000000007,125.51269500000035,93.9741210000002,136.0258789999998,84.74365200000011,102.43603499999972
247,118.7177729999994,52.56396500000028,127.43603499999972,88.20507799999996,157.3076170000004,120.12841800000024,103.7177729999994,123.20507799999996,90.0,121.15380900000036,87.69238299999961,131.41015599999992,79.10253900000043,107.69238299999961
248,113.9741210000002,49.74365200000011,123.3334960000002,89.35888699999941,157.17968800000017,117.82031300000017,101.2822270000006,118.0771479999994,86.6665039999998,114.48730499999965,79.61523400000078,125.89746099999957,74.23095699999976,109.87158199999976
249,111.15380900000036,51.025878999999804,121.9228520000006,94.23095699999976,159.10253900000043,116.15380900000036,99.35888699999941,114.35888699999941,84.87158199999976,109.74365200000011,73.84619099999964,122.17968800000017,72.94873000000007,106.41015599999992
250,111.15380900000036,56.153809000000365,123.7177729999994,99.48730499999965,161.53857400000015,115.38476599999922,98.84619099999964,112.94873000000007,85.51269500000035,108.9741210000002,73.3334960000002,121.15380900000036,75.0,104.61523400000078
251,113.46142599999985,62.82031300000017,127.30761700000039,101.79492200000004,162.94873000000007,115.51269500000035,99.35888699999941,113.46142599999985,87.94873000000007,111.53857400000015,77.82031300000017,122.94873000000007,77.82031300000017,107.43603499999972
252,117.30761700000039,68.84619099999964,131.2822270000006,101.41015599999992,163.84619099999964,116.9228520000006,99.61523400000078,115.38476599999922,90.64111300000059,115.12841800000024,83.58984400000008,126.9228520000006,80.25634799999989,108.0771479999994
253,121.41015599999992,72.69238299999961,134.87158199999976,100.76904300000024,166.0258789999998,119.48730499999965,98.7177729999994,116.9228520000006,92.30761700000039,117.05126999999993,87.05126999999993,132.43603499999972,82.17968800000017,102.94873000000007
254,123.84619099999964,72.82031300000017,137.3076170000004,102.17968800000017,169.3588869999994,121.53857400000015,96.9228520000006,116.6665039999998,92.05126999999993,115.89746099999957,86.9228520000006,138.20507799999996,82.69238299999961,99.35888699999941
255,124.10253900000043,69.35888699999941,137.56396500000028,105.51269500000035,172.56396500000028,122.30761700000039,95.64111300000059,114.23095699999976,90.25634799999989,112.43603499999972,85.51269500000035,142.3076170000004,80.89746099999957,103.46142599999985
256,123.20507799999996,64.74365200000011,136.15380900000036,108.58984400000008,174.3588869999994,122.69238299999961,95.89746099999957,112.05126999999993,88.46142599999985,109.23095699999976,85.64111300000059,144.23095699999976,77.94873000000007,109.10253900000043
257,122.94873000000007,61.9228520000006,135.12841800000024,108.9741210000002,173.9741210000002,124.10253900000043,97.69238299999961,112.56396500000028,88.7177729999994,109.35888699999941,88.46142599999985,144.87158199999976,76.79492200000004,108.46142599999985
258,123.9741210000002,62.05126999999993,136.0258789999998,105.51269500000035,171.53857400000015,126.15380900000036,100.12841800000024,115.76904300000024,92.94873000000007,114.10253900000043,91.15380900000036,145.89746099999957,79.10253900000043,105.38476599999922
259,125.38476599999922,64.35888699999941,138.0771479999994,100.12841800000024,168.46142599999985,126.9228520000006,101.2822270000006,119.74365200000011,100.76904300000024,122.43603499999972,91.6665039999998,148.20507799999996,84.35888699999941,107.56396500000028
260,126.41015599999992,67.05126999999993,138.7177729999994,96.53857400000015,167.3076170000004,125.76904300000024,100.25634799999989,122.05126999999993,109.48730499999965,131.41015599999992,90.89746099999957,151.41015599999992,90.0,112.43603499999972
261,127.17968800000017,69.23095699999976,136.79492200000004,98.20507799999996,169.3588869999994,123.84619099999964,97.05126999999993,121.79492200000004,115.38476599999922,137.82031300000017,91.41015599999992,154.23095699999976,93.7177729999994,111.6665039999998
262,127.05126999999993,69.74365200000011,133.0771479999994,104.74365200000011,172.56396500000028,122.69238299999961,93.46142599999985,120.0,115.76904300000024,138.9741210000002,93.58984400000008,155.12841800000024,94.10253900000043,106.79492200000004
263,125.38476599999922,68.0771479999994,130.12841800000024,112.69238299999961,173.7177729999994,122.82031300000017,91.15380900000036,118.0771479999994,111.0258789999998,134.3588869999994,95.25634799999989,153.46142599999985,91.79492200000004,105.76904300000024
264,122.82031300000017,65.76904300000024,130.0,117.94873000000007,172.05126999999993,124.23095699999976,91.0258789999998,117.05126999999993,104.23095699999976,125.76904300000024,94.10253900000043,150.38476599999922,89.10253900000043,108.7177729999994
265,120.25634799999989,65.12841800000024,132.3076170000004,117.69238299999961,169.48730499999965,126.15380900000036,92.17968800000017,116.79492200000004,98.7177729999994,117.17968800000017,91.15380900000036,147.43603499999972,88.3334960000002,107.94873000000007
266,118.20507799999996,66.0258789999998,134.87158199999976,111.41015599999992,168.0771479999994,126.9228520000006,92.82031300000017,116.0258789999998,95.89746099999957,112.17968800000017,88.9741210000002,145.6411130000006,88.0771479999994,103.20507799999996
267,115.76904300000024,66.2822270000006,134.61523400000078,101.9228520000006,167.56396500000028,124.74365200000011,91.79492200000004,113.46142599999985,95.51269500000035,112.05126999999993,88.84619099999964,144.10253900000043,85.51269500000035,102.56396500000028
268,112.82031300000017,63.974121000000196,130.2563479999999,94.10253900000043,167.3076170000004,120.51269500000035,89.23095699999976,110.12841800000024,96.9228520000006,116.0258789999998,90.51269500000035,142.05126999999993,80.0,107.56396500000028
269,111.0258789999998,60.0,124.35888699999941,92.82031300000017,166.53857400000015,117.17968800000017,86.0258789999998,108.9741210000002,99.23095699999976,121.53857400000015,92.56396500000028,140.12841800000024,75.25634799999989,109.61523400000078
270,111.0258789999998,56.666503999999804,121.0258789999998,98.84619099999964,165.76904300000024,116.79492200000004,83.46142599999985,111.6665039999998,100.89746099999957,125.51269500000035,93.46142599999985,139.7436520000001,75.51269500000035,105.38476599999922
271,112.43603499999972,55.64111300000059,122.56396500000028,106.79492200000004,164.87158199999976,118.20507799999996,81.6665039999998,116.0258789999998,101.2822270000006,126.6665039999998,92.56396500000028,141.41015599999992,81.2822270000006,102.82031300000017
272,113.7177729999994,57.43603499999972,127.43603499999972,110.64111300000059,164.61523400000078,119.10253900000043,80.38476599999922,117.94873000000007,100.12841800000024,125.25634799999989,90.38476599999922,144.61523400000078,89.48730499999965,107.05126999999993
273,114.35888699999941,61.666503999999804,131.9228520000006,108.3334960000002,166.41015599999992,119.35888699999941,79.74365200000011,115.38476599999922,98.84619099999964,123.3334960000002,88.46142599999985,147.82031300000017,96.0258789999998,110.51269500000035
274,114.35888699999941,65.89746099999957,133.46142599999985,103.3334960000002,170.12841800000024,120.38476599999922,80.25634799999989,110.0,98.58984400000008,121.79492200000004,88.0771479999994,149.48730499999965,98.7177729999994,106.41015599999992
275,113.58984400000008,67.82031300000017,132.6923829999996,101.2822270000006,173.7177729999994,122.43603499999972,82.17968800000017,105.51269500000035,99.35888699999941,121.0258789999998,88.9741210000002,149.23095699999976,97.69238299999961,101.15380900000036
276,112.05126999999993,66.2822270000006,132.05126999999993,104.87158199999976,174.23095699999976,123.58984400000008,84.74365200000011,104.61523400000078,100.25634799999989,120.89746099999957,90.89746099999957,147.6923829999996,95.0,103.3334960000002
277,111.0258789999998,62.82031300000017,132.94873000000007,112.43603499999972,171.9228520000006,122.82031300000017,86.6665039999998,107.17968800000017,100.89746099999957,121.9228520000006,94.23095699999976,146.53857400000015,93.3334960000002,109.74365200000011
278,111.41015599999992,60.38476599999922,134.87158199999976,118.7177729999994,169.10253900000043,120.51269500000035,86.41015599999992,111.41015599999992,101.41015599999992,123.7177729999994,98.20507799999996,145.89746099999957,93.7177729999994,111.41015599999992
279,112.43603499999972,59.35888699999941,135.12841800000024,117.56396500000028,167.17968800000017,118.46142599999985,83.7177729999994,113.84619099999964,102.17968800000017,125.0,100.51269500000035,145.38476599999922,94.87158199999976,108.9741210000002
280,111.41015599999992,58.589844000000085,132.43603499999972,107.43603499999972,165.6411130000006,117.69238299999961,80.25634799999989,113.0771479999994,102.69238299999961,125.0,97.94873000000007,143.7177729999994,94.87158199999976,109.61523400000078
281,107.94873000000007,57.30761700000039,127.82031300000017,93.0771479999994,163.58984400000008,118.84619099999964,78.46142599999985,110.51269500000035,102.82031300000017,124.35888699999941,90.76904300000024,141.53857400000015,93.7177729999994,112.30761700000039
282,103.9741210000002,56.2822270000006,123.9741210000002,83.46142599999985,161.6665039999998,121.53857400000015,79.35888699999941,109.61523400000078,103.3334960000002,124.61523400000078,83.3334960000002,140.12841800000024,93.0771479999994,110.0
283,101.6665039999998,55.76904300000024,122.82031300000017,83.84619099999964,160.6411130000006,123.20507799999996,81.41015599999992,111.53857400000015,104.74365200000011,125.76904300000024,81.0258789999998,139.61523400000078,93.84619099999964,104.23095699999976
284,100.89746099999957,54.48730499999965,123.58984400000008,92.43603499999972,160.38476599999922,121.15380900000036,82.05126999999993,113.7177729999994,106.2822270000006,126.6665039999998,85.25634799999989,139.23095699999976,95.25634799999989,103.3334960000002
285,100.76904300000024,52.30761700000039,124.74365200000011,102.05126999999993,160.6411130000006,115.51269500000035,79.61523400000078,113.7177729999994,107.30761700000039,127.05126999999993,92.69238299999961,138.84619099999964,96.53857400000015,108.0771479999994
286,100.89746099999957,51.025878999999804,124.87158199999976,106.2822270000006,161.6665039999998,110.25634799999989,74.74365200000011,111.53857400000015,107.17968800000017,127.43603499999972,98.46142599999985,138.9741210000002,98.0771479999994,109.61523400000078
287,100.76904300000024,51.2822270000006,124.23095699999976,104.61523400000078,162.94873000000007,108.46142599999985,69.87158199999976,108.84619099999964,106.41015599999992,127.94873000000007,100.12841800000024,140.38476599999922,99.74365200000011,105.0
288,100.12841800000024,51.9228520000006,123.46142599999985,100.38476599999922,163.3334960000002,110.25634799999989,66.9228520000006,107.17968800000017,105.51269500000035,128.46142599999985,98.7177729999994,142.17968800000017,100.76904300000024,102.82031300000017
289,99.61523400000078,51.410155999999915,123.0771479999994,98.3334960000002,162.05126999999993,113.0771479999994,66.79492200000004,106.41015599999992,105.0,128.46142599999985,97.69238299999961,143.46142599999985,100.12841800000024,107.30761700000039
290,100.64111300000059,51.2822270000006,123.3334960000002,100.51269500000035,160.2563479999999,115.51269500000035,68.9741210000002,106.41015599999992,105.51269500000035,128.46142599999985,99.74365200000011,143.9741210000002,99.35888699999941,110.89746099999957
291,103.3334960000002,53.333496000000196,124.35888699999941,104.74365200000011,160.6411130000006,117.30761700000039,72.43603499999972,107.05126999999993,107.05126999999993,128.20507799999996,103.0771479999994,143.9741210000002,99.74365200000011,107.30761700000039
292,105.12841800000024,56.9228520000006,125.89746099999957,106.41015599999992,162.94873000000007,118.46142599999985,75.38476599999922,106.9228520000006,108.20507799999996,126.9228520000006,102.69238299999961,143.3334960000002,100.51269500000035,102.94873000000007
293,103.58984400000008,59.102539000000434,127.05126999999993,103.0771479999994,165.12841800000024,118.58984400000008,76.15380900000036,105.51269500000035,106.9228520000006,123.84619099999964,96.0258789999998,141.41015599999992,99.10253900000043,105.25634799999989
294,98.58984400000008,57.17968800000017,126.6665039999998,97.17968800000017,165.51269500000035,117.82031300000017,74.23095699999976,103.3334960000002,103.3334960000002,119.61523400000078,86.41015599999992,137.6923829999996,95.12841800000024,109.87158199999976
295,93.20507799999996,51.79492200000004,124.48730499999965,93.20507799999996,164.3588869999994,116.2822270000006,70.89746099999957,102.05126999999993,99.48730499999965,115.64111300000059,80.51269500000035,132.94873000000007,91.41015599999992,109.23095699999976
296,90.0,45.897460999999566,121.0258789999998,93.7177729999994,162.6923829999996,114.61523400000078,68.20507799999996,102.43603499999972,98.3334960000002,113.3334960000002,81.0258789999998,128.0771479999994,91.2822270000006,106.0258789999998
297,89.87158199999976,42.30761700000039,117.30761700000039,97.05126999999993,162.05126999999993,113.58984400000008,67.82031300000017,103.58984400000008,100.38476599999922,113.46142599999985,85.76904300000024,124.10253900000043,95.38476599999922,107.17968800000017
298,91.9228520000006,43.0771479999994,114.74365200000011,100.38476599999922,163.20507799999996,113.9741210000002,69.48730499999965,104.48730499999965,103.9741210000002,115.51269500000035,91.15380900000036,121.79492200000004,101.2822270000006,110.38476599999922
299,94.35888699999941,48.0771479999994,115.0,102.05126999999993,166.0258789999998,116.0258789999998,72.17968800000017,104.87158199999976,106.6665039999998,118.46142599999985,95.12841800000024,122.17968800000017,105.51269500000035,108.0771479999994
300,95.51269500000035,54.23095699999976,118.20507799999996,101.79492200000004,168.7177729999994,118.3334960000002,74.35888699999941,105.51269500000035,107.43603499999972,120.89746099999957,97.69238299999961,125.0,105.25634799999989,101.9228520000006
301,94.35888699999941,57.17968800000017,122.69238299999961,100.64111300000059,168.7177729999994,118.84619099999964,74.48730499999965,106.41015599999992,107.43603499999972,122.17968800000017,98.0771479999994,128.20507799999996,100.89746099999957,101.0258789999998
302,91.9228520000006,55.25634799999989,125.38476599999922,99.74365200000011,166.0258789999998,117.43603499999972,72.69238299999961,107.56396500000028,108.84619099999964,122.43603499999972,96.41015599999992,130.12841800000024,96.79492200000004,105.76904300000024
303,90.38476599999922,51.025878999999804,124.23095699999976,100.38476599999922,162.82031300000017,115.0,69.48730499999965,108.58984400000008,112.05126999999993,122.43603499999972,93.58984400000008,131.0258789999998,97.56396500000028,107.56396500000028
304,90.89746099999957,47.94873000000007,120.25634799999989,101.6665039999998,161.2822270000006,113.0771479999994,66.53857400000015,108.9741210000002,115.0,123.20507799999996,91.0258789999998,132.05126999999993,103.58984400000008,103.84619099999964
305,92.43603499999972,47.56396500000028,116.0258789999998,100.76904300000024,161.0258789999998,111.9228520000006,64.35888699999941,107.82031300000017,115.76904300000024,124.74365200000011,89.23095699999976,134.10253900000043,110.64111300000059,102.43603499999972
306,93.3334960000002,48.589844000000085,113.7177729999994,97.17968800000017,161.2822270000006,111.6665039999998,62.94873000000007,105.64111300000059,114.48730499999965,126.41015599999992,88.58984400000008,136.6665039999998,114.10253900000043,106.9228520000006
307,93.0771479999994,49.23095699999976,114.35888699999941,92.82031300000017,161.79492200000004,112.94873000000007,62.43603499999972,104.61523400000078,113.46142599999985,127.05126999999993,90.38476599999922,138.46142599999985,112.94873000000007,109.48730499999965
308,91.79492200000004,48.333496000000196,117.43603499999972,91.0258789999998,163.0771479999994,115.51269500000035,64.23095699999976,106.53857400000015,114.48730499999965,126.6665039999998,95.51269500000035,138.7177729999994,110.0,105.12841800000024
309,89.87158199999976,45.897460999999566,121.6665039999998,92.94873000000007,164.3588869999994,118.3334960000002,68.46142599999985,110.64111300000059,117.17968800000017,125.89746099999957,103.20507799999996,136.6665039999998,108.0771479999994,101.0258789999998
310,87.82031300000017,43.20507799999996,124.48730499999965,97.56396500000028,165.0,119.61523400000078,73.3334960000002,114.35888699999941,119.74365200000011,126.0258789999998,110.51269500000035,132.56396500000028,107.94873000000007,103.3334960000002
311,86.6665039999998,42.30761700000039,123.9741210000002,102.69238299999961,165.2563479999999,118.84619099999964,74.87158199999976,115.25634799999989,120.12841800000024,127.05126999999993,114.74365200000011,127.43603499999972,108.58984400000008,107.05126999999993
312,86.79492200000004,44.48730499999965,120.25634799999989,107.05126999999993,165.6411130000006,116.79492200000004,71.15380900000036,112.69238299999961,117.82031300000017,127.56396500000028,114.23095699999976,122.82031300000017,108.3334960000002,105.12841800000024
313,87.69238299999961,48.7177729999994,115.89746099999957,109.35888699999941,166.2822270000006,114.74365200000011,63.846190999999635,107.82031300000017,114.35888699999941,125.76904300000024,108.9741210000002,120.12841800000024,106.53857400000015,101.79492200000004
314,88.3334960000002,53.333496000000196,113.3334960000002,108.58984400000008,166.9228520000006,114.35888699999941,57.94873000000007,103.0771479999994,111.53857400000015,122.05126999999993,100.89746099999957,119.87158199999976,105.25634799999989,104.48730499999965
315,89.35888699999941,57.43603499999972,114.48730499999965,105.51269500000035,167.82031300000017,116.2822270000006,57.05126999999993,101.2822270000006,110.76904300000024,118.7177729999994,93.58984400000008,122.43603499999972,107.43603499999972,109.61523400000078
316,91.9228520000006,60.897460999999566,118.84619099999964,102.17968800000017,168.20507799999996,119.23095699999976,61.2822270000006,103.46142599999985,112.69238299999961,118.7177729999994,91.2822270000006,127.56396500000028,114.10253900000043,108.9741210000002
317,95.64111300000059,63.20507799999996,123.58984400000008,101.0258789999998,166.79492200000004,120.12841800000024,66.53857400000015,107.82031300000017,116.53857400000015,122.17968800000017,95.38476599999922,133.84619099999964,121.15380900000036,104.48730499999965
318,98.3334960000002,63.974121000000196,125.51269500000035,102.30761700000039,162.6923829999996,116.9228520000006,68.3334960000002,110.76904300000024,120.76904300000024,126.6665039999998,103.84619099999964,138.7177729999994,122.43603499999972,104.87158199999976
319,98.46142599999985,63.46142599999985,123.3334960000002,105.25634799999989,157.3076170000004,111.0258789999998,64.23095699999976,110.76904300000024,123.9741210000002,128.7177729999994,112.05126999999993,140.12841800000024,115.89746099999957,109.87158199999976
320,96.41015599999992,62.30761700000039,118.84619099999964,108.84619099999964,153.58984400000008,106.79492200000004,56.666503999999804,108.84619099999964,124.10253900000043,126.15380900000036,115.51269500000035,137.82031300000017,105.64111300000059,110.38476599999922
321,93.20507799999996,60.25634799999989,114.87158199999976,111.9228520000006,152.17968800000017,106.2822270000006,50.38476599999922,106.53857400000015,120.51269500000035,119.35888699999941,111.6665039999998,133.20507799999996,97.56396500000028,105.0
322,90.0,56.666503999999804,112.82031300000017,113.7177729999994,151.9228520000006,108.0771479999994,47.94873000000007,103.58984400000008,113.9741210000002,110.89746099999957,101.2822270000006,128.46142599999985,94.10253900000043,102.05126999999993
323,87.30761700000039,53.0771479999994,112.05126999999993,113.3334960000002,152.05126999999993,109.87158199999976,48.333496000000196,98.0771479999994,106.79492200000004,103.46142599999985,87.82031300000017,125.25634799999989,93.20507799999996,104.35888699999941
324,86.15380900000036,52.69238299999961,111.2822270000006,110.51269500000035,153.7177729999994,111.15380900000036,47.69238299999961,89.61523400000078,100.89746099999957,98.46142599999985,75.64111300000059,123.84619099999964,91.53857400000015,105.0
325,86.53857400000015,56.79492200000004,109.87158199999976,106.15380900000036,157.6923829999996,112.69238299999961,43.46142599999985,79.74365200000011,97.82031300000017,94.74365200000011,67.69238299999961,123.20507799999996,88.0771479999994,101.0258789999998
326,87.30761700000039,62.82031300000017,107.69238299999961,101.9228520000006,162.05126999999993,114.10253900000043,36.9228520000006,71.6665039999998,97.56396500000028,90.89746099999957,65.25634799999989,121.9228520000006,83.20507799999996,100.0
327,87.43603499999972,66.15380900000036,105.51269500000035,100.12841800000024,163.9741210000002,114.23095699999976,31.282227000000603,68.7177729999994,99.61523400000078,87.56396500000028,67.82031300000017,119.87158199999976,79.23095699999976,106.41015599999992
328,87.94873000000007,64.87158199999976,104.48730499999965,102.82031300000017,161.6665039999998,112.69238299999961,29.48730499999965,72.82031300000017,103.58984400000008,87.82031300000017,74.48730499999965,118.84619099999964,78.84619099999964,111.9228520000006
329,90.38476599999922,60.51269500000035,105.76904300000024,109.74365200000011,155.76904300000024,108.84619099999964,32.43603499999972,82.82031300000017,109.35888699999941,94.10253900000043,83.46142599999985,121.2822270000006,83.7177729999994,109.35888699999941
330,94.87158199999976,56.2822270000006,109.10253900000043,118.58984400000008,147.17968800000017,102.17968800000017,39.102539000000434,95.38476599999922,116.79492200000004,106.15380900000036,91.2822270000006,127.17968800000017,91.6665039999998,104.35888699999941
331,99.87158199999976,54.61523400000078,112.69238299999961,125.89746099999957,137.94873000000007,94.10253900000043,46.666503999999804,106.53857400000015,125.25634799999989,119.48730499999965,94.61523400000078,133.84619099999964,99.48730499999965,105.64111300000059
332,103.9741210000002,56.025878999999804,114.48730499999965,129.87158199999976,131.53857400000015,88.46142599999985,52.56396500000028,113.84619099999964,132.56396500000028,128.46142599999985,92.43603499999972,138.0771479999994,104.23095699999976,109.74365200000011
333,106.15380900000036,58.46142599999985,113.3334960000002,130.89746099999957,130.2563479999999,89.23095699999976,54.48730499999965,115.64111300000059,136.2822270000006,129.48730499999965,85.51269500000035,137.82031300000017,105.51269500000035,108.9741210000002
334,105.64111300000059,58.846190999999635,110.12841800000024,130.38476599999922,132.56396500000028,95.64111300000059,52.17968800000017,112.05126999999993,135.2563479999999,123.46142599999985,75.12841800000024,133.7177729999994,103.58984400000008,105.51269500000035
335,102.43603499999972,55.38476599999922,105.76904300000024,130.2563479999999,134.87158199999976,102.69238299999961,46.79492200000004,104.87158199999976,131.53857400000015,115.12841800000024,63.20507799999996,127.30761700000039,100.51269500000035,107.05126999999993
336,98.20507799999996,49.35888699999941,101.0258789999998,133.3334960000002,134.87158199999976,106.2822270000006,40.76904300000024,97.05126999999993,128.20507799999996,109.23095699999976,51.9228520000006,120.89746099999957,98.0771479999994,111.6665039999998
337,94.10253900000043,43.46142599999985,96.2822270000006,141.53857400000015,133.7177729999994,106.79492200000004,35.25634799999989,89.23095699999976,125.51269500000035,105.76904300000024,42.82031300000017,114.48730499999965,96.15380900000036,110.89746099999957
338,89.35888699999941,38.589844000000085,90.89746099999957,154.23095699999976,133.58984400000008,107.30761700000039,30.128418000000238,79.23095699999976,119.74365200000011,99.48730499999965,34.35888699999941,106.53857400000015,91.0258789999998,105.25634799999989
339,82.69238299999961,33.20507799999996,85.25634799999989,167.56396500000028,134.7436520000001,109.74365200000011,24.102539000000434,64.87158199999976,108.3334960000002,86.53857400000015,24.358886999999413,96.6665039999998,80.64111300000059,103.9741210000002
340,76.6665039999998,27.17968800000017,81.41015599999992,177.94873000000007,134.48730499999965,112.94873000000007,18.461425999999847,51.025878999999804,96.0258789999998,71.9228520000006,13.589844000000085,88.0771479999994,69.48730499999965,108.3334960000002
341,76.9228520000006,22.82031300000017,83.0771479999994,183.84619099999964,129.3588869999994,113.3334960000002,17.17968800000017,47.43603499999972,93.46142599999985,68.0771479999994,7.051269999999931,87.69238299999961,67.94873000000007,110.12841800000024
342,87.05126999999993,21.538574000000153,92.82031300000017,186.79492200000004,116.9228520000006,107.05126999999993,23.461425999999847,61.025878999999804,108.3334960000002,85.12841800000024,7.948730000000069,99.61523400000078,82.56396500000028,106.53857400000015
343,103.58984400000008,21.410155999999915,107.69238299999961,189.87158199999976,97.69238299999961,93.3334960000002,35.76904300000024,87.56396500000028,137.05126999999993,120.0,13.205077999999958,120.0,109.48730499999965,105.25634799999989
344,117.43603499999972,17.94873000000007,119.74365200000011,197.17968800000017,76.2822270000006,76.2822270000006,48.0771479999994,114.10253900000043,166.2822270000006,156.6665039999998,14.230956999999762,138.3334960000002,135.51269500000035,109.61523400000078
345,120.25634799999989,8.846190999999635,121.2822270000006,211.15380900000036,59.87158199999976,64.35888699999941,53.333496000000196,126.53857400000015,181.2822270000006,176.0258789999998,3.077147999999397,143.3334960000002,146.2822270000006,111.79492200000004
346,109.23095699999976,-4.871825999999601,109.87158199999976,230.38476599999922,53.7177729999994,64.35888699999941,48.333496000000196,117.82031300000017,175.0,167.3076170000004,-21.923095999999987,130.2563479999999,133.7177729999994,106.79492200000004
347,88.9741210000002,-19.230713000000378,90.51269500000035,249.3588869999994,57.69238299999961,76.6665039999998,34.48730499999965,90.38476599999922,151.53857400000015,134.7436520000001,-55.0,103.84619099999964,101.0258789999998,101.9228520000006
348,69.87158199999976,-28.71801800000003,72.43603499999972,263.0771479999994,65.51269500000035,93.20507799999996,16.794922000000042,57.05126999999993,123.7177729999994,96.2822270000006,-85.1281740000004,76.53857400000015,62.56396500000028,104.35888699999941
349,63.46142599999985,-27.435790999999426,64.74365200000011,271.79492200000004,68.7177729999994,102.82031300000017,2.4360349999997197,34.74365200000011,106.41015599999992,74.23095699999976,-101.41015600000037,62.56396500000028,37.69238299999961,109.35888699999941
350,75.25634799999989,-13.58984399999963,71.6665039999998,279.7436520000001,61.410155999999915,98.46142599999985,-2.4360349999997197,34.87158199999976,108.7177729999994,81.53857400000015,-100.89746100000002,68.9741210000002,37.82031300000017,109.35888699999941
351,99.61523400000078,8.717772999999397,88.9741210000002,290.89746099999957,43.7177729999994,82.17968800000017,3.3334960000001956,54.74365200000011,127.05126999999993,112.43603499999972,-91.28198199999997,90.89746099999957,57.82031300000017,107.05126999999993
352,123.7177729999994,31.153809000000365,106.15380900000036,305.51269500000035,23.077147999999397,65.12841800000024,14.615234000000783,78.0771479999994,147.82031300000017,146.53857400000015,-85.64111300000013,113.84619099999964,79.61523400000078,108.7177729999994
353,135.6411130000006,47.05126999999993,113.7177729999994,320.12841800000024,9.871581999999762,58.846190999999635,22.69238299999961,88.3334960000002,157.05126999999993,162.6923829999996,-92.94872999999961,123.9741210000002,85.76904300000024,111.6665039999998
354,133.58984400000008,54.74365200000011,109.48730499999965,330.89746099999957,9.743652000000111,67.17968800000017,22.05126999999993,80.51269500000035,150.2563479999999,154.3588869999994,-112.17944299999999,117.17968800000017,72.17968800000017,109.48730499999965
355,124.61523400000078,57.56396500000028,99.23095699999976,335.0,19.74365200000011,82.56396500000028,12.82031300000017,62.43603499999972,134.61523400000078,131.2822270000006,-134.61547900000005,100.76904300000024,48.333496000000196,105.51269500000035
356,119.10253900000043,60.897460999999566,91.0258789999998,332.5639650000003,30.51269500000035,92.69238299999961,0.0,46.79492200000004,120.76904300000024,110.89746099999957,-150.38452099999995,86.6665039999998,28.333496000000196,107.30761700000039
357,123.46142599999985,70.12841800000024,89.87158199999976,327.05126999999993,34.48730499999965,90.89746099999957,-11.025634999999966,41.53857400000015,116.2822270000006,105.38476599999922,-153.46142599999985,83.20507799999996,21.666503999999804,112.17968800000017
358,136.53857400000015,86.79492200000004,96.0258789999998,321.6665039999998,30.769043000000238,80.76904300000024,-16.538574000000153,47.05126999999993,120.76904300000024,114.35888699999941,-145.1281740000004,90.64111300000059,27.56396500000028,111.0258789999998
359,150.89746099999957,107.05126999999993,105.51269500000035,317.3076170000004,24.358886999999413,71.2822270000006,-15.512939000000188,56.53857400000015,128.0771479999994,126.6665039999998,-133.46142599999985,101.79492200000004,36.79492200000004,104.61523400000078
360,157.6923829999996,124.10253900000043,111.79492200000004,312.17968800000017,21.153809000000365,70.0,-10.769286999999622,60.76904300000024,131.15380900000036,129.7436520000001,-128.84619099999964,107.94873000000007,37.43603499999972,102.17968800000017
361,153.7177729999994,134.23095699999976,110.38476599999922,305.12841800000024,24.615234000000783,77.30761700000039,-7.692382999999609,54.23095699999976,126.0258789999998,117.82031300000017,-137.0512700000004,104.35888699999941,24.615234000000783,104.87158199999976
362,144.61523400000078,141.0258789999998,102.82031300000017,298.20507799999996,34.35888699999941,87.30761700000039,-10.512939000000188,40.51269500000035,114.87158199999976,97.69238299999961,-153.84619099999964,94.48730499999965,5.128418000000238,104.87158199999976
363,141.2822270000006,151.6665039999998,96.6665039999998,294.7436520000001,45.0,92.30761700000039,-17.435790999999426,30.897460999999566,106.15380900000036,83.58984400000008,-167.56420900000057,88.0771479999994,-6.538574000000153,100.89746099999957
364,149.48730499999965,169.7436520000001,98.20507799999996,295.89746099999957,49.87158199999976,87.94873000000007,-21.538574000000153,35.25634799999989,108.3334960000002,86.2822270000006,-168.076904,92.17968800000017,-1.6665039999998044,100.25634799999989
365,165.38476599999922,192.05126999999993,106.15380900000036,298.20507799999996,46.79492200000004,77.56396500000028,-17.948729999999614,52.94873000000007,121.6665039999998,102.69238299999961,-155.38452099999995,105.25634799999989,14.871581999999762,104.74365200000011
366,178.58984400000008,211.41015599999992,114.10253900000043,296.0258789999998,41.025878999999804,70.25634799999989,-9.358886999999868,71.6665039999998,136.15380900000036,117.82031300000017,-140.2563479999999,117.30761700000039,27.69238299999961,105.89746099999957
367,181.0258789999998,222.3076170000004,116.6665039999998,286.0258789999998,40.51269500000035,72.56396500000028,-3.077147999999397,77.69238299999961,139.3588869999994,116.9228520000006,-134.7436520000001,119.48730499999965,24.48730499999965,101.15380900000036
368,173.20507799999996,225.6411130000006,113.58984400000008,269.7436520000001,47.69238299999961,82.30761700000039,-4.102538999999979,67.43603499999972,128.20507799999996,98.3334960000002,-142.179443,111.0258789999998,7.051269999999931,98.46142599999985
369,163.3334960000002,227.6923829999996,108.20507799999996,252.17968800000017,58.333496000000196,92.17968800000017,-10.512939000000188,49.35888699999941,111.79492200000004,75.0,-154.8718259999996,99.48730499999965,-12.051270000000386,101.79492200000004
370,159.87158199999976,235.2563479999999,104.48730499999965,238.20507799999996,66.6665039999998,97.94873000000007,-17.051270000000386,35.76904300000024,100.76904300000024,61.666503999999804,-161.41015600000037,93.58984400000008,-20.38452099999995,103.58984400000008
371,165.12841800000024,249.7436520000001,105.0,229.3588869999994,70.64111300000059,100.76904300000024,-19.74365200000011,32.17968800000017,98.46142599999985,62.17968800000017,-155.89746100000002,96.0258789999998,-16.538574000000153,99.61523400000078
372,174.3588869999994,266.53857400000015,109.35888699999941,223.9741210000002,71.6665039999998,103.20507799999996,-18.71801800000003,36.53857400000015,101.15380900000036,69.35888699999941,-142.3076170000004,103.46142599999985,-8.71801800000003,97.82031300000017
373,181.15380900000036,280.0,115.51269500000035,218.9741210000002,70.76904300000024,103.46142599999985,-15.641113000000132,44.61523400000078,105.51269500000035,75.0,-128.97436500000003,110.25634799999989,-4.102538999999979,103.58984400000008
374,184.61523400000078,289.87158199999976,121.53857400000015,212.94873000000007,69.23095699999976,99.10253900000043,-11.41015600000037,55.51269500000035,112.17968800000017,77.94873000000007,-120.0,115.0,-1.153809000000365,108.20507799999996
375,188.46142599999985,300.89746099999957,127.82031300000017,206.15380900000036,69.35888699999941,91.53857400000015,-5.897461000000021,69.10253900000043,122.05126999999993,82.17968800000017,-112.82055700000001,119.87158199999976,6.922852000000603,103.9741210000002
376,194.87158199999976,315.89746099999957,134.61523400000078,197.6923829999996,73.20507799999996,86.41015599999992,0.12841800000023795,82.17968800000017,132.3076170000004,88.9741210000002,-103.84619099999964,126.15380900000036,21.282227000000603,97.69238299999961
377,199.87158199999976,331.2822270000006,138.58984400000008,183.9741210000002,81.15380900000036,88.3334960000002,5.0,88.58984400000008,136.53857400000015,93.0771479999994,-95.51293900000019,130.38476599999922,33.0771479999994,99.48730499999965
378,197.6923829999996,341.2822270000006,135.2563479999999,162.17968800000017,91.41015599999992,97.56396500000028,6.794922000000042,83.84619099999964,130.38476599999922,87.30761700000039,-93.33325200000036,126.9228520000006,30.897460999999566,105.0
379,188.0771479999994,345.12841800000024,125.64111300000059,135.0,101.9228520000006,109.61523400000078,5.256347999999889,70.64111300000059,116.0258789999998,70.89746099999957,-98.97436500000003,115.64111300000059,13.077147999999397,103.9741210000002
380,177.43603499999972,347.5639650000003,116.79492200000004,110.76904300000024,110.64111300000059,117.94873000000007,1.7949220000000423,57.69238299999961,101.6665039999998,51.53857400000015,-105.38452099999995,104.10253900000043,-9.743652000000111,99.74365200000011
381,171.6665039999998,352.94873000000007,115.12841800000024,95.89746099999957,115.64111300000059,118.46142599999985,-1.0258789999998044,52.69238299999961,95.51269500000035,39.23095699999976,-103.84619099999964,99.87158199999976,-24.61547900000005,101.53857400000015
382,171.79492200000004,361.6665039999998,120.12841800000024,89.23095699999976,117.82031300000017,113.46142599999985,-1.7949220000000423,55.0,97.94873000000007,37.30761700000039,-92.05127000000039,104.23095699999976,-26.666747999999643,106.53857400000015
383,174.23095699999976,371.2822270000006,125.89746099999957,84.23095699999976,121.15380900000036,110.64111300000059,-0.512695000000349,57.43603499999972,101.0258789999998,39.74365200000011,-75.51293900000019,111.41015599999992,-20.25634799999989,104.23095699999976
