,EEG.AF3,EEG.F7,EEG.F3,EEG.FC5,EEG.T7,EEG.P7,EEG.O1,EEG.O2,EEG.P8,EEG.T8,EEG.FC6,EEG.F4,EEG.F8,EEG.AF4
0,146.6665039999998,169.10253900000043,85.51269500000035,259.23095699999976,66.41015599999992,87.69238299999961,6.666503999999804,57.94873000000007,114.35888699999941,92.05126999999993,-121.28198199999997,81.15380900000036,-14.61547900000005,107.94873000000007
1,134.87158199999976,163.84619099999964,78.58984400000008,248.20507799999996,72.17968800000017,94.74365200000011,1.7949220000000423,39.74365200000011,98.46142599999985,68.20507799999996,-134.10253899999998,69.10253900000043,-39.10253899999998,106.0258789999998
2,132.3076170000004,164.23095699999976,77.94873000000007,235.76904300000024,78.7177729999994,100.25634799999989,0.12841800000023795,28.205077999999958,89.23095699999976,54.61523400000078,-140.64111300000013,64.10253900000043,-48.846190999999635,103.58984400000008
3,140.38476599999922,173.0771479999994,82.94873000000007,227.82031300000017,80.64111300000059,99.48730499999965,0.6411130000005869,26.538574000000153,88.9741210000002,54.74365200000011,-141.66674799999964,67.94873000000007,-44.35888699999987,106.2822270000006
4,156.2822270000006,187.3076170000004,92.17968800000017,228.3334960000002,74.87158199999976,90.89746099999957,3.9741210000001956,36.79492200000004,98.46142599999985,68.7177729999994,-135.64111300000013,80.51269500000035,-31.28198199999997,108.84619099999964
5,174.10253900000043,202.17968800000017,103.9741210000002,235.51269500000035,64.48730499999965,79.35888699999941,11.282227000000603,57.56396500000028,115.38476599999922,91.2822270000006,-121.28198199999997,98.58984400000008,-16.28198199999997,104.23095699999976
6,186.6665039999998,212.3076170000004,115.89746099999957,242.82031300000017,57.05126999999993,72.69238299999961,21.025878999999804,81.6665039999998,133.46142599999985,111.9228520000006,-102.56420900000057,115.25634799999989,-6.281981999999971,97.69238299999961
7,188.3334960000002,216.0258789999998,123.58984400000008,242.6923829999996,58.0771479999994,75.12841800000024,28.589844000000085,97.94873000000007,144.87158199999976,120.38476599999922,-88.84619099999964,123.0771479999994,-6.666747999999643,98.3334960000002
8,180.51269500000035,216.0258789999998,123.7177729999994,232.6923829999996,67.82031300000017,84.87158199999976,29.871581999999762,99.23095699999976,145.38476599999922,113.84619099999964,-88.58984399999963,118.9741210000002,-17.69238299999961,102.94873000000007
9,170.0,217.82031300000017,117.94873000000007,218.0771479999994,81.2822270000006,95.76904300000024,25.128418000000238,87.43603499999972,136.6665039999998,98.84619099999964,-101.53857400000015,107.82031300000017,-33.07690400000001,102.56396500000028
10,163.58984400000008,223.9741210000002,111.6665039999998,208.0771479999994,91.53857400000015,101.15380900000036,18.461425999999847,70.89746099999957,124.35888699999941,85.0,-119.48706099999981,97.56396500000028,-45.76928699999962,98.84619099999964
11,161.79492200000004,231.41015599999992,107.94873000000007,207.56396500000028,94.48730499999965,98.84619099999964,13.846190999999635,56.2822270000006,112.82031300000017,77.05126999999993,-132.6923829999996,92.69238299999961,-54.10253899999998,100.38476599999922
12,159.61523400000078,235.89746099999957,105.51269500000035,213.0771479999994,91.15380900000036,92.56396500000028,11.538574000000153,45.897460999999566,103.58984400000008,72.43603499999972,-136.923096,90.89746099999957,-60.89746100000002,105.38476599999922
13,154.48730499999965,236.9228520000006,102.69238299999961,215.38476599999922,86.6665039999998,88.84619099999964,10.128418000000238,40.12841800000024,96.9228520000006,67.05126999999993,-133.076904,88.46142599999985,-68.46142599999985,104.35888699999941
14,148.58984400000008,238.0771479999994,100.0,207.56396500000028,84.10253900000043,91.0258789999998,9.102539000000434,40.25634799999989,94.74365200000011,60.12841800000024,-125.76928699999962,84.48730499999965,-75.0,98.20507799999996
15,146.2822270000006,242.05126999999993,99.87158199999976,189.7436520000001,82.43603499999972,95.51269500000035,9.743652000000111,47.17968800000017,98.9741210000002,55.897460999999566,-119.8718259999996,81.15380900000036,-77.43579099999943,97.43603499999972
16,150.6411130000006,248.84619099999964,103.7177729999994,169.3588869999994,79.61523400000078,96.15380900000036,13.461425999999847,58.333496000000196,109.23095699999976,58.46142599999985,-117.17944299999999,81.53857400000015,-74.48706099999981,103.3334960000002
17,161.2822270000006,257.6923829999996,111.41015599999992,156.6665039999998,77.17968800000017,91.53857400000015,20.0,68.9741210000002,121.0258789999998,67.69238299999961,-115.64111300000013,87.17968800000017,-67.17944299999999,105.51269500000035
18,174.48730499999965,267.3076170000004,121.41015599999992,157.56396500000028,78.46142599999985,85.89746099999957,27.17968800000017,75.38476599999922,128.3334960000002,78.46142599999985,-111.02563499999997,96.9228520000006,-57.051270000000386,101.15380900000036
19,183.58984400000008,274.7436520000001,130.12841800000024,167.6923829999996,84.48730499999965,84.10253900000043,33.0771479999994,76.53857400000015,127.82031300000017,84.23095699999976,-102.43579099999943,106.79492200000004,-47.82055700000001,99.74365200000011
20,182.56396500000028,277.3076170000004,132.6923829999996,175.2563479999999,91.2822270000006,86.9228520000006,36.153809000000365,73.9741210000002,121.6665039999998,81.2822270000006,-93.46142599999985,110.76904300000024,-43.58984399999963,105.0
21,171.53857400000015,275.51269500000035,126.79492200000004,170.76904300000024,94.61523400000078,92.17968800000017,35.25634799999989,70.0,114.10253900000043,70.12841800000024,-89.35888699999987,105.76904300000024,-46.53857400000015,107.17968800000017
22,156.9228520000006,273.84619099999964,116.0258789999998,154.48730499999965,94.74365200000011,97.17968800000017,30.641113000000587,65.0,107.69238299999961,54.74365200000011,-92.56420900000057,93.84619099999964,-56.025634999999966,101.0258789999998
23,146.53857400000015,277.3076170000004,107.30761700000039,135.38476599999922,95.12841800000024,99.87158199999976,24.230956999999762,58.20507799999996,101.6665039999998,40.0,-100.76928699999962,82.05126999999993,-67.69238299999961,95.89746099999957
24,144.48730499999965,286.9228520000006,106.2822270000006,123.46142599999985,97.43603499999972,99.48730499999965,20.25634799999989,51.2822270000006,96.15380900000036,30.897460999999566,-108.07690400000001,76.41015599999992,-76.41015600000037,98.84619099999964
25,149.48730499999965,299.7436520000001,113.84619099999964,122.05126999999993,100.25634799999989,97.17968800000017,22.17968800000017,48.846190999999635,93.3334960000002,30.384765999999217,-107.56420900000057,79.74365200000011,-78.20507799999996,102.17968800000017
26,156.6665039999998,310.76904300000024,126.0258789999998,125.38476599999922,101.79492200000004,95.89746099999957,29.871581999999762,54.102539000000434,95.0,37.17968800000017,-96.02563499999997,89.48730499999965,-72.69238299999961,98.46142599999985
27,159.3588869999994,315.3847659999992,135.38476599999922,122.05126999999993,101.15380900000036,97.69238299999961,39.102539000000434,63.333496000000196,97.94873000000007,44.35888699999941,-77.82055700000001,99.10253900000043,-65.64111300000013,94.74365200000011
28,152.3076170000004,311.6665039999998,135.38476599999922,104.87158199999976,98.84619099999964,101.41015599999992,43.974121000000196,68.46142599999985,96.9228520000006,43.20507799999996,-61.66674799999964,100.89746099999957,-64.74365200000011,99.48730499999965
29,137.56396500000028,303.20507799999996,125.25634799999989,78.7177729999994,97.30761700000039,104.10253900000043,42.43603499999972,64.61523400000078,90.0,31.922852000000603,-52.435790999999426,92.56396500000028,-71.53857400000015,105.64111300000059
30,125.25634799999989,298.84619099999964,113.46142599999985,59.48730499999965,99.87158199999976,105.12841800000024,37.94873000000007,55.64111300000059,81.53857400000015,18.333496000000196,-45.25634799999989,81.15380900000036,-77.82055700000001,102.69238299999961
31,126.15380900000036,304.87158199999976,111.0258789999998,59.23095699999976,108.0771479999994,105.25634799999989,36.410155999999915,50.64111300000059,78.84619099999964,13.846190999999635,-30.0,77.94873000000007,-73.07690400000001,95.12841800000024
32,141.0258789999998,320.2563479999999,122.05126999999993,74.23095699999976,119.74365200000011,105.25634799999989,41.2822270000006,54.74365200000011,84.61523400000078,22.94873000000007,-3.717772999999397,87.82031300000017,-55.64111300000013,94.61523400000078
33,159.7436520000001,336.9228520000006,139.23095699999976,88.20507799999996,130.89746099999957,105.89746099999957,50.64111300000059,64.61523400000078,93.7177729999994,39.23095699999976,27.43603499999972,104.87158199999976,-34.10253899999998,99.23095699999976
34,170.51269500000035,348.7177729999994,151.53857400000015,88.0771479999994,139.87158199999976,108.3334960000002,59.61523400000078,72.30761700000039,96.9228520000006,50.0,54.48730499999965,117.82031300000017,-19.74365200000011,97.56396500000028
35,168.7177729999994,354.6152340000008,153.46142599999985,74.48730499999965,145.89746099999957,113.20507799999996,64.48730499999965,73.20507799999996,89.61523400000078,47.94873000000007,75.89746099999957,120.76904300000024,-16.923095999999987,90.51269500000035
36,158.46142599999985,357.17968800000017,147.17968800000017,59.35888699999941,147.05126999999993,117.56396500000028,65.76904300000024,69.74365200000011,76.0258789999998,37.43603499999972,99.10253900000043,115.64111300000059,-21.025634999999966,89.87158199999976
37,148.3334960000002,358.46142599999985,139.61523400000078,53.846190999999635,141.2822270000006,116.79492200000004,67.69238299999961,69.10253900000043,66.53857400000015,30.641113000000587,133.7177729999994,109.23095699999976,-22.69238299999961,96.53857400000015
38,145.0,358.9741210000002,136.53857400000015,60.76904300000024,131.41015599999992,110.76904300000024,74.48730499999965,76.9228520000006,68.46142599999985,36.53857400000015,183.3334960000002,107.43603499999972,-15.769286999999622,98.3334960000002
39,148.3334960000002,358.3334960000002,138.84619099999964,72.69238299999961,124.74365200000011,104.74365200000011,85.25634799999989,90.12841800000024,79.35888699999941,52.43603499999972,241.0258789999998,110.76904300000024,-2.0512699999999313,91.41015599999992
40,151.0258789999998,356.4101559999999,141.6665039999998,76.6665039999998,126.2822270000006,103.58984400000008,93.9741210000002,99.35888699999941,87.69238299999961,64.87158199999976,291.53857400000015,113.84619099999964,9.871581999999762,87.56396500000028
41,146.15380900000036,353.0771479999994,139.23095699999976,65.89746099999957,133.84619099999964,105.89746099999957,94.87158199999976,97.05126999999993,84.23095699999976,63.20507799999996,323.20507799999996,110.51269500000035,13.589844000000085,94.10253900000043
42,134.7436520000001,350.51269500000035,131.6665039999998,46.9228520000006,141.41015599999992,106.79492200000004,88.84619099999964,87.05126999999993,70.76904300000024,49.87158199999976,337.3076170000004,101.15380900000036,12.692382999999609,101.79492200000004
43,125.64111300000059,351.6665039999998,125.76904300000024,35.25634799999989,146.53857400000015,104.48730499999965,84.10253900000043,81.15380900000036,58.846190999999635,38.7177729999994,347.6923829999996,93.0771479999994,17.43603499999972,101.53857400000015
44,125.51269500000035,356.15380900000036,127.43603499999972,40.38476599999922,152.94873000000007,102.56396500000028,88.0771479999994,86.15380900000036,57.17968800000017,39.87158199999976,368.0771479999994,92.82031300000017,33.20507799999996,98.7177729999994
45,131.79492200000004,360.0,134.7436520000001,55.12841800000024,164.7436520000001,105.51269500000035,101.2822270000006,96.53857400000015,63.46142599999985,49.74365200000011,401.4101559999999,98.7177729999994,54.74365200000011,101.15380900000036
46,136.6665039999998,360.12841800000024,140.38476599999922,63.589844000000085,182.17968800000017,113.84619099999964,116.9228520000006,101.0258789999998,67.30761700000039,56.9228520000006,440.3847659999992,103.58984400000008,73.7177729999994,104.23095699999976
47,137.05126999999993,358.84619099999964,140.6411130000006,55.76904300000024,200.76904300000024,123.9741210000002,128.20507799999996,96.2822270000006,62.56396500000028,55.51269500000035,477.94873000000007,103.9741210000002,90.12841800000024,100.51269500000035
48,135.89746099999957,361.2822270000006,138.0771479999994,35.897460999999566,213.3334960000002,130.12841800000024,132.94873000000007,90.51269500000035,53.846190999999635,50.38476599999922,512.1796880000002,103.0771479999994,109.87158199999976,95.0
49,136.0258789999998,369.48730499999965,137.17968800000017,15.0,216.6665039999998,129.10253900000043,134.61523400000078,93.20507799999996,50.25634799999989,50.64111300000059,545.6411130000006,105.12841800000024,136.41015599999992,97.56396500000028
50,137.82031300000017,380.51269500000035,138.9741210000002,0.6411130000005869,215.89746099999957,123.46142599999985,137.94873000000007,105.64111300000059,55.12841800000024,58.589844000000085,580.7690430000002,110.0,165.0,105.0
51,139.3588869999994,390.0,141.2822270000006,-5.897461000000021,222.17968800000017,120.12841800000024,145.51269500000035,119.87158199999976,63.0771479999994,68.3334960000002,618.4614259999998,114.23095699999976,187.6923829999996,105.64111300000059
52,139.7436520000001,394.7436520000001,141.6665039999998,-6.538574000000153,242.94873000000007,122.56396500000028,156.15380900000036,126.6665039999998,66.41015599999992,72.05126999999993,657.0512699999999,115.51269500000035,200.89746099999957,99.10253900000043
53,137.82031300000017,393.3334960000002,139.61523400000078,-3.4614259999998467,273.5898440000001,127.05126999999993,166.15380900000036,123.46142599999985,62.30761700000039,67.30761700000039,692.6923829999996,113.3334960000002,206.79492200000004,96.79492200000004
54,134.10253900000043,387.5639650000003,136.53857400000015,2.8203130000001693,301.2822270000006,126.6665039999998,172.43603499999972,116.2822270000006,55.51269500000035,58.846190999999635,720.8974609999996,109.87158199999976,211.79492200000004,102.69238299999961
55,131.6665039999998,382.17968800000017,135.51269500000035,11.922852000000603,317.17968800000017,119.35888699999941,175.2563479999999,113.84619099999964,52.82031300000017,54.74365200000011,739.3588869999994,108.46142599999985,221.0258789999998,108.0771479999994
56,132.6923829999996,381.15380900000036,138.3334960000002,21.538574000000153,322.94873000000007,110.51269500000035,177.6923829999996,120.38476599999922,57.05126999999993,58.974121000000196,747.9487300000001,111.15380900000036,235.38476599999922,107.17968800000017
57,136.15380900000036,383.46142599999985,143.20507799999996,26.025878999999804,326.15380900000036,106.0258789999998,182.6923829999996,131.0258789999998,64.48730499999965,67.82031300000017,747.9487300000001,116.53857400000015,249.23095699999976,106.2822270000006
58,137.6923829999996,383.7177729999994,145.6411130000006,20.51269500000035,331.79492200000004,107.43603499999972,190.51269500000035,136.53857400000015,68.20507799999996,72.82031300000017,742.4360349999997,119.74365200000011,255.51269500000035,110.89746099999957
59,134.61523400000078,379.87158199999976,141.6665039999998,7.56396500000028,340.0,112.17968800000017,198.84619099999964,132.17968800000017,64.61523400000078,68.3334960000002,735.2563479999999,116.6665039999998,252.3076170000004,115.64111300000059
60,128.46142599999985,373.3334960000002,132.6923829999996,-3.846190999999635,347.05126999999993,115.89746099999957,205.51269500000035,121.79492200000004,56.79492200000004,57.30761700000039,729.1025390000004,107.82031300000017,244.23095699999976,113.7177729999994
61,121.9228520000006,365.76904300000024,124.10253900000043,-6.153809000000365,349.6152340000008,116.0258789999998,210.89746099999957,114.35888699999941,51.666503999999804,48.0771479999994,723.7177729999994,97.69238299999961,237.05126999999993,109.74365200000011
62,116.6665039999998,356.2822270000006,120.25634799999989,0.38476599999921746,346.6665039999998,112.94873000000007,216.79492200000004,116.15380900000036,53.974121000000196,47.43603499999972,716.4101559999999,91.15380900000036,232.05126999999993,111.53857400000015
63,113.0771479999994,344.10253900000043,121.79492200000004,10.0,340.6411130000006,110.12841800000024,224.61523400000078,125.38476599999922,62.43603499999972,55.38476599999922,704.8715819999998,90.89746099999957,227.56396500000028,117.17968800000017
64,111.9228520000006,331.53857400000015,126.79492200000004,17.43603499999972,334.6152340000008,110.0,233.3334960000002,134.7436520000001,70.64111300000059,65.12841800000024,688.7177729999994,95.64111300000059,221.6665039999998,118.0771479999994
65,113.3334960000002,322.5639650000003,131.6665039999998,22.69238299999961,329.3588869999994,111.0258789999998,239.87158199999976,136.2822270000006,72.69238299999961,69.48730499999965,667.6923829999996,101.41015599999992,214.87158199999976,113.84619099999964
66,116.53857400000015,319.23095699999976,134.3588869999994,29.230956999999762,323.46142599999985,109.10253900000043,242.17968800000017,129.10253900000043,68.9741210000002,66.79492200000004,641.5385740000002,104.10253900000043,208.3334960000002,112.30761700000039
67,119.61523400000078,320.2563479999999,133.46142599999985,40.25634799999989,315.76904300000024,103.58984400000008,240.51269500000035,119.23095699999976,65.38476599999922,61.2822270000006,611.5385740000002,102.69238299999961,203.3334960000002,115.76904300000024
68,120.89746099999957,321.53857400000015,129.48730499999965,55.897460999999566,307.17968800000017,98.58984400000008,238.3334960000002,114.74365200000011,66.79492200000004,58.846190999999635,580.1284180000002,98.7177729999994,198.9741210000002,117.69238299999961
69,117.94873000000007,317.17968800000017,123.84619099999964,71.2822270000006,297.6923829999996,98.0771479999994,238.84619099999964,117.82031300000017,72.30761700000039,60.51269500000035,549.8715819999998,94.35888699999941,191.15380900000036,114.61523400000078
70,110.0,304.7436520000001,117.69238299999961,80.38476599999922,286.0258789999998,100.89746099999957,242.6923829999996,123.84619099999964,76.79492200000004,63.46142599999985,522.8203130000002,90.51269500000035,176.2822270000006,112.94873000000007
71,99.87158199999976,288.7177729999994,113.0771479999994,81.6665039999998,271.4101559999999,102.56396500000028,246.79492200000004,126.2822270000006,75.89746099999957,63.7177729999994,500.12841800000024,88.20507799999996,155.51269500000035,116.9228520000006
72,93.58984400000008,278.84619099999964,112.17968800000017,80.51269500000035,256.53857400000015,101.15380900000036,248.58984400000008,123.3334960000002,70.51269500000035,60.51269500000035,482.17968800000017,88.58984400000008,136.6665039999998,120.76904300000024
73,95.12841800000024,281.4101559999999,115.51269500000035,86.0258789999998,245.38476599999922,97.43603499999972,246.79492200000004,118.20507799999996,65.76904300000024,56.2822270000006,468.0771479999994,92.05126999999993,126.9228520000006,118.46142599999985
74,102.17968800000017,292.05126999999993,120.64111300000059,101.9228520000006,237.94873000000007,93.20507799999996,242.3076170000004,115.38476599999922,65.51269500000035,54.102539000000434,454.48730499999965,96.9228520000006,125.89746099999957,114.23095699999976
75,107.94873000000007,299.23095699999976,122.94873000000007,122.82031300000017,230.0,89.74365200000011,237.05126999999993,117.05126999999993,70.25634799999989,55.0,438.9741210000002,99.48730499999965,125.51269500000035,114.87158199999976
76,107.43603499999972,293.7177729999994,120.64111300000059,138.3334960000002,217.56396500000028,87.94873000000007,234.3588869999994,121.9228520000006,76.2822270000006,57.56396500000028,421.2822270000006,98.46142599999985,117.94873000000007,118.46142599999985
77,100.0,276.6665039999998,115.25634799999989,141.2822270000006,200.6411130000006,88.46142599999985,235.76904300000024,125.89746099999957,78.46142599999985,57.82031300000017,402.94873000000007,93.9741210000002,101.9228520000006,117.82031300000017
78,89.10253900000043,257.3076170000004,110.0,132.6923829999996,182.43603499999972,90.25634799999989,240.6411130000006,124.23095699999976,73.9741210000002,52.30761700000039,383.46142599999985,87.94873000000007,81.79492200000004,113.58984400000008
79,79.23095699999976,246.6665039999998,106.0258789999998,121.15380900000036,168.0771479999994,92.30761700000039,245.89746099999957,114.87158199999976,63.846190999999635,41.025878999999804,360.3847659999992,81.2822270000006,64.23095699999976,112.30761700000039
80,73.9741210000002,250.76904300000024,102.82031300000017,116.0258789999998,162.05126999999993,94.74365200000011,248.84619099999964,101.9228520000006,53.846190999999635,28.717772999999397,332.94873000000007,75.38476599999922,53.7177729999994,115.38476599999922
81,72.82031300000017,265.89746099999957,99.10253900000043,120.0,164.87158199999976,98.7177729999994,248.9741210000002,93.3334960000002,49.87158199999976,21.282227000000603,304.87158199999976,70.89746099999957,49.102539000000434,116.0258789999998
82,71.41015599999992,280.0,94.35888699999941,127.05126999999993,170.6411130000006,103.58984400000008,248.3334960000002,93.7177729999994,53.589844000000085,21.025878999999804,281.9228520000006,67.56396500000028,43.846190999999635,112.30761700000039
83,65.38476599999922,281.15380900000036,88.84619099999964,129.7436520000001,171.15380900000036,107.05126999999993,248.9741210000002,101.0258789999998,61.025878999999804,25.128418000000238,267.17968800000017,64.87158199999976,33.333496000000196,110.25634799999989
84,55.897460999999566,266.6665039999998,84.74365200000011,126.41015599999992,163.20507799999996,107.69238299999961,251.15380900000036,108.7177729999994,66.15380900000036,28.846190999999635,260.89746099999957,62.82031300000017,20.769043000000238,113.3334960000002
85,49.48730499999965,244.3588869999994,84.74365200000011,122.17968800000017,150.76904300000024,106.53857400000015,253.9741210000002,111.9228520000006,65.51269500000035,29.615234000000783,261.9228520000006,63.46142599999985,16.666503999999804,116.15380900000036
86,52.56396500000028,225.51269500000035,89.74365200000011,121.53857400000015,139.7436520000001,105.25634799999989,255.89746099999957,110.51269500000035,61.2822270000006,28.717772999999397,268.3334960000002,68.0771479999994,28.589844000000085,114.35888699999941
87,65.0,216.15380900000036,97.05126999999993,123.20507799999996,133.84619099999964,105.0,256.15380900000036,107.56396500000028,58.846190999999635,29.358886999999413,277.5639650000003,76.41015599999992,53.974121000000196,111.9228520000006
88,82.05126999999993,216.79492200000004,102.82031300000017,123.20507799999996,133.7177729999994,106.0258789999998,254.7436520000001,107.56396500000028,62.30761700000039,34.61523400000078,287.3076170000004,86.6665039999998,82.82031300000017,113.20507799999996
89,97.56396500000028,223.0771479999994,105.51269500000035,120.51269500000035,138.58984400000008,108.84619099999964,252.56396500000028,112.56396500000028,70.64111300000059,44.35888699999941,295.76904300000024,96.79492200000004,104.74365200000011,114.61523400000078
90,107.56396500000028,227.94873000000007,106.6665039999998,115.51269500000035,145.12841800000024,112.30761700000039,250.51269500000035,120.12841800000024,79.23095699999976,53.974121000000196,300.3847659999992,104.61523400000078,115.51269500000035,111.2822270000006
91,109.87158199999976,223.7177729999994,107.69238299999961,108.3334960000002,147.6923829999996,113.58984400000008,248.7177729999994,124.23095699999976,82.56396500000028,57.94873000000007,298.5898440000001,108.0771479999994,117.82031300000017,107.30761700000039
92,106.9228520000006,208.7177729999994,108.58984400000008,99.10253900000043,142.17968800000017,111.15380900000036,246.6665039999998,120.89746099999957,78.58984400000008,55.12841800000024,290.89746099999957,107.17968800000017,119.61523400000078,109.10253900000043
93,105.25634799999989,189.7436520000001,109.23095699999976,89.74365200000011,130.89746099999957,107.05126999999993,243.3334960000002,112.17968800000017,70.89746099999957,50.897460999999566,283.46142599999985,104.87158199999976,128.20507799999996,114.48730499999965
94,110.25634799999989,175.38476599999922,110.0,83.3334960000002,120.25634799999989,104.10253900000043,238.3334960000002,104.74365200000011,66.53857400000015,52.82031300000017,282.94873000000007,105.25634799999989,145.2563479999999,115.89746099999957
95,120.12841800000024,168.3334960000002,110.76904300000024,82.05126999999993,115.51269500000035,102.94873000000007,233.3334960000002,104.23095699999976,71.2822270000006,64.87158199999976,290.51269500000035,109.74365200000011,164.3588869999994,113.20507799999996
96,128.84619099999964,164.10253900000043,110.89746099999957,87.56396500000028,117.56396500000028,102.43603499999972,230.89746099999957,110.64111300000059,84.35888699999941,84.35888699999941,300.2563479999999,116.6665039999998,178.0771479999994,113.20507799999996
97,132.56396500000028,157.6923829999996,110.12841800000024,100.12841800000024,124.74365200000011,102.05126999999993,232.94873000000007,120.12841800000024,98.84619099999964,103.58984400000008,306.4101559999999,123.7177729999994,184.7436520000001,117.05126999999993
98,132.43603499999972,147.82031300000017,109.35888699999941,116.15380900000036,133.46142599999985,102.30761700000039,238.0771479999994,127.69238299999961,107.43603499999972,114.74365200000011,306.15380900000036,128.46142599999985,188.84619099999964,117.82031300000017
99,131.41015599999992,135.38476599999922,109.35888699999941,126.53857400000015,138.58984400000008,102.43603499999972,242.17968800000017,130.38476599999922,107.94873000000007,115.25634799999989,300.3847659999992,129.61523400000078,194.3588869999994,113.0771479999994
100,131.2822270000006,122.17968800000017,109.87158199999976,123.7177729999994,136.9228520000006,100.76904300000024,240.76904300000024,128.9741210000002,105.89746099999957,110.25634799999989,291.6665039999998,127.30761700000039,201.6665039999998,109.61523400000078
101,132.17968800000017,110.51269500000035,110.76904300000024,110.25634799999989,131.0258789999998,97.30761700000039,234.10253900000043,127.82031300000017,108.84619099999964,108.0771479999994,283.0771479999994,124.48730499999965,208.7177729999994,111.79492200000004
102,133.3334960000002,102.17968800000017,111.79492200000004,96.6665039999998,126.9228520000006,94.35888699999941,226.2822270000006,130.12841800000024,118.84619099999964,112.17968800000017,277.05126999999993,124.10253900000043,213.46142599999985,113.9741210000002
103,132.82031300000017,96.9228520000006,112.43603499999972,91.41015599999992,128.46142599999985,94.10253900000043,222.94873000000007,135.12841800000024,129.23095699999976,117.30761700000039,272.6923829999996,126.0258789999998,214.61523400000078,111.53857400000015
104,129.23095699999976,92.30761700000039,112.17968800000017,93.58984400000008,134.23095699999976,96.79492200000004,226.41015599999992,138.9741210000002,130.2563479999999,114.87158199999976,267.3076170000004,127.82031300000017,213.20507799999996,108.58984400000008
105,124.87158199999976,86.79492200000004,111.2822270000006,96.15380900000036,140.0,102.17968800000017,235.0,138.9741210000002,118.0771479999994,101.79492200000004,261.15380900000036,127.94873000000007,213.7177729999994,110.12841800000024
106,123.84619099999964,80.0,110.51269500000035,93.20507799999996,142.56396500000028,109.61523400000078,244.10253900000043,137.17968800000017,97.94873000000007,84.10253900000043,258.5898440000001,127.17968800000017,221.2822270000006,112.30761700000039
107,127.05126999999993,72.05126999999993,109.61523400000078,83.7177729999994,140.76904300000024,116.41015599999992,248.84619099999964,135.76904300000024,80.38476599999922,71.2822270000006,263.0771479999994,126.79492200000004,234.7436520000001,109.48730499999965
108,130.2563479999999,62.43603499999972,107.30761700000039,69.87158199999976,134.87158199999976,119.10253900000043,246.2822270000006,135.12841800000024,72.82031300000017,68.9741210000002,273.0771479999994,126.0258789999998,247.17968800000017,106.0258789999998
109,129.48730499999965,52.05126999999993,103.84619099999964,55.64111300000059,127.69238299999961,116.79492200000004,237.6923829999996,133.9741210000002,75.51269500000035,76.15380900000036,283.9741210000002,124.35888699999941,253.20507799999996,108.58984400000008
110,125.89746099999957,44.23095699999976,101.2822270000006,45.25634799999989,124.35888699999941,113.20507799999996,228.0771479999994,132.6923829999996,83.84619099999964,87.30761700000039,292.4360349999997,122.82031300000017,254.61523400000078,114.23095699999976
111,123.9741210000002,42.30761700000039,101.53857400000015,40.897460999999566,127.43603499999972,112.94873000000007,222.43603499999972,132.43603499999972,91.9228520000006,97.05126999999993,297.82031300000017,123.58984400000008,259.10253900000043,113.84619099999964
112,126.2822270000006,45.76904300000024,104.61523400000078,42.05126999999993,134.48730499999965,115.76904300000024,222.05126999999993,134.3588869999994,96.2822270000006,103.0771479999994,300.0,126.9228520000006,270.76904300000024,107.94873000000007
113,131.79492200000004,51.025878999999804,108.3334960000002,46.2822270000006,140.2563479999999,118.46142599999985,224.7436520000001,137.94873000000007,97.82031300000017,106.2822270000006,299.87158199999976,131.41015599999992,287.17968800000017,106.0258789999998
114,137.56396500000028,54.87158199999976,111.53857400000015,51.025878999999804,141.79492200000004,118.7177729999994,228.0771479999994,142.43603499999972,99.61523400000078,109.61523400000078,299.7436520000001,136.41015599999992,302.5639650000003,110.64111300000059
115,141.79492200000004,56.9228520000006,113.46142599999985,53.974121000000196,139.7436520000001,117.05126999999993,230.76904300000024,146.6665039999998,103.46142599999985,115.0,301.9228520000006,141.41015599999992,312.4360349999997,114.23095699999976
116,143.9741210000002,57.69238299999961,113.84619099999964,53.0771479999994,136.53857400000015,115.0,231.53857400000015,148.0771479999994,107.94873000000007,122.05126999999993,305.76904300000024,146.0258789999998,315.76904300000024,112.43603499999972
117,144.61523400000078,56.2822270000006,113.20507799999996,49.23095699999976,132.94873000000007,113.46142599999985,228.46142599999985,145.38476599999922,111.79492200000004,127.94873000000007,307.94873000000007,149.48730499999965,315.0,111.41015599999992
118,145.6411130000006,50.64111300000059,112.69238299999961,46.153809000000365,129.10253900000043,112.82031300000017,221.53857400000015,141.0258789999998,115.38476599999922,132.05126999999993,306.6665039999998,151.6665039999998,313.84619099999964,114.87158199999976
119,148.20507799999996,39.87158199999976,113.9741210000002,47.43603499999972,124.87158199999976,112.94873000000007,214.10253900000043,139.48730499999965,120.89746099999957,135.38476599999922,302.05126999999993,153.46142599999985,315.12841800000024,117.56396500000028
120,151.15380900000036,25.51269500000035,116.53857400000015,53.46142599999985,119.61523400000078,112.56396500000028,210.51269500000035,142.43603499999972,128.46142599999985,139.10253900000043,294.87158199999976,154.23095699999976,318.20507799999996,114.87158199999976
121,151.6665039999998,10.897460999999566,118.46142599999985,62.30761700000039,113.84619099999964,110.51269500000035,211.79492200000004,147.3076170000004,135.2563479999999,142.82031300000017,285.2563479999999,153.3334960000002,320.2563479999999,112.17968800000017
122,149.7436520000001,-0.256347999999889,118.9741210000002,72.05126999999993,109.87158199999976,108.46142599999985,215.51269500000035,150.12841800000024,137.94873000000007,145.38476599999922,273.0771479999994,151.2822270000006,320.89746099999957,114.35888699999941
123,147.56396500000028,-6.923095999999987,118.20507799999996,81.2822270000006,110.0,109.10253900000043,217.82031300000017,149.48730499999965,136.6665039999998,147.43603499999972,259.23095699999976,149.61523400000078,321.53857400000015,116.53857400000015
124,145.76904300000024,-12.692382999999609,116.0258789999998,88.46142599999985,112.69238299999961,112.43603499999972,216.53857400000015,146.53857400000015,134.3588869999994,149.61523400000078,244.10253900000043,148.9741210000002,322.4360349999997,112.82031300000017
125,142.56396500000028,-21.923095999999987,111.6665039999998,91.15380900000036,112.94873000000007,115.12841800000024,211.79492200000004,142.6923829999996,133.58984400000008,151.53857400000015,226.53857400000015,147.6923829999996,320.76904300000024,107.94873000000007
126,136.41015599999992,-34.23071300000038,105.25634799999989,87.94873000000007,107.82031300000017,113.9741210000002,206.0258789999998,139.23095699999976,134.48730499999965,152.3076170000004,205.38476599999922,144.87158199999976,315.0,110.0
127,129.10253900000043,-44.10253899999998,99.35888699999941,79.74365200000011,99.10253900000043,110.12841800000024,202.94873000000007,138.3334960000002,136.15380900000036,151.6665039999998,180.2563479999999,141.41015599999992,308.3334960000002,116.15380900000036
128,124.87158199999976,-47.435790999999426,97.56396500000028,70.64111300000059,91.15380900000036,107.30761700000039,204.61523400000078,141.2822270000006,138.3334960000002,152.3076170000004,152.6923829999996,139.87158199999976,305.89746099999957,116.9228520000006
129,126.0258789999998,-45.25634799999989,101.6665039999998,65.0,86.0258789999998,107.56396500000028,209.7436520000001,147.3076170000004,141.2822270000006,156.79492200000004,127.30761700000039,141.9228520000006,310.0,112.56396500000028
130,131.9228520000006,-42.051270000000386,109.87158199999976,65.25634799999989,83.3334960000002,110.64111300000059,214.87158199999976,153.58984400000008,145.6411130000006,166.6665039999998,109.74365200000011,148.3334960000002,317.82031300000017,111.2822270000006
131,139.7436520000001,-41.41015600000037,118.20507799999996,70.12841800000024,81.15380900000036,115.12841800000024,217.3076170000004,158.20507799999996,151.41015599999992,180.12841800000024,104.35888699999941,157.82031300000017,324.6152340000008,114.35888699999941
132,144.87158199999976,-44.74365200000011,122.69238299999961,75.89746099999957,77.17968800000017,119.35888699999941,217.05126999999993,160.0,157.17968800000017,192.56396500000028,107.30761700000039,166.15380900000036,326.0258789999998,114.61523400000078
133,142.56396500000028,-52.564209000000574,120.38476599999922,78.9741210000002,68.9741210000002,120.51269500000035,215.2563479999999,158.20507799999996,160.38476599999922,198.20507799999996,108.7177729999994,167.6923829999996,320.51269500000035,110.25634799999989
134,131.53857400000015,-64.35888699999987,112.05126999999993,78.58984400000008,56.53857400000015,117.05126999999993,212.3076170000004,152.43603499999972,158.58984400000008,193.84619099999964,99.10253900000043,159.7436520000001,310.3847659999992,108.84619099999964
135,115.76904300000024,-76.92309599999999,101.79492200000004,77.56396500000028,44.102539000000434,111.2822270000006,208.84619099999964,145.0,151.41015599999992,182.05126999999993,79.10253900000043,146.15380900000036,300.76904300000024,112.94873000000007
136,102.69238299999961,-86.28198199999997,94.74365200000011,77.82031300000017,36.9228520000006,107.94873000000007,206.41015599999992,139.87158199999976,142.56396500000028,169.7436520000001,58.46142599999985,135.0,295.6411130000006,115.64111300000059
137,97.05126999999993,-90.38452099999995,93.58984400000008,77.82031300000017,36.666503999999804,109.10253900000043,206.6665039999998,140.2563479999999,137.43603499999972,163.58984400000008,47.43603499999972,131.9228520000006,295.3847659999992,112.30761700000039
138,98.46142599999985,-89.48706099999981,96.9228520000006,75.38476599999922,40.64111300000059,113.20507799999996,209.61523400000078,145.6411130000006,138.84619099999964,166.41015599999992,48.974121000000196,137.05126999999993,297.5639650000003,109.48730499999965
139,102.69238299999961,-85.0,101.2822270000006,71.79492200000004,45.51269500000035,117.43603499999972,213.58984400000008,152.94873000000007,145.51269500000035,175.89746099999957,57.30761700000039,145.38476599999922,300.89746099999957,112.30761700000039
140,105.0,-80.51293900000019,103.46142599999985,71.79492200000004,49.23095699999976,120.25634799999989,216.2822270000006,159.23095699999976,153.20507799999996,186.6665039999998,63.333496000000196,150.6411130000006,304.3588869999994,115.51269500000035
141,101.6665039999998,-81.15380900000036,102.17968800000017,76.6665039999998,50.0,121.2822270000006,216.41015599999992,162.17968800000017,158.3334960000002,193.46142599999985,61.79492200000004,149.48730499999965,305.2563479999999,113.3334960000002
142,93.58984400000008,-89.61547900000005,98.9741210000002,82.30761700000039,47.56396500000028,120.38476599999922,214.3588869999994,161.53857400000015,159.7436520000001,194.3588869999994,55.25634799999989,143.7177729999994,300.2563479999999,110.64111300000059
143,85.89746099999957,-101.53857400000015,97.56396500000028,83.58984400000008,43.589844000000085,118.84619099999964,212.05126999999993,159.3588869999994,158.84619099999964,191.6665039999998,50.64111300000059,139.3588869999994,289.10253900000043,113.58984400000008
144,84.61523400000078,-107.69238299999961,99.74365200000011,80.12841800000024,41.53857400000015,118.9741210000002,211.15380900000036,158.20507799999996,158.0771479999994,189.7436520000001,51.410155999999915,140.76904300000024,276.0258789999998,117.43603499999972
145,90.0,-102.94872999999961,104.23095699999976,76.15380900000036,42.43603499999972,120.89746099999957,212.3076170000004,158.84619099999964,157.94873000000007,189.48730499999965,52.56396500000028,146.0258789999998,265.76904300000024,114.74365200000011
146,95.25634799999989,-92.17944299999999,106.2822270000006,76.79492200000004,43.0771479999994,122.43603499999972,213.84619099999964,158.7177729999994,157.05126999999993,188.7177729999994,45.25634799999989,147.94873000000007,258.46142599999985,109.10253900000043
147,93.9741210000002,-84.61547900000005,103.46142599999985,84.35888699999941,40.25634799999989,121.15380900000036,213.7177729999994,156.0258789999998,153.7177729999994,184.23095699999976,26.538574000000153,141.53857400000015,249.48730499999965,109.10253900000043
148,86.15380900000036,-84.8718259999996,96.41015599999992,97.69238299999961,34.87158199999976,117.82031300000017,210.51269500000035,151.2822270000006,148.3334960000002,176.41015599999992,4.102539000000434,128.7177729999994,235.76904300000024,113.3334960000002
149,77.82031300000017,-89.10253899999998,89.10253900000043,112.82031300000017,30.897460999999566,115.25634799999989,204.7436520000001,147.43603499999972,144.10253900000043,169.23095699999976,-11.025634999999966,116.6665039999998,218.7177729999994,113.0771479999994
150,75.12841800000024,-89.35888699999987,84.87158199999976,125.25634799999989,30.769043000000238,114.48730499999965,197.56396500000028,146.0258789999998,143.7177729999994,166.6665039999998,-14.102538999999979,111.79492200000004,202.3076170000004,108.3334960000002
151,79.23095699999976,-81.15380900000036,84.74365200000011,133.0771479999994,33.333496000000196,114.61523400000078,190.12841800000024,146.41015599999992,147.05126999999993,169.61523400000078,-10.256347999999889,114.10253900000043,189.87158199999976,107.56396500000028
152,87.30761700000039,-65.89746100000002,87.43603499999972,138.84619099999964,35.897460999999566,114.74365200000011,184.10253900000043,146.53857400000015,150.76904300000024,174.48730499999965,-7.692382999999609,118.84619099999964,182.05126999999993,112.30761700000039
153,94.10253900000043,-50.25634799999989,90.25634799999989,145.38476599999922,35.64111300000059,115.0,180.6411130000006,145.12841800000024,150.76904300000024,176.0258789999998,-11.025634999999966,120.12841800000024,175.51269500000035,114.61523400000078
154,94.74365200000011,-42.051270000000386,90.51269500000035,152.3076170000004,30.51269500000035,115.12841800000024,180.6411130000006,141.9228520000006,145.76904300000024,170.2563479999999,-19.8718259999996,115.38476599999922,165.51269500000035,111.6665039999998
155,88.7177729999994,-44.23071300000038,87.69238299999961,156.15380900000036,20.384765999999217,115.12841800000024,183.3334960000002,138.58984400000008,138.20507799999996,158.58984400000008,-30.25634799999989,106.6665039999998,150.12841800000024,110.0
156,80.89746099999957,-51.79492200000004,83.46142599999985,155.76904300000024,8.589844000000085,115.25634799999989,187.05126999999993,136.79492200000004,132.3076170000004,146.6665039999998,-38.58984399999963,98.84619099999964,133.3334960000002,112.94873000000007
157,76.9228520000006,-55.89746100000002,80.0,153.58984400000008,-0.256347999999889,116.15380900000036,189.61523400000078,137.3076170000004,130.76904300000024,139.87158199999976,-45.1281740000004,95.0,121.0258789999998,114.10253900000043
158,77.17968800000017,-52.564209000000574,77.94873000000007,152.3076170000004,-4.871825999999601,116.9228520000006,189.7436520000001,138.46142599999985,132.43603499999972,138.20507799999996,-53.07690400000001,93.20507799999996,114.74365200000011,110.0
159,77.30761700000039,-44.8718259999996,77.17968800000017,152.43603499999972,-6.666747999999643,115.76904300000024,187.17968800000017,137.56396500000028,133.46142599999985,137.82031300000017,-64.23071300000038,89.87158199999976,110.12841800000024,107.17968800000017
160,74.23095699999976,-38.71801800000003,77.56396500000028,153.20507799999996,-7.307617000000391,112.94873000000007,183.84619099999964,134.10253900000043,131.2822270000006,135.38476599999922,-74.74365200000011,84.35888699999941,102.69238299999961,110.38476599999922
161,70.51269500000035,-35.76928699999962,79.61523400000078,153.46142599999985,-6.153809000000365,110.89746099999957,181.9228520000006,130.76904300000024,127.05126999999993,131.15380900000036,-78.07690400000001,80.64111300000059,92.94873000000007,113.3334960000002
162,70.0,-34.23071300000038,83.3334960000002,152.94873000000007,-2.8203119999998307,111.41015599999992,181.79492200000004,130.2563479999999,123.58984400000008,128.7177729999994,-72.56420900000057,82.43603499999972,85.38476599999922,110.0
163,73.9741210000002,-31.538574000000153,87.56396500000028,151.41015599999992,0.512695000000349,113.46142599999985,182.3076170000004,132.43603499999972,122.69238299999961,130.2563479999999,-63.46142599999985,89.10253900000043,83.3334960000002,105.76904300000024
164,79.61523400000078,-25.512939000000188,90.0,149.3588869999994,1.6665039999998044,115.12841800000024,182.3076170000004,135.2563479999999,123.58984400000008,135.0,-57.435790999999426,95.89746099999957,85.38476599999922,107.82031300000017
165,84.10253900000043,-15.641113000000132,89.48730499999965,148.3334960000002,0.38476599999921746,115.64111300000059,181.15380900000036,136.2822270000006,124.23095699999976,139.3588869999994,-56.66674799999964,98.20507799999996,86.9228520000006,112.17968800000017
166,85.38476599999922,-3.717772999999397,86.53857400000015,150.2563479999999,-1.153809000000365,115.38476599999922,178.84619099999964,134.48730499999965,123.3334960000002,139.61523400000078,-58.71801800000003,94.74365200000011,83.20507799999996,111.2822270000006
167,83.0771479999994,5.897460999999566,82.82031300000017,155.76904300000024,-1.5385740000001533,113.84619099999964,174.48730499999965,129.87158199999976,121.41015599999992,134.48730499999965,-60.89746100000002,87.94873000000007,72.56396500000028,107.17968800000017
168,79.35888699999941,9.487304999999651,80.51269500000035,165.0,-0.769043000000238,111.2822270000006,168.3334960000002,123.7177729999994,119.61523400000078,126.15380900000036,-62.30761700000039,82.82031300000017,58.974121000000196,107.69238299999961
169,78.46142599999985,8.717772999999397,81.41015599999992,176.53857400000015,0.8974609999995664,109.48730499999965,162.6923829999996,118.58984400000008,118.9741210000002,119.61523400000078,-62.82055700000001,84.10253900000043,49.87158199999976,111.41015599999992
170,83.20507799999996,8.333496000000196,85.76904300000024,185.89746099999957,3.717772999999397,110.76904300000024,160.6411130000006,117.69238299999961,120.0,118.46142599999985,-62.051270000000386,92.30761700000039,49.61523400000078,111.0258789999998
171,90.76904300000024,12.051269999999931,91.41015599999992,187.6923829999996,6.282227000000603,115.0,163.0771479999994,121.0258789999998,121.53857400000015,122.69238299999961,-60.89746100000002,102.17968800000017,54.48730499999965,107.17968800000017
172,95.12841800000024,18.589844000000085,94.74365200000011,180.0,7.051269999999931,119.23095699999976,167.43603499999972,125.76904300000024,121.2822270000006,127.30761700000039,-61.41015600000037,106.6665039999998,56.666503999999804,107.43603499999972
173,92.94873000000007,24.102539000000434,93.46142599999985,167.43603499999972,6.025878999999804,121.15380900000036,170.0,128.46142599999985,118.46142599999985,127.82031300000017,-65.0,102.82031300000017,51.2822270000006,111.9228520000006
174,86.0258789999998,25.51269500000035,88.46142599999985,158.46142599999985,5.0,121.0258789999998,168.7177729999994,127.69238299999961,114.48730499999965,122.94873000000007,-70.64111300000013,93.9741210000002,41.025878999999804,111.9228520000006
175,79.48730499999965,22.17968800000017,82.82031300000017,157.6923829999996,5.0,119.48730499999965,164.48730499999965,124.35888699999941,111.79492200000004,115.64111300000059,-75.51293900000019,86.15380900000036,31.025878999999804,105.64111300000059
176,76.6665039999998,16.794922000000042,79.23095699999976,163.0771479999994,5.0,116.9228520000006,160.0,120.0,111.15380900000036,110.12841800000024,-76.79492200000004,83.58984400000008,24.102539000000434,101.79492200000004
177,78.0771479999994,14.358886999999413,78.58984400000008,168.3334960000002,3.9741210000001956,114.35888699999941,157.17968800000017,116.9228520000006,111.79492200000004,108.46142599999985,-73.58984399999963,85.89746099999957,20.897460999999566,104.48730499999965
178,81.6665039999998,19.230956999999762,80.51269500000035,167.94873000000007,3.077147999999397,113.3334960000002,156.79492200000004,116.79492200000004,112.56396500000028,110.38476599999922,-67.30761700000039,90.89746099999957,20.769043000000238,106.9228520000006
179,84.48730499999965,30.384765999999217,83.3334960000002,160.76904300000024,3.846190999999635,114.74365200000011,157.94873000000007,119.23095699999976,112.82031300000017,113.7177729999994,-61.41015600000037,95.76904300000024,22.69238299999961,104.61523400000078
180,84.23095699999976,40.897460999999566,85.51269500000035,151.15380900000036,6.666503999999804,116.53857400000015,158.46142599999985,122.17968800000017,112.30761700000039,115.25634799999989,-60.1281740000004,98.7177729999994,23.846190999999635,103.58984400000008
181,81.6665039999998,44.35888699999941,86.79492200000004,146.0258789999998,10.384765999999217,117.17968800000017,157.05126999999993,123.46142599999985,111.6665039999998,113.7177729999994,-64.48706099999981,99.48730499999965,21.922852000000603,108.0771479999994
182,80.64111300000059,41.53857400000015,88.20507799999996,149.23095699999976,14.871581999999762,116.9228520000006,153.9741210000002,123.3334960000002,111.41015599999992,111.0258789999998,-70.38452099999995,99.61523400000078,17.82031300000017,111.0258789999998
183,83.7177729999994,38.333496000000196,90.76904300000024,158.46142599999985,20.51269500000035,117.05126999999993,150.2563479999999,122.94873000000007,111.6665039999998,109.87158199999976,-72.17944299999999,100.51269500000035,14.743652000000111,106.79492200000004
184,89.61523400000078,40.0,93.3334960000002,166.2822270000006,26.410155999999915,117.43603499999972,146.2822270000006,122.56396500000028,112.30761700000039,111.41015599999992,-67.17944299999999,102.56396500000028,13.974121000000196,101.9228520000006
185,94.10253900000043,46.53857400000015,93.84619099999964,167.05126999999993,30.641113000000587,116.9228520000006,142.17968800000017,120.89746099999957,112.56396500000028,113.46142599999985,-58.58984399999963,103.9741210000002,14.102539000000434,105.0
186,93.46142599999985,53.846190999999635,91.0258789999998,160.12841800000024,32.69238299999961,116.2822270000006,138.3334960000002,117.69238299999961,112.56396500000028,113.0771479999994,-52.17944299999999,102.94873000000007,13.974121000000196,112.05126999999993
187,87.43603499999972,57.17968800000017,85.76904300000024,149.23095699999976,33.333496000000196,117.17968800000017,136.2822270000006,114.10253900000043,112.05126999999993,108.84619099999964,-52.30761700000039,98.84619099999964,12.43603499999972,112.94873000000007
188,77.94873000000007,54.61523400000078,79.87158199999976,139.10253900000043,33.589844000000085,119.23095699999976,136.6665039999998,111.41015599999992,110.12841800000024,101.9228520000006,-59.35888699999987,92.43603499999972,8.717772999999397,108.20507799999996
189,67.94873000000007,48.846190999999635,74.74365200000011,132.05126999999993,33.333496000000196,120.38476599999922,137.56396500000028,110.0,106.41015599999992,94.74365200000011,-70.38452099999995,84.74365200000011,2.1796880000001693,106.53857400000015
190,60.38476599999922,45.897460999999566,71.0258789999998,127.94873000000007,33.0771479999994,118.84619099999964,136.53857400000015,109.74365200000011,101.53857400000015,89.48730499999965,-79.8718259999996,77.30761700000039,-5.38452099999995,108.84619099999964
191,57.69238299999961,50.12841800000024,69.48730499999965,124.87158199999976,34.23095699999976,115.76904300000024,132.3076170000004,110.51269500000035,97.56396500000028,87.05126999999993,-82.82055700000001,72.05126999999993,-10.256347999999889,108.3334960000002
192,59.48730499999965,58.846190999999635,70.0,121.79492200000004,36.9228520000006,113.3334960000002,126.41015599999992,111.15380900000036,95.64111300000059,86.41015599999992,-78.58984399999963,70.64111300000059,-10.38452099999995,104.35888699999941
193,63.333496000000196,64.35888699999941,71.9228520000006,119.48730499999965,39.61523400000078,112.17968800000017,121.6665039999998,110.76904300000024,95.64111300000059,86.15380900000036,-70.25634799999989,73.20507799999996,-7.820557000000008,104.10253900000043
194,66.6665039999998,61.79492200000004,74.35888699999941,120.25634799999989,41.53857400000015,112.69238299999961,120.0,109.61523400000078,96.53857400000015,85.76904300000024,-62.051270000000386,77.82031300000017,-5.256347999999889,108.20507799999996
195,68.58984400000008,53.846190999999635,76.53857400000015,124.48730499999965,43.589844000000085,114.48730499999965,121.41015599999992,109.35888699999941,97.82031300000017,86.2822270000006,-55.76928699999962,82.30761700000039,-3.2050779999999577,108.58984400000008
196,69.10253900000043,47.43603499999972,77.94873000000007,129.3588869999994,46.79492200000004,116.41015599999992,123.9741210000002,111.0258789999998,99.35888699999941,88.58984400000008,-50.64111300000013,85.0,-0.6411130000005869,102.94873000000007
197,67.82031300000017,46.153809000000365,77.94873000000007,129.48730499999965,50.64111300000059,116.9228520000006,125.25634799999989,113.7177729999994,101.2822270000006,91.79492200000004,-46.28198199999997,85.25634799999989,2.8203130000001693,99.48730499999965
198,65.12841800000024,48.7177729999994,76.79492200000004,122.43603499999972,53.974121000000196,115.64111300000059,124.48730499999965,115.89746099999957,103.46142599999985,93.9741210000002,-41.92309599999999,84.23095699999976,5.769043000000238,103.20507799999996
199,63.0771479999994,52.82031300000017,76.2822270000006,112.43603499999972,57.05126999999993,114.23095699999976,122.82031300000017,117.17968800000017,105.89746099999957,95.12841800000024,-37.435790999999426,83.7177729999994,7.56396500000028,106.6665039999998
200,64.23095699999976,56.79492200000004,78.0771479999994,106.9228520000006,60.64111300000059,114.74365200000011,122.17968800000017,118.20507799999996,108.46142599999985,97.05126999999993,-33.33325200000036,84.74365200000011,8.589844000000085,103.9741210000002
201,67.82031300000017,60.897460999999566,81.9228520000006,109.61523400000078,64.35888699999941,116.9228520000006,122.69238299999961,119.10253900000043,110.89746099999957,100.64111300000059,-31.666747999999643,86.2822270000006,9.358886999999413,101.41015599999992
202,71.41015599999992,66.15380900000036,85.51269500000035,117.56396500000028,67.56396500000028,118.3334960000002,123.0771479999994,118.84619099999964,112.17968800000017,104.61523400000078,-33.20507799999996,86.79492200000004,11.153809000000365,105.51269500000035
203,73.0771479999994,72.94873000000007,86.79492200000004,124.61523400000078,70.12841800000024,117.69238299999961,121.6665039999998,117.94873000000007,112.05126999999993,106.79492200000004,-34.74365200000011,86.53857400000015,14.743652000000111,111.0258789999998
204,73.3334960000002,79.23095699999976,86.41015599999992,127.69238299999961,72.69238299999961,114.87158199999976,118.3334960000002,117.69238299999961,110.76904300000024,106.0258789999998,-32.17944299999999,87.56396500000028,19.48730499999965,109.74365200000011
205,73.0771479999994,80.89746099999957,86.41015599999992,127.82031300000017,74.87158199999976,110.76904300000024,114.10253900000043,118.58984400000008,109.48730499999965,102.94873000000007,-25.38452099999995,91.15380900000036,22.82031300000017,105.0
206,72.69238299999961,75.38476599999922,87.69238299999961,127.69238299999961,75.76904300000024,107.17968800000017,109.87158199999976,119.61523400000078,109.35888699999941,99.87158199999976,-18.846190999999635,96.15380900000036,21.922852000000603,105.0
207,72.94873000000007,66.0258789999998,89.23095699999976,128.84619099999964,75.25634799999989,105.51269500000035,106.6665039999998,119.48730499999965,110.51269500000035,98.3334960000002,-16.794922000000042,99.61523400000078,17.43603499999972,108.7177729999994
208,73.9741210000002,59.23095699999976,89.87158199999976,128.7177729999994,73.7177729999994,106.53857400000015,105.51269500000035,117.69238299999961,111.9228520000006,98.20507799999996,-18.974365000000034,99.61523400000078,12.82031300000017,108.58984400000008
209,74.23095699999976,58.846190999999635,89.10253900000043,123.46142599999985,71.53857400000015,108.7177729999994,106.53857400000015,114.48730499999965,111.41015599999992,98.20507799999996,-21.538574000000153,96.41015599999992,10.769043000000238,105.64111300000059
210,71.9228520000006,61.410155999999915,87.43603499999972,111.6665039999998,69.23095699999976,109.74365200000011,108.58984400000008,110.51269500000035,108.0771479999994,96.41015599999992,-20.89746100000002,91.53857400000015,11.153809000000365,107.05126999999993
211,67.56396500000028,61.53857400000015,85.38476599999922,98.84619099999964,68.46142599999985,109.23095699999976,110.0,107.56396500000028,102.82031300000017,93.0771479999994,-16.923095999999987,88.46142599999985,12.692382999999609,112.05126999999993
212,63.589844000000085,57.43603499999972,84.61523400000078,93.7177729999994,71.15380900000036,108.46142599999985,109.74365200000011,107.30761700000039,97.94873000000007,90.0,-11.41015600000037,89.35888699999941,14.230956999999762,111.41015599999992
213,62.17968800000017,53.46142599999985,85.38476599999922,100.0,76.15380900000036,108.58984400000008,107.56396500000028,110.12841800000024,96.15380900000036,88.84619099999964,-7.435790999999426,93.46142599999985,14.871581999999762,104.23095699999976
214,62.69238299999961,54.102539000000434,86.6665039999998,112.69238299999961,80.25634799999989,108.9741210000002,104.10253900000043,112.82031300000017,97.17968800000017,89.35888699999941,-6.666747999999643,96.79492200000004,14.230956999999762,100.38476599999922
215,63.846190999999635,60.0,86.41015599999992,122.30761700000039,80.51269500000035,108.58984400000008,100.25634799999989,112.05126999999993,99.10253900000043,89.87158199999976,-7.820557000000008,96.53857400000015,13.461425999999847,104.48730499999965
216,66.0258789999998,66.9228520000006,85.12841800000024,122.30761700000039,77.94873000000007,107.94873000000007,96.9228520000006,107.43603499999972,100.0,89.61523400000078,-7.692382999999609,94.10253900000043,14.230956999999762,108.3334960000002
217,70.25634799999989,70.51269500000035,85.76904300000024,113.3334960000002,75.64111300000059,108.3334960000002,95.0,102.17968800000017,100.0,89.35888699999941,-3.846190999999635,93.3334960000002,18.077147999999397,106.6665039999998
218,75.89746099999957,69.87158199999976,90.51269500000035,101.53857400000015,76.9228520000006,109.61523400000078,95.38476599999922,99.87158199999976,100.64111300000059,91.41015599999992,3.2050779999999577,96.79492200000004,23.974121000000196,105.64111300000059
219,80.89746099999957,68.9741210000002,97.94873000000007,94.35888699999941,82.69238299999961,111.79492200000004,98.20507799999996,102.30761700000039,103.20507799999996,96.41015599999992,11.410155999999915,103.20507799999996,30.0,109.87158199999976
220,83.7177729999994,72.17968800000017,103.7177729999994,95.64111300000059,91.2822270000006,115.12841800000024,103.0771479999994,108.0771479999994,107.05126999999993,102.82031300000017,18.589844000000085,109.10253900000043,34.61523400000078,112.43603499999972
221,83.58984400000008,78.7177729999994,104.23095699999976,103.20507799999996,98.46142599999985,118.46142599999985,108.20507799999996,113.7177729999994,109.23095699999976,106.53857400000015,22.69238299999961,111.0258789999998,36.025878999999804,106.79492200000004
222,79.87158199999976,82.43603499999972,99.10253900000043,109.61523400000078,99.48730499999965,119.10253900000043,110.51269500000035,115.0,107.05126999999993,104.23095699999976,22.05126999999993,107.43603499999972,32.69238299999961,99.74365200000011
223,73.7177729999994,77.69238299999961,91.2822270000006,109.10253900000043,92.94873000000007,115.38476599999922,107.94873000000007,110.0,101.2822270000006,96.6665039999998,17.56396500000028,99.61523400000078,25.25634799999989,101.0258789999998
224,68.0771479999994,65.89746099999957,85.0,101.9228520000006,83.84619099999964,110.0,101.79492200000004,101.53857400000015,95.51269500000035,88.7177729999994,12.56396500000028,91.0258789999998,17.56396500000028,107.56396500000028
225,66.0258789999998,54.87158199999976,82.94873000000007,93.9741210000002,78.58984400000008,106.9228520000006,95.76904300000024,95.0,93.3334960000002,85.12841800000024,10.0,85.38476599999922,14.358886999999413,109.35888699999941
226,66.9228520000006,51.025878999999804,84.23095699999976,91.0258789999998,79.23095699999976,108.0771479999994,93.3334960000002,93.9741210000002,95.51269500000035,86.79492200000004,9.871581999999762,83.20507799999996,16.410155999999915,107.05126999999993
227,68.3334960000002,54.87158199999976,85.38476599999922,95.25634799999989,83.0771479999994,111.2822270000006,94.61523400000078,98.46142599999985,99.48730499999965,91.53857400000015,10.769043000000238,83.0771479999994,20.641113000000587,107.69238299999961
228,68.9741210000002,62.17968800000017,84.23095699999976,105.51269500000035,85.89746099999957,114.23095699999976,97.43603499999972,105.51269500000035,102.56396500000028,95.89746099999957,11.794922000000042,83.20507799999996,23.974121000000196,111.0258789999998
229,69.87158199999976,68.20507799999996,81.53857400000015,117.69238299999961,86.9228520000006,116.0258789999998,99.23095699999976,111.6665039999998,104.10253900000043,97.94873000000007,13.589844000000085,83.20507799999996,25.25634799999989,109.35888699999941
230,71.0258789999998,70.64111300000059,80.0,124.48730499999965,86.53857400000015,117.05126999999993,98.58984400000008,113.9741210000002,104.87158199999976,97.30761700000039,16.153809000000365,82.82031300000017,24.230956999999762,103.0771479999994
231,70.38476599999922,69.10253900000043,80.12841800000024,119.23095699999976,84.48730499999965,116.53857400000015,96.0258789999998,111.15380900000036,105.12841800000024,94.61523400000078,18.077147999999397,81.41015599999992,20.641113000000587,101.9228520000006
232,66.15380900000036,65.0,80.12841800000024,100.89746099999957,80.51269500000035,114.48730499999965,92.94873000000007,105.0,103.46142599999985,90.76904300000024,18.077147999999397,77.94873000000007,16.025878999999804,107.30761700000039
233,60.25634799999989,60.51269500000035,78.58984400000008,77.69238299999961,75.89746099999957,112.56396500000028,91.15380900000036,98.7177729999994,99.61523400000078,87.43603499999972,16.282227000000603,73.46142599999985,13.461425999999847,109.87158199999976
234,57.30761700000039,56.79492200000004,76.2822270000006,62.94873000000007,72.43603499999972,112.69238299999961,91.6665039999998,96.15380900000036,95.38476599999922,85.76904300000024,14.615234000000783,70.76904300000024,15.512695000000349,105.64111300000059
235,60.64111300000059,54.48730499999965,76.2822270000006,66.0258789999998,71.6665039999998,115.0,94.10253900000043,98.46142599999985,93.58984400000008,86.6665039999998,14.871581999999762,72.69238299999961,21.666503999999804,102.56396500000028
236,70.51269500000035,56.2822270000006,81.0258789999998,84.87158199999976,74.10253900000043,118.7177729999994,97.69238299999961,104.87158199999976,96.15380900000036,90.76904300000024,18.717772999999397,80.12841800000024,29.74365200000011,106.15380900000036
237,83.7177729999994,65.12841800000024,89.74365200000011,108.58984400000008,80.89746099999957,123.46142599999985,102.05126999999993,113.3334960000002,102.43603499999972,98.0771479999994,26.025878999999804,90.76904300000024,38.20507799999996,109.87158199999976
238,94.48730499999965,79.48730499999965,99.10253900000043,124.23095699999976,91.0258789999998,127.94873000000007,106.9228520000006,121.15380900000036,109.74365200000011,106.6665039999998,34.87158199999976,100.51269500000035,45.76904300000024,107.69238299999961
239,97.69238299999961,90.89746099999957,104.74365200000011,125.25634799999989,100.25634799999989,130.0,110.76904300000024,124.74365200000011,114.35888699999941,112.30761700000039,41.410155999999915,105.25634799999989,49.74365200000011,105.12841800000024
240,91.53857400000015,91.15380900000036,103.58984400000008,114.74365200000011,103.7177729999994,128.3334960000002,111.15380900000036,122.56396500000028,113.84619099999964,111.6665039999998,42.56396500000028,102.94873000000007,47.17968800000017,108.20507799999996
241,80.64111300000059,80.76904300000024,96.79492200000004,103.46142599999985,100.76904300000024,124.61523400000078,107.69238299999961,116.9228520000006,109.35888699999941,105.38476599999922,40.0,95.51269500000035,39.23095699999976,111.6665039999998
242,72.17968800000017,68.46142599999985,88.84619099999964,100.64111300000059,95.51269500000035,121.9228520000006,102.56396500000028,112.69238299999961,104.48730499999965,98.3334960000002,37.43603499999972,87.30761700000039,30.51269500000035,108.20507799999996
243,69.61523400000078,62.43603499999972,83.84619099999964,106.2822270000006,91.79492200000004,121.53857400000015,99.23095699999976,112.05126999999993,101.9228520000006,94.61523400000078,36.666503999999804,81.6665039999998,24.74365200000011,102.43603499999972
244,70.89746099999957,63.7177729999994,82.69238299999961,112.17968800000017,89.61523400000078,121.79492200000004,98.9741210000002,113.58984400000008,102.05126999999993,94.74365200000011,35.51269500000035,79.10253900000043,22.82031300000017,104.10253900000043
245,72.30761700000039,67.43603499999972,84.10253900000043,111.41015599999992,87.56396500000028,121.53857400000015,100.89746099999957,114.23095699999976,103.20507799999996,96.79492200000004,31.410155999999915,78.46142599999985,24.230956999999762,110.76904300000024
246,72.56396500000028,68.7177729999994,86.15380900000036,103.58984400000008,85.76904300000024,121.2822270000006,102.82031300000017,112.94873000000007,104.23095699999976,98.9741210000002,25.641113000000587,78.9741210000002,28.333496000000196,112.43603499999972
247,71.9228520000006,66.2822270000006,87.69238299999961,93.84619099999964,85.25634799999989,121.9228520000006,103.84619099999964,110.51269500000035,105.12841800000024,100.12841800000024,22.82031300000017,80.51269500000035,34.23095699999976,107.82031300000017
248,71.0258789999998,62.30761700000039,88.0771479999994,87.56396500000028,86.53857400000015,123.3334960000002,103.7177729999994,108.46142599999985,105.89746099999957,100.25634799999989,26.282227000000603,82.82031300000017,39.35888699999941,105.25634799999989
249,71.0258789999998,60.897460999999566,86.9228520000006,87.05126999999993,89.23095699999976,125.25634799999989,102.94873000000007,108.0771479999994,106.53857400000015,100.0,35.64111300000059,86.15380900000036,41.9228520000006,107.05126999999993
250,74.10253900000043,65.38476599999922,86.15380900000036,90.89746099999957,92.82031300000017,128.20507799999996,102.82031300000017,110.51269500000035,107.17968800000017,100.89746099999957,47.82031300000017,90.89746099999957,43.20507799999996,106.6665039999998
251,81.2822270000006,74.48730499999965,87.82031300000017,95.76904300000024,95.76904300000024,131.6665039999998,103.7177729999994,115.64111300000059,108.20507799999996,104.23095699999976,58.0771479999994,96.6665039999998,45.76904300000024,102.82031300000017
252,89.87158199999976,82.56396500000028,92.30761700000039,98.84619099999964,96.15380900000036,133.84619099999964,105.0,121.15380900000036,109.87158199999976,109.61523400000078,62.69238299999961,102.17968800000017,50.64111300000059,103.46142599999985
253,96.53857400000015,85.25634799999989,97.94873000000007,100.89746099999957,94.10253900000043,133.58984400000008,105.64111300000059,124.35888699999941,112.69238299999961,115.25634799999989,61.410155999999915,105.76904300000024,56.666503999999804,110.25634799999989
254,100.0,82.56396500000028,102.69238299999961,105.25634799999989,92.17968800000017,132.05126999999993,105.76904300000024,125.51269500000035,116.41015599999992,120.12841800000024,57.82031300000017,107.43603499999972,62.56396500000028,113.58984400000008
255,101.9228520000006,78.84619099999964,105.89746099999957,113.3334960000002,92.82031300000017,130.89746099999957,106.53857400000015,127.05126999999993,119.74365200000011,123.9741210000002,56.153809000000365,109.10253900000043,67.56396500000028,108.3334960000002
256,103.58984400000008,78.58984400000008,108.46142599999985,121.15380900000036,95.51269500000035,130.51269500000035,108.20507799999996,129.61523400000078,121.41015599999992,126.41015599999992,57.94873000000007,112.30761700000039,70.51269500000035,103.0771479999994
257,105.25634799999989,83.3334960000002,111.2822270000006,122.17968800000017,97.56396500000028,130.0,110.0,132.17968800000017,121.2822270000006,127.43603499999972,62.05126999999993,116.6665039999998,71.0258789999998,105.51269500000035
258,106.41015599999992,90.38476599999922,114.61523400000078,114.74365200000011,97.17968800000017,129.23095699999976,110.12841800000024,132.94873000000007,119.87158199999976,126.53857400000015,67.30761700000039,120.64111300000059,70.64111300000059,109.74365200000011
259,106.41015599999992,95.12841800000024,117.17968800000017,104.74365200000011,94.48730499999965,127.94873000000007,107.56396500000028,130.76904300000024,117.17968800000017,123.58984400000008,72.05126999999993,122.17968800000017,70.76904300000024,107.82031300000017
260,104.10253900000043,92.82031300000017,116.6665039999998,100.89746099999957,90.0,125.38476599999922,102.69238299999961,125.51269500000035,112.69238299999961,118.3334960000002,73.9741210000002,120.0,70.89746099999957,103.46142599999985
261,98.46142599999985,82.43603499999972,111.79492200000004,106.2822270000006,85.64111300000059,120.76904300000024,97.05126999999993,118.20507799999996,106.9228520000006,111.79492200000004,70.89746099999957,113.7177729999994,68.46142599999985,105.38476599999922
262,90.64111300000059,68.20507799999996,104.23095699999976,115.38476599999922,83.3334960000002,116.53857400000015,93.46142599999985,111.9228520000006,101.6665039999998,105.38476599999922,63.0771479999994,105.64111300000059,62.94873000000007,110.51269500000035
263,83.7177729999994,56.666503999999804,97.43603499999972,117.69238299999961,84.35888699999941,115.51269500000035,93.3334960000002,109.10253900000043,98.58984400000008,100.25634799999989,53.333496000000196,99.23095699999976,55.64111300000059,110.25634799999989
264,79.48730499999965,52.30761700000039,94.48730499999965,107.17968800000017,86.79492200000004,117.82031300000017,95.12841800000024,109.35888699999941,97.82031300000017,96.53857400000015,44.48730499999965,95.89746099999957,48.846190999999635,105.51269500000035
265,78.0771479999994,54.61523400000078,95.12841800000024,87.82031300000017,87.94873000000007,120.0,96.2822270000006,110.12841800000024,98.0771479999994,93.9741210000002,38.589844000000085,95.0,44.48730499999965,104.87158199999976
266,78.7177729999994,59.48730499999965,96.53857400000015,70.64111300000059,86.15380900000036,119.23095699999976,95.38476599999922,109.35888699999941,98.3334960000002,92.82031300000017,37.56396500000028,95.0,44.23095699999976,108.3334960000002
267,80.51269500000035,62.94873000000007,96.0258789999998,65.25634799999989,82.82031300000017,115.12841800000024,92.82031300000017,107.17968800000017,98.20507799999996,93.46142599999985,42.69238299999961,95.51269500000035,47.82031300000017,108.0771479999994
268,81.2822270000006,63.0771479999994,93.20507799999996,72.94873000000007,79.74365200000011,109.74365200000011,89.87158199999976,105.0,98.3334960000002,95.51269500000035,52.30761700000039,96.15380900000036,52.69238299999961,103.7177729999994
269,80.12841800000024,61.666503999999804,90.0,86.9228520000006,78.46142599999985,105.0,87.43603499999972,103.9741210000002,99.23095699999976,97.69238299999961,62.56396500000028,96.9228520000006,54.87158199999976,103.58984400000008
270,78.7177729999994,62.43603499999972,89.48730499999965,98.9741210000002,79.48730499999965,102.94873000000007,86.15380900000036,105.38476599999922,101.41015599999992,100.25634799999989,69.87158199999976,97.94873000000007,53.7177729999994,109.35888699999941
271,80.12841800000024,67.56396500000028,93.58984400000008,105.38476599999922,83.20507799999996,104.74365200000011,86.79492200000004,109.48730499999965,104.23095699999976,103.46142599999985,73.3334960000002,100.12841800000024,53.20507799999996,111.9228520000006
272,85.51269500000035,73.46142599999985,101.2822270000006,108.3334960000002,87.69238299999961,108.9741210000002,88.7177729999994,113.9741210000002,106.41015599999992,106.9228520000006,73.84619099999964,104.23095699999976,56.410155999999915,106.79492200000004
273,92.43603499999972,74.48730499999965,109.61523400000078,112.05126999999993,90.0,112.43603499999972,90.38476599999922,116.15380900000036,106.9228520000006,109.74365200000011,72.43603499999972,109.87158199999976,61.9228520000006,102.69238299999961
274,97.82031300000017,70.51269500000035,115.12841800000024,117.17968800000017,89.48730499999965,113.3334960000002,90.38476599999922,115.51269500000035,106.6665039999998,112.05126999999993,70.51269500000035,116.0258789999998,67.17968800000017,105.51269500000035
275,101.15380900000036,68.46142599999985,117.05126999999993,121.2822270000006,88.84619099999964,113.20507799999996,88.9741210000002,114.61523400000078,107.82031300000017,115.51269500000035,70.0,122.43603499999972,71.15380900000036,108.7177729999994
276,103.3334960000002,75.38476599999922,116.53857400000015,120.64111300000059,91.79492200000004,114.10253900000043,87.69238299999961,116.0258789999998,111.79492200000004,120.76904300000024,72.56396500000028,128.0771479999994,74.23095699999976,105.76904300000024
277,104.10253900000043,89.35888699999941,115.25634799999989,113.0771479999994,97.56396500000028,115.89746099999957,87.56396500000028,119.61523400000078,117.43603499999972,125.76904300000024,77.30761700000039,131.0258789999998,75.25634799999989,102.05126999999993
278,102.82031300000017,100.51269500000035,114.10253900000043,100.38476599999922,102.69238299999961,116.41015599999992,88.46142599999985,122.69238299999961,121.41015599999992,127.17968800000017,81.2822270000006,130.0,72.56396500000028,105.25634799999989
279,99.74365200000011,101.6665039999998,112.82031300000017,88.0771479999994,104.10253900000043,115.0,89.74365200000011,123.20507799999996,121.41015599999992,124.23095699999976,82.56396500000028,125.89746099999957,67.30761700000039,111.41015599999992
280,96.53857400000015,93.58984400000008,111.53857400000015,81.6665039999998,101.79492200000004,112.82031300000017,90.64111300000059,120.38476599999922,117.43603499999972,119.10253900000043,80.89746099999957,121.53857400000015,62.30761700000039,111.53857400000015
281,93.46142599999985,81.79492200000004,109.87158199999976,83.46142599999985,96.9228520000006,111.0258789999998,89.61523400000078,114.74365200000011,111.9228520000006,113.84619099999964,76.2822270000006,118.20507799999996,58.974121000000196,107.56396500000028
282,89.74365200000011,71.41015599999992,107.17968800000017,91.6665039999998,90.89746099999957,109.10253900000043,86.15380900000036,108.0771479999994,106.6665039999998,108.84619099999964,68.9741210000002,115.0,55.897460999999566,107.30761700000039
283,85.89746099999957,65.76904300000024,102.94873000000007,103.84619099999964,86.41015599999992,106.9228520000006,80.89746099999957,102.30761700000039,102.43603499999972,103.9741210000002,60.25634799999989,110.64111300000059,51.53857400000015,110.0
284,83.0771479999994,65.51269500000035,98.20507799999996,116.79492200000004,85.89746099999957,105.51269500000035,76.9228520000006,99.74365200000011,100.12841800000024,100.0,53.0771479999994,105.38476599999922,47.56396500000028,108.7177729999994
285,81.41015599999992,68.58984400000008,94.74365200000011,124.87158199999976,89.23095699999976,106.0258789999998,76.2822270000006,101.0258789999998,100.0,98.20507799999996,50.64111300000059,101.2822270000006,46.025878999999804,104.35888699999941
286,79.48730499999965,71.6665039999998,93.9741210000002,123.20507799999996,93.58984400000008,107.82031300000017,78.84619099999964,104.23095699999976,101.15380900000036,98.58984400000008,54.102539000000434,99.74365200000011,46.2822270000006,105.38476599999922
287,77.43603499999972,73.20507799999996,95.51269500000035,112.05126999999993,96.41015599999992,109.61523400000078,81.6665039999998,106.2822270000006,102.05126999999993,99.74365200000011,61.79492200000004,101.0258789999998,46.410155999999915,111.53857400000015
288,77.05126999999993,74.74365200000011,98.0771479999994,97.69238299999961,97.94873000000007,111.0258789999998,82.05126999999993,105.64111300000059,101.6665039999998,100.0,70.0,104.10253900000043,45.12841800000024,112.43603499999972
289,79.23095699999976,77.56396500000028,100.12841800000024,87.17968800000017,98.9741210000002,111.41015599999992,79.87158199999976,102.30761700000039,99.61523400000078,98.9741210000002,73.9741210000002,107.17968800000017,42.30761700000039,105.51269500000035
290,81.53857400000015,79.23095699999976,100.51269500000035,84.74365200000011,98.58984400000008,109.87158199999976,77.17968800000017,97.69238299999961,96.53857400000015,96.53857400000015,70.76904300000024,108.20507799999996,39.48730499999965,100.89746099999957
291,81.2822270000006,76.6665039999998,98.9741210000002,90.25634799999989,96.0258789999998,106.2822270000006,76.41015599999992,93.84619099999964,93.7177729999994,93.84619099999964,62.30761700000039,106.2822270000006,38.0771479999994,104.74365200000011
292,78.46142599999985,70.12841800000024,96.79492200000004,99.61523400000078,92.05126999999993,102.94873000000007,79.10253900000043,92.82031300000017,92.94873000000007,92.43603499999972,54.61523400000078,102.56396500000028,40.38476599999922,109.61523400000078
293,76.2822270000006,63.333496000000196,96.15380900000036,107.17968800000017,89.48730499999965,102.17968800000017,84.87158199999976,95.51269500000035,95.12841800000024,94.35888699999941,52.82031300000017,100.12841800000024,47.69238299999961,108.46142599999985
294,77.56396500000028,60.0,98.20507799999996,108.0771479999994,89.48730499999965,103.7177729999994,90.89746099999957,100.12841800000024,99.87158199999976,99.23095699999976,57.69238299999961,100.38476599999922,57.82031300000017,106.53857400000015
295,82.17968800000017,62.69238299999961,101.79492200000004,103.20507799999996,91.79492200000004,105.76904300000024,93.9741210000002,103.0771479999994,104.61523400000078,104.10253900000043,65.76904300000024,103.0771479999994,65.89746099999957,109.87158199999976
296,88.84619099999964,72.69238299999961,105.12841800000024,98.84619099999964,95.64111300000059,107.17968800000017,92.43603499999972,103.0771479999994,107.30761700000039,106.15380900000036,73.46142599999985,106.6665039999998,67.56396500000028,112.94873000000007
297,95.12841800000024,87.69238299999961,107.43603499999972,101.15380900000036,100.0,107.82031300000017,88.0771479999994,101.0258789999998,107.43603499999972,105.0,78.7177729999994,110.64111300000059,62.82031300000017,108.84619099999964
298,99.35888699999941,101.41015599999992,109.61523400000078,111.15380900000036,102.69238299999961,107.69238299999961,83.9741210000002,99.23095699999976,106.2822270000006,102.17968800000017,80.25634799999989,114.48730499999965,55.64111300000059,103.0771479999994
299,100.51269500000035,106.0258789999998,111.6665039999998,124.61523400000078,101.79492200000004,106.41015599999992,82.30761700000039,99.10253900000043,105.25634799999989,100.12841800000024,78.3334960000002,117.17968800000017,52.05126999999993,104.61523400000078
300,99.74365200000011,99.23095699999976,113.20507799999996,135.6411130000006,98.7177729999994,104.61523400000078,83.0771479999994,100.64111300000059,105.12841800000024,100.38476599999922,75.38476599999922,117.30761700000039,55.12841800000024,110.51269500000035
301,98.58984400000008,86.53857400000015,113.20507799999996,138.0771479999994,97.05126999999993,103.7177729999994,84.10253900000043,102.94873000000007,105.64111300000059,102.94873000000007,74.23095699999976,115.0,63.20507799999996,110.76904300000024
302,97.05126999999993,75.89746099999957,111.53857400000015,128.3334960000002,98.46142599999985,103.84619099999964,83.84619099999964,104.48730499999965,106.0258789999998,106.15380900000036,75.25634799999989,111.41015599999992,70.89746099999957,105.76904300000024
303,93.58984400000008,72.43603499999972,107.30761700000039,108.7177729999994,100.76904300000024,103.9741210000002,81.79492200000004,103.7177729999994,106.0258789999998,107.56396500000028,76.15380900000036,107.94873000000007,73.3334960000002,104.87158199999976
304,87.17968800000017,76.2822270000006,100.51269500000035,88.9741210000002,100.64111300000059,103.3334960000002,78.84619099999964,100.64111300000059,105.25634799999989,106.0258789999998,74.74365200000011,104.35888699999941,70.0,108.9741210000002
305,79.87158199999976,82.56396500000028,93.0771479999994,80.89746099999957,97.69238299999961,102.30761700000039,76.41015599999992,96.9228520000006,104.35888699999941,102.43603499999972,71.79492200000004,100.25634799999989,63.20507799999996,109.23095699999976
306,74.87158199999976,86.2822270000006,88.58984400000008,88.58984400000008,93.7177729999994,101.9228520000006,75.25634799999989,94.35888699999941,103.20507799999996,98.0771479999994,68.7177729999994,95.25634799999989,55.897460999999566,104.10253900000043
307,73.58984400000008,85.89746099999957,88.7177729999994,103.3334960000002,91.2822270000006,101.6665039999998,75.0,92.94873000000007,101.9228520000006,94.87158199999976,66.6665039999998,90.51269500000035,50.0,102.17968800000017
308,76.0258789999998,85.0,92.82031300000017,111.6665039999998,91.9228520000006,101.79492200000004,75.25634799999989,92.43603499999972,100.25634799999989,94.35888699999941,66.0258789999998,88.7177729999994,47.82031300000017,106.79492200000004
309,81.0258789999998,86.79492200000004,98.3334960000002,107.05126999999993,95.12841800000024,103.3334960000002,76.15380900000036,93.0771479999994,98.84619099999964,96.6665039999998,67.30761700000039,91.53857400000015,51.153809000000365,109.48730499999965
310,85.89746099999957,88.84619099999964,102.05126999999993,94.74365200000011,97.43603499999972,105.25634799999989,77.05126999999993,94.35888699999941,98.20507799999996,99.23095699999976,68.9741210000002,97.17968800000017,57.43603499999972,105.25634799999989
311,86.53857400000015,84.10253900000043,101.6665039999998,85.64111300000059,94.87158199999976,105.51269500000035,76.79492200000004,93.9741210000002,98.20507799999996,98.46142599999985,68.20507799999996,101.15380900000036,60.897460999999566,101.41015599999992
312,81.53857400000015,70.64111300000059,96.6665039999998,87.17968800000017,87.30761700000039,102.69238299999961,74.48730499999965,90.38476599999922,97.05126999999993,93.0771479999994,62.82031300000017,98.7177729999994,56.79492200000004,104.74365200000011
313,74.35888699999941,56.666503999999804,88.84619099999964,98.9741210000002,80.76904300000024,99.61523400000078,71.15380900000036,85.12841800000024,94.61523400000078,85.89746099999957,54.87158199999976,90.38476599999922,47.94873000000007,109.23095699999976
314,70.64111300000059,53.974121000000196,82.43603499999972,114.10253900000043,81.79492200000004,100.0,69.23095699999976,82.17968800000017,92.17968800000017,81.6665039999998,49.23095699999976,81.6665039999998,41.666503999999804,107.56396500000028
315,73.58984400000008,66.41015599999992,81.53857400000015,122.94873000000007,90.76904300000024,104.87158199999976,70.25634799999989,84.10253900000043,91.9228520000006,82.94873000000007,49.87158199999976,78.7177729999994,43.20507799999996,104.10253900000043
316,81.53857400000015,86.41015599999992,86.2822270000006,120.25634799999989,102.05126999999993,111.41015599999992,73.46142599999985,89.23095699999976,95.0,88.7177729999994,56.666503999999804,84.10253900000043,52.17968800000017,106.41015599999992
317,90.12841800000024,101.9228520000006,93.58984400000008,109.23095699999976,108.58984400000008,116.15380900000036,76.2822270000006,93.9741210000002,100.25634799999989,95.76904300000024,66.2822270000006,94.61523400000078,63.589844000000085,110.38476599999922
318,95.0,105.12841800000024,99.48730499999965,99.10253900000043,107.56396500000028,117.30761700000039,76.41015599999992,95.89746099999957,104.74365200000011,100.12841800000024,74.35888699999941,104.10253900000043,70.25634799999989,108.0771479999994
319,93.9741210000002,97.17968800000017,102.30761700000039,96.15380900000036,101.41015599999992,115.0,73.7177729999994,94.48730499999965,106.2822270000006,100.12841800000024,77.43603499999972,107.56396500000028,67.94873000000007,102.56396500000028
320,88.9741210000002,85.51269500000035,102.43603499999972,99.74365200000011,95.64111300000059,111.15380900000036,70.51269500000035,91.2822270000006,104.48730499999965,97.43603499999972,75.76904300000024,105.25634799999989,58.20507799999996,103.3334960000002
321,85.12841800000024,78.58984400000008,101.79492200000004,105.89746099999957,95.0,108.3334960000002,69.48730499999965,89.35888699999941,101.0258789999998,95.38476599999922,71.79492200000004,101.79492200000004,49.102539000000434,109.87158199999976
322,86.79492200000004,80.0,101.6665039999998,112.82031300000017,100.25634799999989,108.3334960000002,71.2822270000006,90.0,98.20507799999996,95.51269500000035,67.82031300000017,101.0258789999998,48.20507799999996,112.05126999999993
323,93.0771479999994,86.79492200000004,102.05126999999993,120.76904300000024,106.9228520000006,109.48730499999965,73.46142599999985,91.9228520000006,97.30761700000039,96.2822270000006,64.23095699999976,102.56396500000028,55.897460999999566,108.3334960000002
324,97.94873000000007,92.30761700000039,101.41015599999992,127.82031300000017,108.9741210000002,108.7177729999994,72.82031300000017,91.79492200000004,96.9228520000006,95.64111300000059,60.76904300000024,102.30761700000039,65.12841800000024,106.79492200000004
325,97.43603499999972,92.82031300000017,99.23095699999976,129.23095699999976,105.25634799999989,105.51269500000035,68.46142599999985,88.46142599999985,95.89746099999957,93.7177729999994,59.23095699999976,98.46142599999985,68.84619099999964,110.38476599999922
326,92.82031300000017,89.35888699999941,97.05126999999993,121.41015599999992,100.25634799999989,102.94873000000007,63.46142599999985,84.23095699999976,94.35888699999941,92.94873000000007,62.17968800000017,93.58984400000008,66.0258789999998,111.15380900000036
327,88.46142599999985,85.38476599999922,96.6665039999998,106.53857400000015,99.23095699999976,102.82031300000017,60.76904300000024,82.56396500000028,93.58984400000008,94.74365200000011,69.10253900000043,91.53857400000015,60.64111300000059,106.2822270000006
328,86.6665039999998,83.20507799999996,97.56396500000028,93.46142599999985,102.17968800000017,104.35888699999941,61.025878999999804,83.9741210000002,94.23095699999976,97.17968800000017,75.38476599999922,92.82031300000017,56.410155999999915,103.58984400000008
329,86.9228520000006,83.46142599999985,97.94873000000007,91.53857400000015,105.25634799999989,105.25634799999989,62.69238299999961,86.79492200000004,96.41015599999992,97.94873000000007,76.53857400000015,95.64111300000059,55.12841800000024,107.82031300000017
330,88.20507799999996,86.2822270000006,97.43603499999972,102.69238299999961,106.0258789999998,104.87158199999976,64.23095699999976,90.12841800000024,99.87158199999976,96.6665039999998,73.0771479999994,98.46142599999985,56.9228520000006,111.15380900000036
331,90.51269500000035,90.64111300000059,98.20507799999996,119.48730499999965,105.12841800000024,105.0,66.0258789999998,94.74365200000011,104.48730499999965,96.6665039999998,69.74365200000011,101.9228520000006,61.79492200000004,107.82031300000017
332,93.7177729999994,93.84619099999964,102.05126999999993,131.15380900000036,104.61523400000078,107.17968800000017,69.23095699999976,100.25634799999989,109.74365200000011,100.51269500000035,70.64111300000059,107.05126999999993,69.23095699999976,104.10253900000043
333,97.69238299999961,93.0771479999994,108.20507799999996,132.17968800000017,106.41015599999992,111.41015599999992,73.3334960000002,104.74365200000011,113.7177729999994,107.82031300000017,75.89746099999957,112.94873000000007,77.69238299999961,107.56396500000028
334,101.41015599999992,88.20507799999996,113.9741210000002,124.87158199999976,109.74365200000011,116.2822270000006,75.89746099999957,106.0258789999998,115.12841800000024,114.35888699999941,81.6665039999998,117.17968800000017,84.23095699999976,112.43603499999972
335,102.69238299999961,81.79492200000004,115.89746099999957,115.64111300000059,112.30761700000039,119.48730499999965,75.0,103.46142599999985,113.7177729999994,115.51269500000035,83.9741210000002,116.9228520000006,86.0258789999998,110.25634799999989
336,99.61523400000078,77.69238299999961,112.30761700000039,109.35888699999941,110.64111300000059,118.46142599999985,70.38476599999922,98.46142599999985,110.64111300000059,109.23095699999976,81.15380900000036,111.2822270000006,80.64111300000059,104.35888699999941
337,92.43603499999972,78.58984400000008,104.35888699999941,108.3334960000002,104.61523400000078,113.0771479999994,64.23095699999976,92.94873000000007,107.82031300000017,98.58984400000008,75.51269500000035,102.94873000000007,69.74365200000011,104.23095699999976
338,86.0258789999998,84.87158199999976,96.6665039999998,112.94873000000007,98.84619099999964,107.17968800000017,60.12841800000024,90.0,107.17968800000017,90.64111300000059,71.9228520000006,97.69238299999961,60.25634799999989,108.7177729999994
339,86.15380900000036,94.23095699999976,95.12841800000024,120.89746099999957,99.10253900000043,105.25634799999989,60.76904300000024,90.89746099999957,109.10253900000043,91.2822270000006,74.48730499999965,100.12841800000024,60.12841800000024,108.46142599999985
340,93.46142599999985,101.6665039999998,100.89746099999957,127.17968800000017,106.15380900000036,108.0771479999994,64.87158199999976,94.10253900000043,111.9228520000006,100.0,81.79492200000004,109.23095699999976,70.12841800000024,103.46142599999985
341,102.30761700000039,102.56396500000028,109.87158199999976,127.69238299999961,113.9741210000002,111.79492200000004,68.3334960000002,96.2822270000006,113.0771479999994,110.12841800000024,86.6665039999998,118.46142599999985,82.82031300000017,102.05126999999993
342,106.2822270000006,96.15380900000036,115.76904300000024,122.43603499999972,116.2822270000006,112.56396500000028,68.0771479999994,95.12841800000024,111.79492200000004,114.48730499999965,83.84619099999964,121.0258789999998,89.10253900000043,105.76904300000024
343,103.9741210000002,87.05126999999993,115.89746099999957,116.2822270000006,111.79492200000004,110.12841800000024,63.974121000000196,92.17968800000017,110.0,111.53857400000015,74.87158199999976,116.53857400000015,86.15380900000036,106.79492200000004
344,99.35888699999941,81.15380900000036,112.30761700000039,113.9741210000002,104.74365200000011,107.30761700000039,58.846190999999635,90.0,109.87158199999976,105.64111300000059,66.9228520000006,110.12841800000024,79.23095699999976,103.3334960000002
345,97.05126999999993,80.51269500000035,108.3334960000002,117.43603499999972,100.12841800000024,106.2822270000006,56.025878999999804,90.0,112.17968800000017,102.82031300000017,65.64111300000059,107.30761700000039,75.25634799999989,103.46142599999985
346,98.7177729999994,82.56396500000028,106.2822270000006,125.12841800000024,99.74365200000011,107.69238299999961,57.17968800000017,92.56396500000028,116.41015599999992,105.64111300000059,70.89746099999957,109.61523400000078,78.3334960000002,109.74365200000011
347,102.69238299999961,82.82031300000017,106.53857400000015,132.82031300000017,101.41015599999992,110.25634799999989,61.410155999999915,97.05126999999993,121.0258789999998,112.30761700000039,78.0771479999994,115.0,86.9228520000006,113.20507799999996
348,105.12841800000024,77.43603499999972,107.94873000000007,135.76904300000024,100.51269500000035,111.15380900000036,66.15380900000036,101.6665039999998,124.10253900000043,118.58984400000008,82.69238299999961,119.61523400000078,95.38476599999922,108.46142599999985
349,102.69238299999961,66.2822270000006,108.7177729999994,131.53857400000015,93.7177729999994,107.56396500000028,68.0771479999994,103.20507799999996,123.7177729999994,120.12841800000024,82.05126999999993,120.76904300000024,97.30761700000039,103.58984400000008
350,95.89746099999957,53.46142599999985,107.05126999999993,123.46142599999985,82.56396500000028,100.25634799999989,65.76904300000024,99.48730499999965,119.87158199999976,116.0258789999998,76.79492200000004,118.0771479999994,90.76904300000024,106.15380900000036
351,89.74365200000011,46.2822270000006,103.84619099999964,119.61523400000078,73.9741210000002,93.7177729999994,60.12841800000024,92.17968800000017,114.87158199999976,109.23095699999976,69.23095699999976,113.7177729999994,81.6665039999998,110.76904300000024
352,88.9741210000002,49.61523400000078,101.15380900000036,124.23095699999976,74.35888699999941,92.56396500000028,54.74365200000011,85.51269500000035,112.05126999999993,104.74365200000011,62.43603499999972,110.89746099999957,78.9741210000002,109.61523400000078
353,94.23095699999976,60.76904300000024,100.64111300000059,133.46142599999985,82.43603499999972,96.41015599999992,52.56396500000028,83.20507799999996,113.9741210000002,106.2822270000006,58.589844000000085,111.41015599999992,86.6665039999998,106.2822270000006
354,101.6665039999998,70.76904300000024,102.43603499999972,140.0,91.15380900000036,100.12841800000024,54.35888699999941,86.2822270000006,120.38476599999922,114.10253900000043,58.846190999999635,114.48730499999965,100.38476599999922,108.0771479999994
355,107.94873000000007,73.20507799999996,105.25634799999989,141.79492200000004,94.48730499999965,100.0,58.333496000000196,93.46142599999985,129.23095699999976,125.38476599999922,62.82031300000017,118.20507799999996,112.82031300000017,111.6665039999998
356,112.82031300000017,69.10253900000043,107.69238299999961,143.0771479999994,92.17968800000017,96.79492200000004,62.17968800000017,101.53857400000015,136.53857400000015,136.15380900000036,68.58984400000008,121.2822270000006,120.51269500000035,109.10253900000043
357,116.79492200000004,63.589844000000085,108.84619099999964,148.58984400000008,87.43603499999972,94.35888699999941,64.23095699999976,106.9228520000006,140.0,143.20507799999996,73.7177729999994,122.82031300000017,123.84619099999964,103.20507799999996
358,119.23095699999976,58.589844000000085,108.7177729999994,155.89746099999957,83.3334960000002,95.12841800000024,64.87158199999976,108.58984400000008,140.51269500000035,145.6411130000006,76.15380900000036,122.94873000000007,124.87158199999976,103.0771479999994
359,118.46142599999985,52.43603499999972,108.46142599999985,157.82031300000017,80.89746099999957,99.61523400000078,65.0,107.94873000000007,140.38476599999922,144.7436520000001,75.89746099999957,122.30761700000039,124.87158199999976,108.3334960000002
360,113.58984400000008,42.82031300000017,108.58984400000008,149.61523400000078,79.61523400000078,105.38476599999922,64.23095699999976,106.79492200000004,140.89746099999957,142.17968800000017,73.46142599999985,121.0258789999998,124.10253900000043,109.61523400000078
361,105.0,30.128418000000238,108.3334960000002,134.48730499999965,78.3334960000002,108.84619099999964,61.153809000000365,103.9741210000002,139.87158199999976,138.0771479999994,68.0771479999994,118.58984400000008,121.0258789999998,105.76904300000024
362,94.48730499999965,18.461425999999847,105.76904300000024,121.53857400000015,75.89746099999957,107.30761700000039,54.61523400000078,97.17968800000017,134.61523400000078,131.41015599999992,58.846190999999635,113.9741210000002,114.48730499999965,105.25634799999989
363,86.0258789999998,14.615234000000783,100.64111300000059,120.0,73.84619099999964,102.43603499999972,46.53857400000015,86.9228520000006,125.89746099999957,123.9741210000002,47.30761700000039,107.82031300000017,105.89746099999957,110.0
364,84.87158199999976,24.102539000000434,95.25634799999989,131.9228520000006,75.25634799999989,98.7177729999994,40.76904300000024,78.3334960000002,117.69238299999961,118.58984400000008,37.69238299999961,103.20507799999996,99.61523400000078,111.6665039999998
365,91.79492200000004,45.25634799999989,92.69238299999961,151.2822270000006,80.51269500000035,99.10253900000043,39.35888699999941,75.12841800000024,114.35888699999941,116.2822270000006,32.56396500000028,102.05126999999993,96.79492200000004,107.30761700000039
366,101.9228520000006,67.17968800000017,93.20507799999996,168.3334960000002,85.76904300000024,101.41015599999992,40.0,75.64111300000059,115.64111300000059,114.23095699999976,29.615234000000783,102.43603499999972,92.94873000000007,105.0
367,107.56396500000028,78.58984400000008,93.84619099999964,176.9228520000006,86.41015599999992,101.79492200000004,37.56396500000028,74.48730499999965,117.69238299999961,108.9741210000002,23.846190999999635,100.51269500000035,82.43603499999972,109.23095699999976
368,106.0258789999998,77.43603499999972,92.05126999999993,177.82031300000017,82.05126999999993,99.61523400000078,30.641113000000587,68.9741210000002,116.79492200000004,100.89746099999957,13.205077999999958,95.12841800000024,66.53857400000015,112.43603499999972
369,101.79492200000004,73.20507799999996,89.61523400000078,176.41015599999992,75.76904300000024,97.05126999999993,23.077147999999397,62.56396500000028,113.58984400000008,94.48730499999965,1.153809000000365,89.48730499999965,52.82031300000017,108.84619099999964
370,101.6665039999998,76.41015599999992,90.38476599999922,177.6923829999996,69.87158199999976,95.51269500000035,21.153809000000365,60.64111300000059,111.9228520000006,94.74365200000011,-7.051270000000386,88.7177729999994,47.30761700000039,104.87158199999976
371,108.7177729999994,89.48730499999965,95.89746099999957,184.23095699999976,65.25634799999989,93.58984400000008,27.30761700000039,65.89746099999957,114.61523400000078,102.56396500000028,-8.461425999999847,94.74365200000011,49.35888699999941,107.05126999999993
372,120.76904300000024,106.2822270000006,104.35888699999941,195.76904300000024,62.43603499999972,90.25634799999989,37.94873000000007,75.51269500000035,121.0258789999998,114.35888699999941,-5.256347999999889,104.74365200000011,52.94873000000007,110.38476599999922
373,131.9228520000006,117.69238299999961,111.6665039999998,210.0,62.30761700000039,86.53857400000015,46.2822270000006,83.9741210000002,127.69238299999961,124.23095699999976,-2.9487300000000687,113.0771479999994,52.43603499999972,108.20507799999996
374,136.6665039999998,118.58984400000008,115.0,222.82031300000017,64.23095699999976,83.46142599999985,47.43603499999972,86.9228520000006,131.53857400000015,128.46142599999985,-8.461425999999847,114.74365200000011,45.76904300000024,105.12841800000024
375,133.84619099999964,111.9228520000006,113.84619099999964,228.84619099999964,66.41015599999992,81.9228520000006,41.666503999999804,84.35888699999941,132.17968800000017,127.30761700000039,-23.974365000000034,108.7177729999994,36.153809000000365,107.94873000000007
376,128.20507799999996,107.43603499999972,109.35888699999941,225.0,67.69238299999961,82.30761700000039,33.7177729999994,79.23095699999976,131.41015599999992,124.10253900000043,-45.0,98.3334960000002,28.974121000000196,111.9228520000006
377,125.38476599999922,113.20507799999996,104.61523400000078,213.46142599999985,69.23095699999976,84.87158199999976,28.333496000000196,74.48730499999965,129.48730499999965,121.41015599999992,-62.69238299999961,88.84619099999964,26.153809000000365,108.46142599999985
378,127.05126999999993,127.56396500000028,101.41015599999992,202.17968800000017,71.2822270000006,87.69238299999961,26.538574000000153,70.25634799999989,124.74365200000011,117.94873000000007,-71.79492200000004,83.0771479999994,23.461425999999847,101.2822270000006
379,129.23095699999976,141.2822270000006,99.23095699999976,200.76904300000024,72.94873000000007,88.20507799999996,25.641113000000587,64.61523400000078,116.2822270000006,111.2822270000006,-74.35888699999987,80.76904300000024,15.256347999999889,100.25634799999989
380,128.7177729999994,147.43603499999972,96.9228520000006,213.84619099999964,73.84619099999964,85.76904300000024,22.94873000000007,58.0771479999994,106.53857400000015,101.6665039999998,-74.35888699999987,80.89746099999957,2.3076170000003913,105.12841800000024
381,127.05126999999993,148.58984400000008,95.25634799999989,235.6411130000006,75.64111300000059,83.3334960000002,18.333496000000196,53.46142599999985,99.74365200000011,93.0771479999994,-73.71801800000003,82.69238299999961,-7.820557000000008,106.79492200000004
382,127.05126999999993,153.20507799999996,95.76904300000024,251.79492200000004,80.76904300000024,84.61523400000078,13.717772999999397,51.9228520000006,97.17968800000017,87.43603499999972,-72.43579099999943,85.12841800000024,-9.8718259999996,104.10253900000043
383,128.9741210000002,166.2822270000006,97.82031300000017,248.46142599999985,89.23095699999976,90.0,10.256347999999889,50.51269500000035,95.51269500000035,82.30761700000039,-71.15380900000036,85.76904300000024,-7.051270000000386,104.61523400000078
