,EEG.AF3,EEG.F7,EEG.F3,EEG.FC5,EEG.T7,EEG.P7,EEG.O1,EEG.O2,EEG.P8,EEG.T8,EEG.FC6,EEG.F4,EEG.F8,EEG.AF4
0,221.6665039999998,130.6411130000006,145.12841800000024,156.53857400000015,27.17968800000017,107.05126999999993,136.41015599999992,141.6665039999998,112.43603499999972,111.41015599999992,97.82031300000017,163.46142599999985,246.41015599999992,110.76904300000024
1,231.0258789999998,145.76904300000024,145.89746099999957,161.2822270000006,29.230956999999762,104.23095699999976,133.58984400000008,135.76904300000024,107.05126999999993,99.74365200000011,88.7177729999994,161.6665039999998,230.89746099999957,105.38476599999922
2,239.23095699999976,162.56396500000028,143.9741210000002,165.12841800000024,31.538574000000153,103.20507799999996,132.05126999999993,130.38476599999922,101.41015599999992,89.48730499999965,79.35888699999941,157.3076170000004,216.53857400000015,106.15380900000036
3,247.94873000000007,178.9741210000002,140.6411130000006,167.05126999999993,34.87158199999976,104.61523400000078,130.76904300000024,127.17968800000017,97.56396500000028,83.58984400000008,71.79492200000004,153.20507799999996,206.9228520000006,110.76904300000024
4,258.3334960000002,195.76904300000024,138.9741210000002,168.20507799999996,40.38476599999922,107.82031300000017,127.82031300000017,126.2822270000006,96.41015599999992,82.05126999999993,67.30761700000039,151.9228520000006,202.17968800000017,111.15380900000036
5,268.84619099999964,213.58984400000008,140.89746099999957,170.12841800000024,47.17968800000017,109.61523400000078,121.2822270000006,125.12841800000024,95.76904300000024,81.0258789999998,65.12841800000024,153.0771479999994,198.3334960000002,107.94873000000007
6,277.17968800000017,231.41015599999992,145.2563479999999,173.0771479999994,53.333496000000196,107.43603499999972,110.76904300000024,120.38476599999922,92.56396500000028,76.41015599999992,62.56396500000028,154.48730499999965,190.2563479999999,108.58984400000008
7,282.5639650000003,247.6923829999996,148.7177729999994,176.41015599999992,57.82031300000017,102.94873000000007,100.12841800000024,112.05126999999993,85.38476599999922,67.30761700000039,58.7177729999994,154.61523400000078,176.53857400000015,113.0771479999994
8,285.3847659999992,260.76904300000024,149.10253900000043,178.46142599999985,61.2822270000006,100.38476599999922,93.9741210000002,103.0771479999994,76.53857400000015,56.153809000000365,54.23095699999976,153.3334960000002,160.12841800000024,113.58984400000008
9,286.15380900000036,269.6152340000008,146.79492200000004,178.0771479999994,63.46142599999985,101.15380900000036,93.3334960000002,96.2822270000006,68.58984400000008,45.51269500000035,50.12841800000024,151.0258789999998,143.84619099999964,108.9741210000002
10,284.6152340000008,274.87158199999976,143.7177729999994,175.12841800000024,63.46142599999985,103.20507799999996,94.48730499999965,92.05126999999993,63.20507799999996,36.666503999999804,45.897460999999566,148.20507799999996,128.9741210000002,107.69238299999961
11,282.94873000000007,280.3847659999992,141.6665039999998,172.05126999999993,61.9228520000006,104.61523400000078,94.10253900000043,90.64111300000059,62.17968800000017,31.538574000000153,42.30761700000039,145.6411130000006,116.15380900000036,113.0771479999994
12,283.84619099999964,289.23095699999976,141.9228520000006,171.53857400000015,62.05126999999993,106.0258789999998,92.30761700000039,92.17968800000017,65.64111300000059,31.282227000000603,40.0,143.7177729999994,105.89746099999957,117.17968800000017
13,287.05126999999993,301.53857400000015,144.7436520000001,174.3588869999994,64.74365200000011,107.82031300000017,91.15380900000036,96.0258789999998,71.6665039999998,35.0,37.82031300000017,141.53857400000015,97.05126999999993,114.10253900000043
14,290.0,314.87158199999976,148.3334960000002,178.9741210000002,68.46142599999985,109.48730499999965,91.2822270000006,99.48730499999965,76.15380900000036,38.7177729999994,32.69238299999961,138.0771479999994,88.0771479999994,109.74365200000011
15,291.53857400000015,327.82031300000017,150.0,183.0771479999994,71.2822270000006,110.89746099999957,92.05126999999993,100.25634799999989,77.05126999999993,39.87158199999976,25.384765999999217,133.9741210000002,78.3334960000002,110.12841800000024
16,292.6923829999996,341.15380900000036,148.84619099999964,185.0,73.46142599999985,112.56396500000028,91.9228520000006,98.46142599999985,75.76904300000024,38.46142599999985,20.128418000000238,131.9228520000006,69.48730499999965,110.76904300000024
17,294.10253900000043,354.3588869999994,146.2822270000006,184.3588869999994,75.51269500000035,113.84619099999964,89.48730499999965,95.12841800000024,74.74365200000011,35.51269500000035,20.384765999999217,132.17968800000017,61.025878999999804,106.79492200000004
18,293.3334960000002,363.7177729999994,144.23095699999976,181.0258789999998,76.41015599999992,112.05126999999993,83.20507799999996,90.0,73.3334960000002,30.25634799999989,23.205077999999958,132.56396500000028,49.74365200000011,103.58984400000008
19,288.3334960000002,367.3076170000004,142.94873000000007,176.41015599999992,75.76904300000024,107.05126999999993,74.23095699999976,82.82031300000017,69.48730499999965,21.922852000000603,22.30761700000039,130.38476599999922,32.94873000000007,108.3334960000002
20,280.3847659999992,367.3076170000004,141.6665039999998,173.20507799999996,75.64111300000059,102.30761700000039,66.79492200000004,75.12841800000024,63.46142599999985,12.051269999999931,14.615234000000783,126.0258789999998,13.077147999999397,115.64111300000059
21,273.0771479999994,368.3334960000002,140.38476599999922,172.94873000000007,77.94873000000007,101.2822270000006,63.974121000000196,69.35888699999941,58.0771479999994,3.5898440000000846,2.9487300000000687,121.41015599999992,-4.487060999999812,115.89746099999957
22,268.5898440000001,372.3076170000004,140.12841800000024,174.10253900000043,82.30761700000039,103.58984400000008,65.0,65.76904300000024,55.64111300000059,-1.4101559999999154,-7.051270000000386,118.3334960000002,-16.538574000000153,110.38476599999922
23,266.53857400000015,378.5898440000001,141.0258789999998,173.9741210000002,86.2822270000006,105.89746099999957,65.64111300000059,64.23095699999976,57.17968800000017,-2.1796869999998307,-11.41015600000037,117.30761700000039,-23.461425999999847,109.10253900000043
24,266.15380900000036,386.2822270000006,142.82031300000017,172.17968800000017,88.9741210000002,106.2822270000006,63.20507799999996,64.74365200000011,62.17968800000017,1.6665039999998044,-9.230713000000378,118.3334960000002,-26.923095999999987,113.20507799999996
25,266.0258789999998,393.46142599999985,144.61523400000078,170.0,91.15380900000036,104.87158199999976,57.82031300000017,67.43603499999972,68.9741210000002,8.461425999999847,-3.3334960000001956,120.12841800000024,-29.8718259999996,114.23095699999976
26,262.82031300000017,396.4101559999999,145.51269500000035,168.20507799999996,92.56396500000028,102.30761700000039,51.53857400000015,70.12841800000024,73.7177729999994,13.205077999999958,0.0,119.87158199999976,-36.66674799999964,110.12841800000024
27,253.7177729999994,392.5639650000003,144.10253900000043,166.0258789999998,91.9228520000006,99.23095699999976,46.79492200000004,69.74365200000011,72.94873000000007,10.641113000000587,-4.230713000000378,115.51269500000035,-49.74365200000011,108.9741210000002
28,240.38476599999922,384.7436520000001,140.2563479999999,162.6923829999996,89.74365200000011,97.82031300000017,46.153809000000365,65.38476599999922,66.6665039999998,1.2822270000006029,-14.358886999999868,109.10253900000043,-66.28198199999997,113.20507799999996
29,228.84619099999964,378.84619099999964,136.53857400000015,159.61523400000078,89.10253900000043,100.12841800000024,49.87158199999976,60.0,59.35888699999941,-9.102538999999979,-23.974365000000034,104.35888699999941,-79.61547900000005,114.48730499999965
30,223.3334960000002,377.94873000000007,135.89746099999957,157.56396500000028,91.41015599999992,105.25634799999989,54.74365200000011,57.17968800000017,55.25634799999989,-14.61547900000005,-27.948729999999614,103.20507799999996,-86.02563499999997,108.84619099999964
31,221.9228520000006,379.3588869999994,138.46142599999985,155.89746099999957,95.38476599999922,109.35888699999941,56.410155999999915,57.94873000000007,55.25634799999989,-13.71801800000003,-26.923095999999987,103.7177729999994,-88.71801800000003,104.35888699999941
32,219.87158199999976,378.9741210000002,140.51269500000035,153.3334960000002,98.7177729999994,109.74365200000011,53.46142599999985,60.897460999999566,57.43603499999972,-9.358886999999868,-24.358886999999868,102.82031300000017,-93.33325200000036,106.9228520000006
33,213.0771479999994,374.6152340000008,138.7177729999994,149.3588869999994,100.51269500000035,107.17968800000017,48.974121000000196,64.48730499999965,60.0,-5.38452099999995,-23.333252000000357,99.35888699999941,-103.33325200000036,110.51269500000035
34,200.89746099999957,367.3076170000004,132.94873000000007,144.61523400000078,100.51269500000035,103.84619099999964,46.410155999999915,67.30761700000039,61.666503999999804,-5.0,-26.153809000000365,93.58984400000008,-118.33325200000036,108.20507799999996
35,185.12841800000024,358.5898440000001,126.0258789999998,139.87158199999976,98.3334960000002,101.2822270000006,46.9228520000006,68.0771479999994,61.79492200000004,-9.358886999999868,-33.33325200000036,86.0258789999998,-135.89746100000002,105.0
36,169.7436520000001,350.89746099999957,121.0258789999998,136.41015599999992,95.64111300000059,100.12841800000024,48.589844000000085,66.9228520000006,60.64111300000059,-16.025634999999966,-42.435790999999426,78.0771479999994,-151.66674799999964,107.82031300000017
37,159.23095699999976,347.3076170000004,120.38476599999922,135.2563479999999,96.53857400000015,101.6665039999998,49.35888699999941,65.64111300000059,59.74365200000011,-20.769286999999622,-49.10253899999998,72.43603499999972,-161.15380900000036,112.69238299999961
38,154.7436520000001,347.94873000000007,124.61523400000078,136.6665039999998,102.30761700000039,105.12841800000024,47.82031300000017,64.87158199999976,59.61523400000078,-22.564209000000574,-51.025634999999966,70.38476599999922,-164.23071300000038,111.53857400000015
39,152.6923829999996,349.7436520000001,131.15380900000036,138.3334960000002,109.87158199999976,107.05126999999993,43.0771479999994,63.46142599999985,58.974121000000196,-24.10253899999998,-49.61547900000005,70.89746099999957,-165.76928699999962,107.05126999999993
40,148.3334960000002,348.9741210000002,135.51269500000035,138.0771479999994,114.48730499999965,104.61523400000078,36.410155999999915,59.61523400000078,56.153809000000365,-28.71801800000003,-48.20507799999996,71.9228520000006,-171.15380900000036,107.94873000000007
41,140.89746099999957,345.76904300000024,135.0,136.15380900000036,114.87158199999976,99.35888699999941,31.153809000000365,54.61523400000078,52.56396500000028,-35.51293900000019,-48.20507799999996,72.43603499999972,-180.38452099999995,112.94873000000007
42,132.56396500000028,342.6923829999996,131.2822270000006,134.10253900000043,112.82031300000017,95.51269500000035,30.384765999999217,51.410155999999915,50.38476599999922,-40.51293900000019,-49.61547900000005,71.53857400000015,-189.7436520000001,113.20507799999996
43,125.12841800000024,341.4101559999999,127.69238299999961,133.20507799999996,109.87158199999976,94.48730499999965,33.0771479999994,51.2822270000006,50.64111300000059,-41.53857400000015,-52.69238299999961,68.3334960000002,-197.179443,108.84619099999964
44,118.46142599999985,341.53857400000015,126.2822270000006,132.6923829999996,107.05126999999993,94.35888699999941,35.38476599999922,52.94873000000007,52.94873000000007,-38.71801800000003,-57.17944299999999,63.20507799999996,-203.20507799999996,108.3334960000002
45,112.94873000000007,342.4360349999997,126.41015599999992,131.53857400000015,106.0258789999998,93.46142599999985,34.48730499999965,55.12841800000024,56.53857400000015,-33.71801800000003,-61.153809000000365,58.46142599999985,-208.33325200000036,112.56396500000028
46,109.10253900000043,343.84619099999964,127.30761700000039,129.87158199999976,108.46142599999985,92.43603499999972,31.666503999999804,57.30761700000039,61.2822270000006,-28.461425999999847,-62.17944299999999,56.53857400000015,-211.923096,113.0771479999994
47,105.89746099999957,343.7177729999994,128.3334960000002,127.94873000000007,112.82031300000017,91.9228520000006,29.48730499999965,58.333496000000196,65.0,-25.89746100000002,-61.28198199999997,57.17968800000017,-213.84619099999964,107.17968800000017
48,100.89746099999957,339.6152340000008,127.82031300000017,125.64111300000059,115.25634799999989,91.9228520000006,28.717772999999397,56.2822270000006,64.74365200000011,-28.461425999999847,-61.79492200000004,57.17968800000017,-215.0,103.20507799999996
49,93.9741210000002,332.5639650000003,124.87158199999976,123.3334960000002,114.61523400000078,91.9228520000006,28.205077999999958,50.38476599999922,59.87158199999976,-35.51293900000019,-65.1281740000004,54.23095699999976,-216.41015600000037,105.51269500000035
50,87.69238299999961,327.17968800000017,120.51269500000035,121.9228520000006,113.46142599999985,92.69238299999961,26.666503999999804,42.94873000000007,53.46142599999985,-42.82055700000001,-68.97436500000003,48.974121000000196,-218.58984399999963,107.30761700000039
51,83.7177729999994,326.53857400000015,116.6665039999998,121.15380900000036,114.74365200000011,94.23095699999976,23.589844000000085,36.79492200000004,48.974121000000196,-47.30761700000039,-70.1281740000004,43.589844000000085,-222.56420900000057,103.84619099999964
52,80.38476599999922,327.94873000000007,114.23095699999976,119.74365200000011,118.0771479999994,95.12841800000024,20.128418000000238,33.46142599999985,47.56396500000028,-48.58984399999963,-67.69238299999961,39.74365200000011,-229.8718259999996,101.79492200000004
53,75.25634799999989,327.05126999999993,111.53857400000015,116.6665039999998,121.0258789999998,95.0,18.589844000000085,32.94873000000007,48.0771479999994,-48.46142599999985,-63.58984399999963,37.69238299999961,-239.35888699999987,106.41015599999992
54,67.94873000000007,322.05126999999993,107.82031300000017,113.20507799999996,122.69238299999961,95.25634799999989,21.025878999999804,35.0,49.61523400000078,-47.82055700000001,-60.38452099999995,36.666503999999804,-247.0512700000004,111.15380900000036
55,60.0,314.7436520000001,104.23095699999976,111.41015599999992,123.58984400000008,96.53857400000015,26.282227000000603,38.333496000000196,51.53857400000015,-48.33325200000036,-61.025634999999966,34.87158199999976,-249.61547900000005,108.84619099999964
56,52.17968800000017,307.5639650000003,102.05126999999993,111.9228520000006,124.48730499999965,96.6665039999998,29.871581999999762,39.87158199999976,52.69238299999961,-51.025634999999966,-66.41015600000037,31.410155999999915,-248.20507799999996,104.61523400000078
57,45.38476599999922,302.6923829999996,101.41015599999992,113.7177729999994,127.17968800000017,93.7177729999994,28.205077999999958,37.69238299999961,52.69238299999961,-55.64111300000013,-74.74365200000011,27.05126999999993,-246.15380900000036,106.9228520000006
58,41.666503999999804,301.6665039999998,101.6665039999998,115.25634799999989,133.46142599999985,89.87158199999976,22.94873000000007,33.333496000000196,52.43603499999972,-58.71801800000003,-81.53857400000015,25.0,-244.8718259999996,111.9228520000006
59,41.153809000000365,303.0771479999994,102.82031300000017,115.76904300000024,143.46142599999985,89.23095699999976,19.358886999999413,30.51269500000035,53.846190999999635,-57.948729999999614,-83.33325200000036,26.538574000000153,-243.58984399999963,111.15380900000036
60,41.2822270000006,303.0771479999994,103.7177729999994,114.74365200000011,153.20507799999996,92.43603499999972,21.282227000000603,32.05126999999993,56.79492200000004,-54.8718259999996,-81.66674799999964,29.74365200000011,-242.820557,107.05126999999993
61,37.94873000000007,297.82031300000017,102.69238299999961,111.6665039999998,157.43603499999972,96.41015599999992,28.077147999999397,37.56396500000028,59.35888699999941,-53.33325200000036,-79.74365200000011,30.25634799999989,-244.10253899999998,108.20507799999996
62,30.769043000000238,288.5898440000001,99.23095699999976,108.3334960000002,155.89746099999957,97.94873000000007,36.025878999999804,45.0,60.64111300000059,-53.974365000000034,-78.71801800000003,26.538574000000153,-246.15380900000036,113.20507799999996
63,23.717772999999397,280.6411130000006,95.64111300000059,107.30761700000039,152.56396500000028,96.53857400000015,40.897460999999566,52.05126999999993,61.666503999999804,-54.48706099999981,-76.02563499999997,21.025878999999804,-245.5129390000002,112.82031300000017
64,19.615234000000783,276.53857400000015,94.74365200000011,108.9741210000002,151.0258789999998,92.69238299999961,40.12841800000024,56.025878999999804,63.20507799999996,-52.82055700000001,-70.76928699999962,17.30761700000039,-241.15380900000036,106.41015599999992
65,17.30761700000039,273.7177729999994,95.89746099999957,110.89746099999957,150.89746099999957,86.6665039999998,33.974121000000196,55.25634799999989,65.0,-49.74365200000011,-65.0,16.025878999999804,-236.15380900000036,103.46142599999985
66,14.615234000000783,268.7177729999994,96.41015599999992,110.12841800000024,151.41015599999992,80.64111300000059,26.794922000000042,51.153809000000365,66.41015599999992,-46.66674799999964,-61.79492200000004,16.410155999999915,-233.58984399999963,106.6665039999998
67,12.051269999999931,261.0258789999998,95.64111300000059,106.79492200000004,153.9741210000002,77.69238299999961,24.102539000000434,48.846190999999635,68.46142599999985,-43.46142599999985,-61.153809000000365,18.333496000000196,-232.179443,108.3334960000002
68,12.17968800000017,252.56396500000028,96.41015599999992,103.0771479999994,160.89746099999957,79.87158199999976,27.94873000000007,52.17968800000017,72.56396500000028,-38.71801800000003,-60.25634799999989,22.69238299999961,-228.076904,105.76904300000024
69,15.512695000000349,245.6411130000006,100.25634799999989,100.38476599999922,171.53857400000015,85.25634799999989,35.64111300000059,60.64111300000059,78.46142599999985,-32.564209000000574,-57.051270000000386,29.48730499999965,-218.84619099999964,105.89746099999957
70,20.641113000000587,240.38476599999922,105.38476599999922,98.84619099999964,182.17968800000017,90.51269500000035,41.9228520000006,69.74365200000011,83.9741210000002,-26.28198199999997,-51.025634999999966,37.17968800000017,-205.38452099999995,111.2822270000006
71,24.871581999999762,235.76904300000024,108.58984400000008,97.69238299999961,189.61523400000078,93.3334960000002,43.589844000000085,74.61523400000078,86.9228520000006,-21.28198199999997,-43.07690400000001,43.0771479999994,-190.2563479999999,113.58984400000008
72,25.641113000000587,229.10253900000043,108.20507799999996,95.89746099999957,191.2822270000006,93.0771479999994,40.76904300000024,73.3334960000002,85.76904300000024,-19.10253899999998,-35.51293900000019,45.25634799999989,-177.0512700000004,108.20507799999996
73,21.666503999999804,218.20507799999996,104.35888699999941,92.43603499999972,186.79492200000004,89.87158199999976,36.153809000000365,67.56396500000028,81.0258789999998,-20.38452099999995,-31.41015600000037,42.69238299999961,-168.84619099999964,103.3334960000002
74,14.102539000000434,204.10253900000043,97.82031300000017,87.05126999999993,179.3588869999994,85.38476599999922,32.82031300000017,61.410155999999915,75.0,-23.333252000000357,-31.666747999999643,37.17968800000017,-166.41015600000037,105.76904300000024
75,7.692382999999609,191.15380900000036,90.64111300000059,81.15380900000036,175.0,83.3334960000002,33.20507799999996,59.102539000000434,71.6665039999998,-24.358886999999868,-32.948729999999614,32.69238299999961,-166.28198199999997,110.12841800000024
76,6.282227000000603,182.94873000000007,86.2822270000006,76.9228520000006,178.0771479999994,86.2822270000006,37.82031300000017,62.05126999999993,73.20507799999996,-20.769286999999622,-30.769286999999622,32.69238299999961,-163.46142599999985,108.9741210000002
77,9.230956999999762,178.46142599999985,86.79492200000004,75.51269500000035,186.79492200000004,92.82031300000017,44.61523400000078,67.43603499999972,77.94873000000007,-14.358886999999868,-23.461425999999847,36.9228520000006,-156.28198199999997,106.2822270000006
78,12.43603499999972,173.58984400000008,90.25634799999989,75.38476599999922,195.89746099999957,99.35888699999941,50.897460999999566,71.53857400000015,82.17968800000017,-8.461425999999847,-14.102538999999979,41.666503999999804,-146.923096,109.48730499999965
79,13.589844000000085,166.6665039999998,92.82031300000017,75.12841800000024,202.3076170000004,102.94873000000007,55.76904300000024,72.56396500000028,83.3334960000002,-5.641113000000132,-6.538574000000153,43.974121000000196,-137.43579099999943,114.61523400000078
80,13.589844000000085,158.84619099999964,92.69238299999961,74.48730499999965,206.41015599999992,103.3334960000002,59.61523400000078,72.05126999999993,82.05126999999993,-5.641113000000132,-2.5639650000002803,43.333496000000196,-128.46142599999985,113.58984400000008
81,13.589844000000085,151.41015599999992,91.0258789999998,73.3334960000002,208.9741210000002,100.89746099999957,62.69238299999961,70.89746099999957,80.0,-6.794922000000042,-1.7949220000000423,41.2822270000006,-119.74365200000011,108.58984400000008
82,13.846190999999635,144.10253900000043,89.23095699999976,71.15380900000036,208.0771479999994,96.79492200000004,64.23095699999976,69.23095699999976,78.9741210000002,-7.179442999999992,-2.9487300000000687,39.23095699999976,-111.02563499999997,107.94873000000007
83,14.102539000000434,136.79492200000004,88.7177729999994,67.94873000000007,202.3076170000004,93.58984400000008,64.61523400000078,67.17968800000017,80.12841800000024,-5.128174000000399,-3.846190999999635,38.846190999999635,-101.66674799999964,110.51269500000035
84,15.384765999999217,130.6411130000006,90.12841800000024,65.12841800000024,193.58984400000008,94.10253900000043,65.25634799999989,66.15380900000036,83.3334960000002,-0.769043000000238,-1.5385740000001533,41.53857400000015,-91.28198199999997,108.3334960000002
85,17.82031300000017,125.51269500000035,93.7177729999994,64.35888699999941,185.51269500000035,97.69238299999961,67.30761700000039,67.17968800000017,86.9228520000006,4.230956999999762,4.871581999999762,46.9228520000006,-80.89746100000002,102.30761700000039
86,20.128418000000238,119.87158199999976,98.20507799999996,66.0258789999998,182.17968800000017,101.41015599999992,70.51269500000035,69.74365200000011,88.84619099999964,7.692382999999609,14.102539000000434,53.0771479999994,-72.69238299999961,101.79492200000004
87,21.794922000000042,113.46142599999985,101.6665039999998,68.46142599999985,185.76904300000024,103.0771479999994,73.84619099999964,73.46142599999985,88.3334960000002,9.487304999999651,23.205077999999958,58.0771479999994,-66.41015600000037,107.82031300000017
88,24.230956999999762,108.7177729999994,103.58984400000008,69.74365200000011,196.6665039999998,103.7177729999994,77.17968800000017,78.3334960000002,87.69238299999961,11.666503999999804,30.128418000000238,61.9228520000006,-59.74365200000011,110.64111300000059
89,27.56396500000028,106.2822270000006,104.74365200000011,69.10253900000043,210.76904300000024,104.61523400000078,80.64111300000059,84.23095699999976,88.9741210000002,15.0,34.48730499999965,64.61523400000078,-51.153809000000365,106.41015599999992
90,29.48730499999965,103.46142599999985,105.12841800000024,66.6665039999998,220.89746099999957,104.87158199999976,83.58984400000008,89.23095699999976,91.6665039999998,18.717772999999397,36.025878999999804,65.76904300000024,-41.79492200000004,102.82031300000017
91,28.333496000000196,97.17968800000017,103.7177729999994,62.94873000000007,222.82031300000017,103.0771479999994,85.89746099999957,92.17968800000017,95.12841800000024,21.794922000000042,36.410155999999915,64.61523400000078,-33.71801800000003,105.0
92,25.897460999999566,88.46142599999985,100.76904300000024,60.0,219.87158199999976,100.38476599999922,87.82031300000017,93.9741210000002,98.84619099999964,25.128418000000238,38.333496000000196,62.30761700000039,-26.28198199999997,106.2822270000006
93,25.51269500000035,81.6665039999998,98.58984400000008,59.48730499999965,219.7436520000001,98.58984400000008,90.0,95.89746099999957,103.20507799999996,29.230956999999762,43.7177729999994,60.897460999999566,-17.948729999999614,102.82031300000017
94,28.077147999999397,79.23095699999976,98.84619099999964,61.410155999999915,227.94873000000007,98.58984400000008,91.9228520000006,97.56396500000028,106.6665039999998,33.20507799999996,51.53857400000015,61.410155999999915,-9.61547900000005,101.41015599999992
95,31.794922000000042,79.23095699999976,100.76904300000024,63.589844000000085,243.9741210000002,99.35888699999941,92.82031300000017,98.0771479999994,107.69238299999961,35.897460999999566,58.7177729999994,63.0771479999994,-2.8203119999998307,107.43603499999972
96,35.0,79.61523400000078,102.56396500000028,64.74365200000011,263.3334960000002,101.0258789999998,93.7177729999994,97.94873000000007,107.17968800000017,37.43603499999972,64.35888699999941,65.38476599999922,2.8203130000001693,113.9741210000002
97,37.94873000000007,78.84619099999964,104.10253900000043,65.12841800000024,280.89746099999957,104.35888699999941,96.6665039999998,98.84619099999964,106.9228520000006,39.48730499999965,69.48730499999965,69.10253900000043,9.743652000000111,112.56396500000028
98,40.64111300000059,76.2822270000006,106.0258789999998,65.38476599999922,291.9228520000006,108.20507799999996,101.53857400000015,100.76904300000024,107.82031300000017,41.79492200000004,75.12841800000024,74.10253900000043,18.077147999999397,107.94873000000007
99,42.05126999999993,71.0258789999998,108.20507799999996,64.61523400000078,294.3588869999994,110.38476599999922,105.89746099999957,102.30761700000039,108.3334960000002,43.0771479999994,80.12841800000024,78.84619099999964,25.641113000000587,108.3334960000002
100,41.79492200000004,64.10253900000043,109.74365200000011,62.43603499999972,290.6411130000006,110.38476599999922,108.20507799999996,102.56396500000028,108.0771479999994,43.20507799999996,84.10253900000043,81.9228520000006,31.153809000000365,111.2822270000006
101,41.410155999999915,57.94873000000007,110.76904300000024,60.0,286.15380900000036,109.87158199999976,109.23095699999976,102.94873000000007,108.46142599999985,43.974121000000196,87.43603499999972,83.46142599999985,35.76904300000024,109.35888699999941
102,41.153809000000365,53.46142599999985,112.05126999999993,58.7177729999994,284.23095699999976,109.74365200000011,110.12841800000024,104.48730499999965,110.64111300000059,47.05126999999993,90.64111300000059,84.61523400000078,40.51269500000035,104.48730499999965
103,39.61523400000078,48.333496000000196,112.82031300000017,58.846190999999635,283.84619099999964,108.7177729999994,110.51269500000035,106.2822270000006,113.84619099999964,51.153809000000365,93.58984400000008,85.64111300000059,43.974121000000196,105.12841800000024
104,36.153809000000365,41.2822270000006,112.43603499999972,59.35888699999941,283.20507799999996,106.41015599999992,110.64111300000059,107.17968800000017,116.0258789999998,54.61523400000078,96.6665039999998,86.41015599999992,45.0,109.48730499999965
105,33.0771479999994,34.102539000000434,111.53857400000015,59.74365200000011,282.94873000000007,105.0,111.79492200000004,107.17968800000017,116.6665039999998,57.17968800000017,101.0258789999998,87.05126999999993,46.025878999999804,108.7177729999994
106,32.43603499999972,29.74365200000011,111.6665039999998,59.35888699999941,284.10253900000043,106.6665039999998,115.51269500000035,107.30761700000039,116.2822270000006,59.61523400000078,106.41015599999992,87.30761700000039,49.48730499999965,102.82031300000017
107,32.82031300000017,27.30761700000039,111.9228520000006,57.30761700000039,285.3847659999992,109.48730499999965,120.0,107.94873000000007,114.61523400000078,61.2822270000006,109.61523400000078,86.15380900000036,54.87158199999976,101.41015599999992
108,31.153809000000365,23.974121000000196,109.87158199999976,53.7177729999994,285.12841800000024,110.12841800000024,122.05126999999993,108.0771479999994,111.79492200000004,61.153809000000365,107.94873000000007,82.56396500000028,59.102539000000434,107.17968800000017
109,26.410155999999915,18.205077999999958,104.35888699999941,50.64111300000059,282.94873000000007,107.05126999999993,120.76904300000024,107.56396500000028,109.10253900000043,59.74365200000011,103.3334960000002,77.56396500000028,61.025878999999804,110.51269500000035
110,20.641113000000587,10.897460999999566,98.20507799999996,50.25634799999989,280.51269500000035,101.9228520000006,117.30761700000039,106.6665039999998,108.0771479999994,58.20507799999996,99.87158199999976,73.84619099999964,62.05126999999993,106.79492200000004
111,15.256347999999889,3.846190999999635,94.48730499999965,52.17968800000017,279.3588869999994,97.17968800000017,113.7177729999994,104.61523400000078,108.3334960000002,57.17968800000017,99.48730499999965,72.94873000000007,63.589844000000085,103.7177729999994
112,11.410155999999915,-1.4101559999999154,94.23095699999976,53.846190999999635,279.3588869999994,93.84619099999964,110.89746099999957,100.64111300000059,108.20507799999996,56.153809000000365,101.6665039999998,74.61523400000078,65.76904300000024,106.9228520000006
113,10.256347999999889,-3.717772999999397,95.89746099999957,54.23095699999976,280.6411130000006,92.94873000000007,110.12841800000024,96.2822270000006,106.79492200000004,56.025878999999804,104.35888699999941,77.30761700000039,68.9741210000002,110.0
114,12.948730000000069,-3.077147999999397,98.20507799999996,54.61523400000078,283.20507799999996,94.74365200000011,112.17968800000017,94.61523400000078,105.38476599999922,57.69238299999961,106.6665039999998,80.0,73.9741210000002,107.30761700000039
115,17.30761700000039,-1.6665039999998044,100.0,56.153809000000365,285.6411130000006,97.30761700000039,116.15380900000036,97.17968800000017,105.51269500000035,61.025878999999804,107.69238299999961,81.53857400000015,79.87158199999976,104.35888699999941
116,20.641113000000587,-1.7949220000000423,100.38476599999922,57.56396500000028,286.9228520000006,98.46142599999985,119.35888699999941,101.79492200000004,106.9228520000006,64.48730499999965,107.30761700000039,81.41015599999992,84.87158199999976,108.3334960000002
117,21.538574000000153,-3.4614259999998467,99.23095699999976,57.69238299999961,287.94873000000007,98.58984400000008,120.76904300000024,105.89746099999957,108.9741210000002,66.79492200000004,107.17968800000017,80.0,88.58984400000008,113.3334960000002
118,21.410155999999915,-4.230713000000378,97.56396500000028,56.79492200000004,290.51269500000035,100.38476599999922,121.79492200000004,107.69238299999961,111.15380900000036,67.43603499999972,109.10253900000043,78.9741210000002,91.53857400000015,110.89746099999957
119,21.153809000000365,-4.230713000000378,96.6665039999998,55.12841800000024,294.6152340000008,104.87158199999976,123.7177729999994,107.17968800000017,112.56396500000028,66.53857400000015,112.94873000000007,78.7177729999994,92.94873000000007,104.74365200000011
120,19.230956999999762,-5.38452099999995,96.0258789999998,52.94873000000007,297.05126999999993,108.9741210000002,125.76904300000024,105.0,112.43603499999972,64.35888699999941,115.89746099999957,78.46142599999985,91.41015599999992,104.87158199999976
121,15.512695000000349,-9.358886999999868,94.48730499999965,50.51269500000035,295.89746099999957,109.61523400000078,126.79492200000004,102.17968800000017,110.64111300000059,62.17968800000017,116.53857400000015,77.17968800000017,88.0771479999994,110.12841800000024
122,12.43603499999972,-14.358886999999868,92.69238299999961,49.102539000000434,292.5639650000003,107.17968800000017,127.17968800000017,100.64111300000059,108.9741210000002,62.17968800000017,115.12841800000024,75.76904300000024,87.17968800000017,110.89746099999957
123,12.051269999999931,-17.948729999999614,91.9228520000006,49.61523400000078,289.48730499999965,103.9741210000002,127.82031300000017,100.89746099999957,108.84619099999964,64.35888699999941,113.3334960000002,75.51269500000035,91.53857400000015,106.0258789999998
124,13.717772999999397,-19.61547900000005,92.94873000000007,51.53857400000015,287.4360349999997,101.53857400000015,128.84619099999964,101.6665039999998,109.48730499999965,66.79492200000004,111.53857400000015,76.9228520000006,99.10253900000043,104.61523400000078
125,15.641113000000587,-19.10253899999998,94.35888699999941,53.974121000000196,286.15380900000036,100.0,129.61523400000078,102.05126999999993,110.25634799999989,67.69238299999961,110.38476599999922,79.10253900000043,105.51269500000035,108.9741210000002
126,17.56396500000028,-15.897461000000021,95.51269500000035,57.05126999999993,286.0258789999998,100.25634799999989,130.2563479999999,102.56396500000028,111.41015599999992,67.94873000000007,111.0258789999998,81.6665039999998,108.46142599999985,110.76904300000024
127,20.0,-10.641113000000132,96.9228520000006,60.51269500000035,287.17968800000017,101.6665039999998,131.41015599999992,104.48730499999965,112.94873000000007,69.23095699999976,113.46142599999985,84.23095699999976,108.0771479999994,106.6665039999998
128,21.538574000000153,-6.794922000000042,98.46142599999985,62.56396500000028,287.5639650000003,102.43603499999972,132.94873000000007,106.79492200000004,113.58984400000008,71.15380900000036,114.87158199999976,85.0,104.87158199999976,104.87158199999976
129,20.25634799999989,-7.948729999999614,98.20507799999996,61.53857400000015,285.3847659999992,101.0258789999998,134.7436520000001,107.56396500000028,112.30761700000039,72.05126999999993,113.0771479999994,82.82031300000017,99.74365200000011,109.74365200000011
130,16.410155999999915,-13.58984399999963,95.25634799999989,58.46142599999985,281.9228520000006,99.10253900000043,136.6665039999998,106.41015599999992,110.0,71.15380900000036,109.48730499999965,78.46142599999985,94.48730499999965,113.3334960000002
131,12.82031300000017,-19.8718259999996,91.6665039999998,56.410155999999915,279.48730499999965,98.46142599999985,137.82031300000017,104.35888699999941,108.58984400000008,69.23095699999976,107.56396500000028,75.0,91.53857400000015,109.48730499999965
132,11.410155999999915,-23.461425999999847,90.25634799999989,56.9228520000006,278.5898440000001,98.3334960000002,136.53857400000015,102.43603499999972,108.7177729999994,68.0771479999994,108.46142599999985,74.35888699999941,91.79492200000004,104.87158199999976
133,11.922852000000603,-24.10253899999998,91.53857400000015,58.846190999999635,277.17968800000017,96.53857400000015,131.9228520000006,100.76904300000024,109.61523400000078,68.9741210000002,111.0258789999998,76.2822270000006,94.48730499999965,107.17968800000017
134,13.974121000000196,-22.30761700000039,93.84619099999964,60.51269500000035,274.87158199999976,92.94873000000007,126.15380900000036,100.0,110.38476599999922,72.30761700000039,112.82031300000017,79.10253900000043,98.9741210000002,111.53857400000015
135,16.922852000000603,-19.74365200000011,95.51269500000035,61.53857400000015,272.6923829999996,90.0,122.56396500000028,100.25634799999989,111.0258789999998,76.15380900000036,112.82031300000017,81.41015599999992,103.3334960000002,109.48730499999965
136,18.333496000000196,-19.10253899999998,95.64111300000059,62.17968800000017,271.15380900000036,89.35888699999941,122.94873000000007,100.76904300000024,110.64111300000059,77.17968800000017,110.38476599999922,82.05126999999993,103.46142599999985,104.23095699999976
137,15.897460999999566,-22.69238299999961,93.9741210000002,62.43603499999972,268.5898440000001,90.0,125.64111300000059,99.74365200000011,107.82031300000017,72.82031300000017,105.51269500000035,80.25634799999989,96.15380900000036,104.48730499999965
138,10.256347999999889,-28.974365000000034,91.15380900000036,63.0771479999994,265.3847659999992,90.51269500000035,127.82031300000017,97.43603499999972,103.46142599999985,65.12841800000024,100.12841800000024,77.30761700000039,84.23095699999976,108.9741210000002
139,5.512695000000349,-32.948729999999614,89.23095699999976,64.61523400000078,263.84619099999964,90.76904300000024,128.3334960000002,95.64111300000059,100.38476599999922,59.35888699999941,97.05126999999993,75.89746099999957,75.64111300000059,109.23095699999976
140,5.128418000000238,-31.666747999999643,89.48730499999965,66.9228520000006,265.12841800000024,91.15380900000036,127.17968800000017,96.0258789999998,100.89746099999957,59.87158199999976,97.56396500000028,77.17968800000017,76.79492200000004,105.25634799999989
141,8.205077999999958,-27.30761700000039,90.89746099999957,68.7177729999994,267.4360349999997,90.89746099999957,125.12841800000024,97.69238299999961,104.10253900000043,65.89746099999957,99.48730499999965,79.61523400000078,86.2822270000006,105.25634799999989
142,11.666503999999804,-23.58984399999963,91.41015599999992,69.48730499999965,268.5898440000001,90.12841800000024,123.20507799999996,98.9741210000002,107.56396500000028,73.58984400000008,100.51269500000035,80.76904300000024,97.43603499999972,110.25634799999989
143,13.846190999999635,-21.666747999999643,90.76904300000024,70.76904300000024,269.10253900000043,90.38476599999922,123.20507799999996,99.35888699999941,109.74365200000011,78.9741210000002,100.76904300000024,80.25634799999989,103.84619099999964,111.79492200000004
144,14.615234000000783,-21.153809000000365,90.38476599999922,73.84619099999964,270.51269500000035,93.0771479999994,125.12841800000024,99.61523400000078,110.12841800000024,80.51269500000035,101.41015599999992,79.35888699999941,103.46142599999985,107.30761700000039
145,14.230956999999762,-21.538574000000153,91.0258789999998,78.3334960000002,271.6665039999998,96.79492200000004,127.43603499999972,99.74365200000011,108.7177729999994,79.10253900000043,102.30761700000039,79.35888699999941,97.94873000000007,104.61523400000078
146,13.461425999999847,-22.564209000000574,91.53857400000015,82.30761700000039,271.0258789999998,100.12841800000024,128.84619099999964,99.74365200000011,106.6665039999998,77.05126999999993,102.56396500000028,80.0,91.6665039999998,107.82031300000017
147,13.205077999999958,-23.205077999999958,90.76904300000024,84.48730499999965,268.7177729999994,102.43603499999972,129.87158199999976,100.51269500000035,105.76904300000024,77.30761700000039,101.41015599999992,80.12841800000024,89.10253900000043,110.0
148,12.948730000000069,-23.333252000000357,88.46142599999985,84.87158199999976,266.2822270000006,103.58984400000008,130.76904300000024,102.69238299999961,107.30761700000039,79.74365200000011,98.7177729999994,78.7177729999994,90.51269500000035,106.6665039999998
149,10.384765999999217,-24.487060999999812,84.74365200000011,83.0771479999994,264.48730499999965,102.30761700000039,130.51269500000035,105.12841800000024,109.87158199999976,81.53857400000015,93.20507799999996,75.0,91.53857400000015,104.35888699999941
150,4.871581999999762,-26.923095999999987,80.64111300000059,79.87158199999976,263.3334960000002,98.0771479999994,127.94873000000007,105.38476599999922,111.0258789999998,79.87158199999976,85.25634799999989,69.87158199999976,88.0771479999994,108.3334960000002
151,-0.256347999999889,-28.205077999999958,78.20507799999996,77.94873000000007,264.7436520000001,93.9741210000002,124.48730499999965,103.58984400000008,109.74365200000011,75.64111300000059,78.20507799999996,66.6665039999998,81.9228520000006,112.56396500000028
152,0.12841800000023795,-25.769286999999622,79.48730499999965,79.87158199999976,269.6152340000008,93.9741210000002,122.94873000000007,101.53857400000015,107.56396500000028,72.43603499999972,77.05126999999993,68.58984400000008,78.46142599999985,109.74365200000011
153,7.051269999999931,-20.38452099999995,84.23095699999976,85.76904300000024,275.76904300000024,98.46142599999985,123.84619099999964,100.64111300000059,106.41015599999992,73.0771479999994,82.17968800000017,75.0,81.0258789999998,104.87158199999976
154,16.025878999999804,-15.38452099999995,89.35888699999941,92.82031300000017,278.5898440000001,103.58984400000008,124.87158199999976,100.12841800000024,107.17968800000017,77.17968800000017,89.10253900000043,81.6665039999998,87.69238299999961,106.6665039999998
155,22.82031300000017,-12.564209000000574,91.9228520000006,98.20507799999996,276.2822270000006,105.38476599999922,123.58984400000008,99.61523400000078,109.61523400000078,83.20507799999996,92.94873000000007,84.35888699999941,94.10253900000043,112.43603499999972
156,25.769043000000238,-10.897461000000021,91.6665039999998,100.12841800000024,270.6411130000006,103.9741210000002,120.38476599999922,99.87158199999976,112.69238299999961,89.23095699999976,91.53857400000015,82.94873000000007,97.17968800000017,112.94873000000007
157,24.74365200000011,-10.0,89.74365200000011,98.0771479999994,264.3588869999994,100.89746099999957,116.53857400000015,100.64111300000059,114.23095699999976,92.43603499999972,85.76904300000024,79.61523400000078,94.48730499999965,108.3334960000002
158,19.871581999999762,-10.897461000000021,87.17968800000017,93.20507799999996,257.94873000000007,97.82031300000017,113.3334960000002,100.89746099999957,112.05126999999993,90.12841800000024,77.05126999999993,76.15380900000036,85.64111300000059,106.79492200000004
159,12.82031300000017,-13.846190999999635,84.74365200000011,88.58984400000008,252.56396500000028,95.64111300000059,111.79492200000004,99.87158199999976,106.6665039999998,82.94873000000007,67.94873000000007,73.58984400000008,73.9741210000002,109.74365200000011
160,7.43603499999972,-17.179442999999992,84.23095699999976,87.43603499999972,249.7436520000001,95.76904300000024,112.30761700000039,98.9741210000002,101.2822270000006,74.87158199999976,60.76904300000024,72.56396500000028,65.25634799999989,110.25634799999989
161,5.641113000000587,-19.230713000000378,86.41015599999992,90.12841800000024,249.87158199999976,97.56396500000028,113.84619099999964,99.23095699999976,99.87158199999976,70.89746099999957,55.76904300000024,72.43603499999972,62.30761700000039,106.9228520000006
162,5.769043000000238,-20.512939000000188,89.48730499999965,93.20507799999996,250.6411130000006,98.84619099999964,113.9741210000002,99.61523400000078,102.56396500000028,71.6665039999998,50.0,72.43603499999972,62.69238299999961,107.17968800000017
163,5.3847659999992175,-21.923095999999987,90.38476599999922,94.10253900000043,250.12841800000024,98.58984400000008,111.6665039999998,99.61523400000078,107.56396500000028,75.25634799999989,42.30761700000039,71.53857400000015,61.666503999999804,111.79492200000004
164,5.3847659999992175,-22.30761700000039,88.7177729999994,93.0771479999994,248.7177729999994,98.46142599999985,109.35888699999941,99.61523400000078,112.69238299999961,79.87158199999976,35.51269500000035,71.15380900000036,59.102539000000434,112.69238299999961
165,7.307617000000391,-20.512939000000188,86.2822270000006,92.56396500000028,247.56396500000028,99.61523400000078,109.10253900000043,101.41015599999992,116.41015599999992,84.61523400000078,33.974121000000196,72.56396500000028,58.46142599999985,106.6665039999998
166,10.512695000000349,-17.820557000000008,85.38476599999922,93.58984400000008,246.15380900000036,101.0258789999998,110.51269500000035,104.23095699999976,117.43603499999972,89.10253900000043,37.43603499999972,74.87158199999976,62.43603499999972,102.56396500000028
167,13.846190999999635,-15.897461000000021,86.15380900000036,95.76904300000024,244.3588869999994,101.15380900000036,111.2822270000006,106.2822270000006,116.15380900000036,93.58984400000008,41.666503999999804,76.9228520000006,70.76904300000024,107.05126999999993
168,17.17968800000017,-14.102538999999979,87.82031300000017,98.84619099999964,243.7177729999994,101.15380900000036,110.51269500000035,106.9228520000006,114.61523400000078,98.46142599999985,41.53857400000015,78.84619099999964,80.64111300000059,112.69238299999961
169,21.410155999999915,-10.897461000000021,89.48730499999965,101.9228520000006,245.6411130000006,102.69238299999961,108.9741210000002,106.79492200000004,115.12841800000024,102.82031300000017,34.74365200000011,81.53857400000015,87.56396500000028,111.15380900000036
170,24.74365200000011,-7.179442999999992,89.87158199999976,103.20507799999996,247.6923829999996,104.48730499999965,106.9228520000006,105.89746099999957,116.41015599999992,104.10253900000043,20.769043000000238,84.10253900000043,87.05126999999993,106.2822270000006
171,24.230956999999762,-5.769286999999622,87.56396500000028,101.41015599999992,246.2822270000006,103.58984400000008,103.7177729999994,103.3334960000002,115.38476599999922,99.74365200000011,1.153809000000365,83.9741210000002,78.20507799999996,106.0258789999998
172,20.25634799999989,-6.923095999999987,82.43603499999972,98.0771479999994,241.2822270000006,100.51269500000035,99.35888699999941,99.48730499999965,111.0258789999998,90.76904300000024,-20.38452099999995,79.61523400000078,66.15380900000036,108.58984400000008
173,17.17968800000017,-7.051270000000386,77.94873000000007,96.6665039999998,236.41015599999992,98.58984400000008,95.64111300000059,96.2822270000006,105.89746099999957,82.94873000000007,-37.82055700000001,73.46142599999985,59.23095699999976,106.9228520000006
174,17.69238299999961,-4.230713000000378,77.05126999999993,98.84619099999964,234.87158199999976,99.74365200000011,93.46142599999985,95.51269500000035,103.3334960000002,80.25634799999989,-47.948729999999614,68.7177729999994,60.25634799999989,103.3334960000002
175,20.897460999999566,0.12841800000023795,80.0,103.20507799999996,237.17968800000017,102.94873000000007,92.56396500000028,96.9228520000006,104.48730499999965,83.0771479999994,-51.025634999999966,67.43603499999972,65.64111300000059,105.51269500000035
176,24.74365200000011,3.846190999999635,84.35888699999941,107.56396500000028,241.6665039999998,106.41015599999992,92.43603499999972,99.61523400000078,108.7177729999994,87.69238299999961,-50.0,69.35888699999941,69.61523400000078,111.2822270000006
177,28.461425999999847,6.922852000000603,88.0771479999994,110.76904300000024,246.53857400000015,109.35888699999941,93.3334960000002,103.0771479999994,114.61523400000078,91.53857400000015,-47.17944299999999,73.84619099999964,71.0258789999998,111.6665039999998
178,32.17968800000017,9.871581999999762,90.64111300000059,112.82031300000017,249.23095699999976,110.76904300000024,95.0,106.6665039999998,119.74365200000011,93.7177729999994,-44.35888699999987,79.74365200000011,72.17968800000017,106.2822270000006
179,35.25634799999989,12.43603499999972,91.79492200000004,113.3334960000002,247.56396500000028,109.74365200000011,96.0258789999998,109.23095699999976,121.6665039999998,95.25634799999989,-42.435790999999426,84.48730499999965,75.64111300000059,104.10253900000043
180,37.17968800000017,14.871581999999762,91.2822270000006,112.69238299999961,242.43603499999972,106.9228520000006,95.25634799999989,110.38476599999922,120.25634799999989,97.94873000000007,-41.66674799999964,86.79492200000004,81.0258789999998,107.82031300000017
181,39.23095699999976,18.461425999999847,90.12841800000024,112.43603499999972,238.46142599999985,105.76904300000024,93.20507799999996,111.0258789999998,118.3334960000002,102.05126999999993,-41.025634999999966,87.17968800000017,86.6665039999998,109.74365200000011
182,41.410155999999915,23.461425999999847,89.61523400000078,113.20507799999996,239.10253900000043,107.43603499999972,91.6665039999998,112.05126999999993,117.69238299999961,105.38476599999922,-40.25634799999989,87.30761700000039,89.35888699999941,106.6665039999998
183,41.79492200000004,27.05126999999993,90.25634799999989,113.84619099999964,242.6923829999996,109.74365200000011,90.76904300000024,112.56396500000028,117.43603499999972,104.48730499999965,-41.153809000000365,87.17968800000017,86.41015599999992,105.38476599999922
184,39.61523400000078,26.410155999999915,91.6665039999998,113.20507799999996,244.61523400000078,109.23095699999976,89.35888699999941,111.0258789999998,115.64111300000059,98.46142599999985,-44.35888699999987,86.2822270000006,78.46142599999985,110.0
185,37.05126999999993,22.56396500000028,92.82031300000017,111.79492200000004,242.94873000000007,106.2822270000006,87.43603499999972,107.94873000000007,112.30761700000039,91.41015599999992,-48.846190999999635,85.12841800000024,71.6665039999998,113.20507799999996
186,36.9228520000006,18.589844000000085,93.3334960000002,110.89746099999957,239.10253900000043,103.20507799999996,85.25634799999989,105.0,109.35888699999941,87.94873000000007,-51.79492200000004,84.74365200000011,71.15380900000036,109.23095699999976
187,38.7177729999994,16.410155999999915,92.82031300000017,110.76904300000024,235.0,100.89746099999957,82.82031300000017,102.82031300000017,107.94873000000007,89.61523400000078,-52.435790999999426,84.87158199999976,75.51269500000035,104.23095699999976
188,39.48730499999965,15.897460999999566,90.76904300000024,110.25634799999989,231.53857400000015,99.48730499999965,80.12841800000024,101.15380900000036,107.56396500000028,93.20507799999996,-51.92309599999999,83.58984400000008,78.9741210000002,106.15380900000036
189,37.94873000000007,16.666503999999804,87.82031300000017,109.48730499999965,229.87158199999976,99.74365200000011,78.3334960000002,100.0,107.94873000000007,95.12841800000024,-51.153809000000365,80.64111300000059,77.30761700000039,110.89746099999957
190,35.25634799999989,18.333496000000196,85.89746099999957,109.35888699999941,230.89746099999957,102.82031300000017,78.84619099999964,100.25634799999989,108.9741210000002,93.58984400000008,-50.89746100000002,77.05126999999993,70.89746099999957,110.38476599999922
191,32.69238299999961,19.230956999999762,86.0258789999998,110.0,232.82031300000017,107.30761700000039,81.41015599999992,101.41015599999992,110.25634799999989,89.87158199999976,-51.41015600000037,74.61523400000078,63.333496000000196,106.41015599999992
192,31.153809000000365,18.717772999999397,87.17968800000017,110.51269500000035,232.6923829999996,109.35888699999941,83.0771479999994,101.6665039999998,110.12841800000024,86.15380900000036,-51.53857400000015,74.10253900000043,58.846190999999635,106.15380900000036
193,32.30761700000039,18.717772999999397,87.94873000000007,110.25634799999989,230.12841800000024,107.82031300000017,81.41015599999992,100.76904300000024,108.46142599999985,85.76904300000024,-48.58984399999963,76.53857400000015,61.53857400000015,108.20507799999996
194,36.666503999999804,21.666503999999804,88.20507799999996,109.48730499999965,227.56396500000028,105.12841800000024,77.82031300000017,100.25634799999989,107.43603499999972,90.25634799999989,-41.53857400000015,82.05126999999993,72.05126999999993,105.89746099999957
195,41.153809000000365,25.641113000000587,88.46142599999985,107.94873000000007,226.79492200000004,104.10253900000043,75.64111300000059,102.30761700000039,108.7177729999994,97.30761700000039,-33.46142599999985,88.7177729999994,83.46142599999985,100.76904300000024
196,40.64111300000059,25.51269500000035,88.84619099999964,104.74365200000011,226.41015599999992,105.0,76.79492200000004,106.0258789999998,111.79492200000004,101.6665039999998,-29.8718259999996,92.56396500000028,85.76904300000024,101.79492200000004
197,33.0771479999994,19.102539000000434,88.9741210000002,100.12841800000024,225.2563479999999,106.6665039999998,80.25634799999989,109.87158199999976,115.12841800000024,100.38476599999922,-33.07690400000001,91.53857400000015,75.12841800000024,109.35888699999941
198,22.69238299999961,10.128418000000238,89.10253900000043,95.89746099999957,224.10253900000043,108.46142599999985,83.9741210000002,112.43603499999972,117.43603499999972,95.0,-39.61547900000005,87.69238299999961,57.69238299999961,113.7177729999994
199,16.153809000000365,5.0,89.48730499999965,94.61523400000078,224.61523400000078,109.87158199999976,85.0,113.0771479999994,117.94873000000007,90.25634799999989,-43.58984399999963,84.35888699999941,45.0,110.89746099999957
200,16.538574000000153,6.538574000000153,89.87158199999976,96.53857400000015,226.0258789999998,109.48730499999965,80.89746099999957,110.89746099999957,116.41015599999992,90.25634799999989,-41.53857400000015,83.58984400000008,45.51269500000035,107.82031300000017
201,22.69238299999961,12.307617000000391,89.48730499999965,100.25634799999989,226.41015599999992,107.30761700000039,72.56396500000028,106.79492200000004,114.10253900000043,96.53857400000015,-33.974365000000034,85.12841800000024,60.64111300000059,108.84619099999964
202,30.769043000000238,17.05126999999993,88.7177729999994,103.9741210000002,225.76904300000024,105.64111300000059,65.25634799999989,104.35888699999941,114.61523400000078,108.0771479999994,-22.820557000000008,87.69238299999961,85.25634799999989,108.20507799999996
203,34.48730499999965,15.384765999999217,88.20507799999996,106.2822270000006,224.7436520000001,106.9228520000006,64.35888699999941,106.41015599999992,119.35888699999941,121.6665039999998,-11.666747999999643,89.61523400000078,108.84619099999964,103.3334960000002
204,28.717772999999397,4.487304999999651,87.82031300000017,105.0,223.20507799999996,110.64111300000059,70.38476599999922,112.43603499999972,126.15380900000036,131.9228520000006,-4.230713000000378,89.10253900000043,120.0,101.41015599999992
205,13.205077999999958,-12.564209000000574,86.15380900000036,99.61523400000078,221.0258789999998,113.84619099999964,79.10253900000043,118.46142599999985,130.38476599999922,134.87158199999976,-2.4360349999997197,85.51269500000035,114.87158199999976,107.05126999999993
206,-5.38452099999995,-27.30761700000039,82.94873000000007,92.94873000000007,219.61523400000078,115.76904300000024,85.12841800000024,120.89746099999957,130.2563479999999,131.2822270000006,-3.5898440000000846,80.89746099999957,100.0,112.17968800000017
207,-18.205077999999958,-32.948729999999614,79.87158199999976,89.48730499999965,220.76904300000024,117.56396500000028,86.0258789999998,119.48730499999965,127.30761700000039,125.89746099999957,-4.230713000000378,77.94873000000007,87.30761700000039,108.84619099999964
208,-22.69238299999961,-30.769286999999622,78.3334960000002,90.64111300000059,223.84619099999964,119.35888699999941,82.17968800000017,115.64111300000059,124.48730499999965,122.56396500000028,-3.9741210000001956,77.30761700000039,82.82031300000017,102.17968800000017
209,-22.69238299999961,-28.333252000000357,78.20507799999996,93.7177729999994,225.89746099999957,119.61523400000078,76.2822270000006,111.6665039999998,122.94873000000007,122.43603499999972,-3.9741210000001956,76.9228520000006,84.48730499999965,102.05126999999993
210,-23.333252000000357,-30.641113000000132,78.0771479999994,95.51269500000035,225.51269500000035,118.58984400000008,71.6665039999998,109.35888699999941,122.82031300000017,125.0,-4.230713000000378,75.38476599999922,87.05126999999993,106.53857400000015
211,-27.051270000000386,-36.53857400000015,77.82031300000017,94.61523400000078,223.46142599999985,118.0771479999994,71.0258789999998,110.25634799999989,125.0,130.12841800000024,-2.0512699999999313,73.20507799999996,87.43603499999972,107.56396500000028
212,-32.564209000000574,-41.92309599999999,77.56396500000028,91.53857400000015,220.89746099999957,118.84619099999964,73.3334960000002,113.84619099999964,128.84619099999964,136.79492200000004,3.2050779999999577,71.53857400000015,85.64111300000059,105.12841800000024
213,-38.20507799999996,-44.35888699999987,76.9228520000006,87.82031300000017,217.6923829999996,118.9741210000002,75.38476599999922,117.30761700000039,132.56396500000028,142.6923829999996,8.461425999999847,70.25634799999989,82.56396500000028,106.15380900000036
214,-41.025634999999966,-43.46142599999985,75.51269500000035,85.51269500000035,214.7436520000001,117.30761700000039,75.0,118.3334960000002,134.3588869999994,145.6411130000006,10.384765999999217,68.3334960000002,79.87158199999976,109.61523400000078
215,-39.61547900000005,-39.74365200000011,73.46142599999985,85.76904300000024,213.9741210000002,115.38476599999922,73.20507799999996,116.53857400000015,133.46142599999985,143.7177729999994,8.717772999999397,65.89746099999957,79.10253900000043,108.0771479999994
216,-35.89746100000002,-35.38452099999995,71.79492200000004,87.05126999999993,216.0258789999998,115.12841800000024,71.9228520000006,112.94873000000007,128.58984400000008,135.38476599999922,5.256347999999889,63.333496000000196,78.84619099999964,102.05126999999993
217,-35.0,-33.974365000000034,70.64111300000059,86.15380900000036,218.3334960000002,116.2822270000006,71.15380900000036,107.82031300000017,118.84619099999964,120.51269500000035,1.2822270000006029,60.0,74.87158199999976,101.0258789999998
218,-39.23071300000038,-36.66674799999964,69.23095699999976,82.05126999999993,218.20507799999996,117.56396500000028,70.0,102.30761700000039,106.2822270000006,102.69238299999961,-2.1796869999998307,55.897460999999566,66.15380900000036,107.43603499999972
219,-45.1281740000004,-40.1281740000004,68.20507799999996,77.17968800000017,215.89746099999957,118.58984400000008,68.20507799999996,98.58984400000008,96.6665039999998,89.10253900000043,-2.6923829999996087,52.94873000000007,57.56396500000028,112.05126999999993
220,-46.53857400000015,-40.0,68.7177729999994,74.74365200000011,212.94873000000007,119.35888699999941,66.2822270000006,98.58984400000008,94.61523400000078,86.15380900000036,0.769043000000238,53.20507799999996,56.025878999999804,109.61523400000078
221,-42.17944299999999,-36.153809000000365,71.15380900000036,75.25634799999989,210.51269500000035,119.23095699999976,64.87158199999976,101.6665039999998,99.48730499999965,92.82031300000017,6.282227000000603,57.05126999999993,62.56396500000028,106.6665039999998
222,-35.25634799999989,-31.41015600000037,74.35888699999941,76.9228520000006,209.3588869999994,118.3334960000002,65.12841800000024,106.0258789999998,106.0258789999998,103.3334960000002,11.025878999999804,62.30761700000039,72.05126999999993,108.58984400000008
223,-29.230713000000378,-27.30761700000039,77.69238299999961,78.84619099999964,210.89746099999957,118.3334960000002,67.43603499999972,111.2822270000006,111.53857400000015,112.43603499999972,14.615234000000783,67.69238299999961,79.35888699999941,110.12841800000024
224,-24.8718259999996,-23.846190999999635,81.15380900000036,80.64111300000059,215.2563479999999,120.12841800000024,70.64111300000059,117.43603499999972,117.82031300000017,119.23095699999976,18.974121000000196,72.82031300000017,82.30761700000039,106.2822270000006
225,-22.30761700000039,-21.153809000000365,84.74365200000011,81.53857400000015,218.9741210000002,121.15380900000036,71.2822270000006,123.3334960000002,127.05126999999993,126.15380900000036,25.25634799999989,77.43603499999972,81.53857400000015,102.69238299999961
226,-21.538574000000153,-20.641113000000132,87.17968800000017,80.0,218.58984400000008,118.84619099999964,67.56396500000028,126.53857400000015,138.0771479999994,134.48730499999965,31.794922000000042,80.64111300000059,78.58984400000008,106.15380900000036
227,-21.923095999999987,-22.179442999999992,87.82031300000017,76.41015599999992,214.3588869999994,113.58984400000008,61.410155999999915,127.05126999999993,147.6923829999996,144.3588869999994,36.53857400000015,82.43603499999972,76.41015599999992,112.17968800000017
228,-22.435790999999426,-23.333252000000357,87.43603499999972,72.43603499999972,210.12841800000024,109.10253900000043,57.69238299999961,127.05126999999993,152.82031300000017,153.84619099999964,39.102539000000434,83.3334960000002,77.05126999999993,112.17968800000017
229,-23.58984399999963,-22.948729999999614,86.79492200000004,69.48730499999965,209.23095699999976,107.82031300000017,58.20507799999996,127.82031300000017,152.05126999999993,157.94873000000007,38.846190999999635,83.46142599999985,78.84619099999964,108.3334960000002
230,-26.025634999999966,-20.89746100000002,85.89746099999957,67.69238299999961,212.05126999999993,109.35888699999941,61.410155999999915,127.56396500000028,144.23095699999976,151.6665039999998,35.25634799999989,81.79492200000004,77.56396500000028,108.58984400000008
231,-28.205077999999958,-16.923095999999987,84.10253900000043,66.53857400000015,217.17968800000017,112.56396500000028,63.589844000000085,123.84619099999964,130.89746099999957,136.53857400000015,30.128418000000238,78.58984400000008,73.46142599999985,112.05126999999993
232,-26.666747999999643,-9.8718259999996,82.43603499999972,65.64111300000059,222.82031300000017,116.0258789999998,62.94873000000007,118.0771479999994,118.3334960000002,121.79492200000004,28.077147999999397,76.6665039999998,71.0258789999998,111.0258789999998
233,-21.41015600000037,-1.6665039999998044,81.53857400000015,63.333496000000196,225.12841800000024,117.82031300000017,60.25634799999989,114.23095699999976,114.61523400000078,117.82031300000017,31.794922000000042,78.20507799999996,72.94873000000007,105.12841800000024
234,-17.948729999999614,3.3334960000001956,80.64111300000059,57.05126999999993,220.51269500000035,117.17968800000017,58.46142599999985,115.76904300000024,121.6665039999998,125.64111300000059,39.48730499999965,80.89746099999957,75.0,103.0771479999994
235,-20.641113000000132,3.077147999999397,77.94873000000007,46.53857400000015,209.61523400000078,115.64111300000059,60.25634799999989,121.6665039999998,132.56396500000028,136.15380900000036,48.0771479999994,80.76904300000024,71.6665039999998,106.2822270000006
236,-27.435790999999426,0.8974609999995664,74.10253900000043,35.25634799999989,197.17968800000017,116.2822270000006,65.51269500000035,128.0771479999994,137.6923829999996,139.87158199999976,57.94873000000007,76.79492200000004,63.974121000000196,107.05126999999993
237,-32.051270000000386,2.5639650000002803,71.79492200000004,25.897460999999566,186.2822270000006,120.12841800000024,70.51269500000035,130.51269500000035,133.3334960000002,136.15380900000036,72.94873000000007,71.6665039999998,58.333496000000196,102.69238299999961
238,-30.512939000000188,10.512695000000349,72.05126999999993,17.94873000000007,173.46142599999985,123.9741210000002,70.89746099999957,126.79492200000004,123.3334960000002,132.43603499999972,96.15380900000036,69.23095699999976,60.0,100.0
239,-23.846190999999635,23.077147999999397,73.7177729999994,7.820313000000169,153.0771479999994,125.25634799999989,66.9228520000006,119.35888699999941,113.9741210000002,135.12841800000024,128.7177729999994,70.89746099999957,68.3334960000002,102.69238299999961
240,-15.512939000000188,38.333496000000196,75.25634799999989,-6.281981999999971,124.23095699999976,125.0,64.48730499999965,114.10253900000043,108.20507799999996,141.6665039999998,171.6665039999998,75.76904300000024,79.74365200000011,103.0771479999994
241,-8.461425999999847,54.87158199999976,76.41015599999992,-22.948729999999614,91.2822270000006,125.51269500000035,69.23095699999976,116.15380900000036,103.84619099999964,143.0771479999994,228.9741210000002,81.79492200000004,91.6665039999998,95.89746099999957
242,-3.4614259999998467,71.0258789999998,77.82031300000017,-40.0,58.333496000000196,126.2822270000006,80.64111300000059,125.76904300000024,96.41015599999992,131.9228520000006,305.0,86.53857400000015,103.20507799999996,87.43603499999972
243,0.256347999999889,86.41015599999992,79.74365200000011,-55.51293900000019,28.333496000000196,125.89746099999957,92.94873000000007,137.3076170000004,82.94873000000007,110.12841800000024,398.9741210000002,88.9741210000002,114.61523400000078,84.48730499999965
244,4.743652000000111,102.05126999999993,81.53857400000015,-69.10253899999998,5.128418000000238,124.61523400000078,101.0258789999998,145.12841800000024,64.48730499999965,86.53857400000015,502.17968800000017,89.48730499999965,125.76904300000024,81.79492200000004
245,10.128418000000238,119.10253900000043,82.05126999999993,-81.79492200000004,-6.923095999999987,124.23095699999976,103.0771479999994,146.6665039999998,44.102539000000434,70.38476599999922,598.8461909999996,89.23095699999976,137.56396500000028,71.53857400000015
246,13.717772999999397,136.9228520000006,81.0258789999998,-95.76928699999962,-5.256347999999889,124.87158199999976,100.76904300000024,143.7177729999994,26.410155999999915,64.23095699999976,673.7177729999994,88.20507799999996,153.20507799999996,57.30761700000039
247,14.102539000000434,154.48730499999965,78.46142599999985,-112.30761700000039,8.461425999999847,125.12841800000024,97.69238299999961,141.2822270000006,16.538574000000153,65.51269500000035,720.6411130000006,85.64111300000059,180.0,48.589844000000085
248,14.615234000000783,173.46142599999985,75.89746099999957,-129.4870609999998,31.025878999999804,125.38476599999922,98.7177729999994,144.87158199999976,18.589844000000085,71.2822270000006,747.5639650000003,82.43603499999972,227.82031300000017,44.74365200000011
249,21.153809000000365,196.9228520000006,75.64111300000059,-143.46142599999985,57.82031300000017,127.05126999999993,107.56396500000028,157.82031300000017,32.17968800000017,80.76904300000024,769.4873049999997,81.41015599999992,301.79492200000004,38.20507799999996
250,36.410155999999915,224.61523400000078,78.58984400000008,-151.923096,83.46142599999985,129.3588869999994,122.05126999999993,176.9228520000006,50.51269500000035,92.56396500000028,796.2822270000006,84.48730499999965,393.5898440000001,30.0
251,55.76904300000024,252.43603499999972,83.0771479999994,-155.1281740000004,103.0771479999994,128.9741210000002,135.89746099999957,193.9741210000002,62.94873000000007,102.05126999999993,825.7690430000002,90.51269500000035,482.05126999999993,28.974121000000196
252,72.56396500000028,276.79492200000004,86.41015599999992,-154.35888699999987,116.6665039999998,124.61523400000078,143.58984400000008,201.6665039999998,61.53857400000015,101.79492200000004,848.205078,95.76904300000024,544.8715819999998,36.410155999999915
253,83.20507799999996,296.6665039999998,86.2822270000006,-150.5129390000002,128.20507799999996,119.35888699999941,145.2563479999999,198.0771479999994,46.53857400000015,88.20507799999996,855.8974609999996,97.30761700000039,572.1796880000002,43.974121000000196
254,88.46142599999985,312.5639650000003,83.0771479999994,-144.4870609999998,140.12841800000024,115.76904300000024,144.23095699999976,187.56396500000028,27.94873000000007,68.0771479999994,849.7436520000001,95.0,572.9487300000001,48.0771479999994
255,92.43603499999972,324.87158199999976,79.87158199999976,-137.0512700000004,149.61523400000078,112.94873000000007,141.9228520000006,178.0771479999994,21.666503999999804,58.974121000000196,839.3588869999994,92.43603499999972,567.0512699999999,55.0
256,98.84619099999964,334.48730499999965,80.25634799999989,-128.20507799999996,151.41015599999992,109.87158199999976,138.7177729999994,176.15380900000036,40.12841800000024,76.53857400000015,835.0,93.3334960000002,567.1796880000002,68.3334960000002
257,106.41015599999992,341.6665039999998,83.7177729999994,-118.71801800000003,143.46142599999985,108.9741210000002,136.2822270000006,182.17968800000017,78.7177729999994,116.41015599999992,835.2563479999999,97.43603499999972,565.8974609999996,82.17968800000017
258,107.43603499999972,344.10253900000043,85.12841800000024,-110.76928699999962,128.0771479999994,113.3334960000002,137.82031300000017,187.56396500000028,112.69238299999961,150.51269500000035,824.2309569999998,98.3334960000002,541.1538090000004,91.9228520000006
259,96.0258789999998,338.7177729999994,79.74365200000011,-105.51293900000019,109.23095699999976,121.79492200000004,143.20507799999996,181.2822270000006,114.61523400000078,147.82031300000017,783.3334960000002,90.25634799999989,480.76904300000024,103.20507799999996
260,76.41015599999992,328.9741210000002,70.0,-100.0,92.30761700000039,129.7436520000001,149.48730499999965,160.38476599999922,80.89746099999957,103.3334960000002,708.5898440000001,75.25634799999989,400.76904300000024,119.87158199999976
261,63.20507799999996,325.3847659999992,62.69238299999961,-88.71801800000003,82.17968800000017,132.6923829999996,153.84619099999964,134.87158199999976,37.82031300000017,45.25634799999989,615.3847659999992,63.589844000000085,336.2822270000006,135.12841800000024
262,66.79492200000004,335.76904300000024,62.69238299999961,-70.0,81.15380900000036,128.84619099999964,155.6411130000006,118.58984400000008,18.333496000000196,9.871581999999762,524.3588869999994,63.7177729999994,309.7436520000001,140.89746099999957
263,81.9228520000006,356.15380900000036,67.82031300000017,-48.71801800000003,88.0771479999994,118.84619099999964,154.23095699999976,116.2822270000006,33.333496000000196,9.102539000000434,445.6411130000006,73.0771479999994,309.48730499999965,140.2563479999999
264,92.82031300000017,373.20507799999996,72.43603499999972,-31.794922000000042,101.0258789999998,106.53857400000015,150.0,120.76904300000024,65.89746099999957,24.230956999999762,377.4360349999997,80.89746099999957,302.17968800000017,140.89746099999957
265,89.23095699999976,375.89746099999957,72.82031300000017,-22.051270000000386,118.7177729999994,98.46142599999985,145.76904300000024,122.17968800000017,91.2822270000006,30.0,316.79492200000004,80.12841800000024,265.51269500000035,142.56396500000028
266,75.51269500000035,363.7177729999994,70.25634799999989,-16.28198199999997,139.23095699999976,98.7177729999994,144.61523400000078,117.82031300000017,98.9741210000002,19.102539000000434,266.0258789999998,74.10253900000043,206.9228520000006,141.79492200000004
267,65.38476599999922,345.51269500000035,68.58984400000008,-9.8718259999996,158.58984400000008,105.12841800000024,147.94873000000007,110.76904300000024,94.35888699999941,3.4614259999998467,227.43603499999972,71.53857400000015,153.0771479999994,141.15380900000036
268,69.74365200000011,331.2822270000006,70.64111300000059,0.769043000000238,172.17968800000017,110.64111300000059,153.46142599999985,105.25634799999989,89.23095699999976,-2.4360349999997197,196.79492200000004,76.79492200000004,124.74365200000011,145.2563479999999
269,90.0,327.05126999999993,76.53857400000015,16.666503999999804,180.12841800000024,110.89746099999957,158.46142599999985,103.46142599999985,91.53857400000015,6.666503999999804,166.9228520000006,87.69238299999961,122.17968800000017,150.12841800000024
270,118.84619099999964,331.53857400000015,83.9741210000002,36.025878999999804,187.05126999999993,108.3334960000002,162.17968800000017,106.6665039999998,103.9741210000002,27.94873000000007,133.58984400000008,99.48730499999965,129.48730499999965,148.46142599999985
271,144.3588869999994,337.17968800000017,90.38476599999922,54.35888699999941,195.51269500000035,106.9228520000006,165.51269500000035,114.10253900000043,123.20507799999996,55.0,97.82031300000017,108.58984400000008,128.7177729999994,142.94873000000007
272,158.0771479999994,336.0258789999998,94.74365200000011,68.20507799999996,202.6923829999996,108.3334960000002,168.20507799999996,121.53857400000015,140.6411130000006,78.84619099999964,62.69238299999961,113.3334960000002,112.30761700000039,141.9228520000006
273,162.05126999999993,327.05126999999993,97.94873000000007,78.7177729999994,203.46142599999985,111.2822270000006,170.51269500000035,124.48730499999965,146.53857400000015,90.51269500000035,31.538574000000153,115.0,87.43603499999972,146.41015599999992
274,166.53857400000015,317.4360349999997,101.79492200000004,90.89746099999957,196.53857400000015,113.9741210000002,173.20507799999996,122.05126999999993,138.9741210000002,88.7177729999994,8.333496000000196,117.56396500000028,69.10253900000043,149.87158199999976
275,180.0,314.23095699999976,106.6665039999998,107.82031300000017,184.48730499999965,114.74365200000011,176.9228520000006,118.0771479999994,125.0,81.79492200000004,-5.38452099999995,124.74365200000011,65.25634799999989,151.0258789999998
276,199.23095699999976,316.79492200000004,111.6665039999998,127.43603499999972,171.2822270000006,111.79492200000004,180.51269500000035,116.41015599999992,113.9741210000002,80.64111300000059,-13.333252000000357,134.23095699999976,68.46142599999985,155.12841800000024
277,214.7436520000001,318.20507799999996,114.48730499999965,145.76904300000024,160.51269500000035,106.53857400000015,182.94873000000007,117.82031300000017,110.38476599999922,88.84619099999964,-22.179442999999992,139.7436520000001,65.25634799999989,162.43603499999972
278,221.2822270000006,313.9741210000002,114.74365200000011,161.0258789999998,153.3334960000002,104.10253900000043,185.38476599999922,121.53857400000015,113.46142599999985,103.46142599999985,-34.61547900000005,139.10253900000043,51.9228520000006,167.6923829999996
279,223.46142599999985,305.2563479999999,114.10253900000043,174.61523400000078,145.76904300000024,108.0771479999994,190.38476599999922,127.17968800000017,120.64111300000059,120.51269500000035,-46.41015600000037,136.79492200000004,39.102539000000434,171.9228520000006
280,228.84619099999964,295.89746099999957,114.74365200000011,188.3334960000002,128.0771479999994,115.25634799999989,197.17968800000017,132.94873000000007,128.3334960000002,136.79492200000004,-53.07690400000001,137.94873000000007,37.30761700000039,181.2822270000006
281,238.84619099999964,287.4360349999997,116.53857400000015,202.6923829999996,92.43603499999972,118.84619099999964,202.56396500000028,136.0258789999998,132.6923829999996,148.46142599999985,-56.153809000000365,141.9228520000006,45.25634799999989,191.79492200000004
282,249.3588869999994,280.12841800000024,117.43603499999972,218.0771479999994,40.897460999999566,116.0258789999998,205.2563479999999,135.6411130000006,131.79492200000004,154.3588869999994,-60.1281740000004,144.7436520000001,52.05126999999993,189.23095699999976
283,256.9228520000006,275.3847659999992,116.0258789999998,235.89746099999957,-14.102538999999979,110.51269500000035,206.6665039999998,135.12841800000024,129.7436520000001,159.7436520000001,-65.76928699999962,145.76904300000024,50.25634799999989,168.3334960000002
284,261.79492200000004,275.2563479999999,114.10253900000043,257.17968800000017,-61.66674799999964,106.6665039999998,208.46142599999985,137.94873000000007,132.17968800000017,173.84619099999964,-69.8718259999996,147.43603499999972,42.94873000000007,141.79492200000004
285,265.89746099999957,278.84619099999964,113.58984400000008,281.4101559999999,-100.0,105.51269500000035,210.76904300000024,142.82031300000017,140.12841800000024,198.84619099999964,-70.89746100000002,150.76904300000024,37.43603499999972,123.20507799999996
286,270.6411130000006,283.7177729999994,114.74365200000011,308.5898440000001,-134.23071300000038,105.38476599999922,213.46142599999985,146.0258789999998,147.56396500000028,225.6411130000006,-71.92309599999999,153.9741210000002,37.94873000000007,112.05126999999993
287,276.6665039999998,286.79492200000004,115.89746099999957,338.3334960000002,-168.97436500000003,106.41015599999992,217.6923829999996,144.48730499999965,146.53857400000015,242.17968800000017,-77.05127000000039,155.0,42.69238299999961,103.3334960000002
288,282.6923829999996,285.2563479999999,115.38476599999922,369.10253900000043,-207.3076170000004,108.84619099999964,223.7177729999994,138.46142599999985,134.61523400000078,245.0,-87.56420900000057,153.46142599999985,46.153809000000365,99.74365200000011
289,285.51269500000035,276.53857400000015,112.30761700000039,397.82031300000017,-252.179443,110.76904300000024,228.46142599999985,129.48730499999965,117.56396500000028,242.6923829999996,-101.66674799999964,149.3588869999994,43.7177729999994,104.48730499999965
290,284.10253900000043,261.2822270000006,107.05126999999993,422.4360349999997,-304.102539,109.74365200000011,228.3334960000002,120.12841800000024,105.0,247.6923829999996,-116.15380900000036,143.46142599999985,36.2822270000006,109.74365200000011
291,282.05126999999993,245.0,101.0258789999998,443.9741210000002,-358.20507799999996,106.6665039999998,223.3334960000002,113.46142599999985,103.20507799999996,267.3076170000004,-128.076904,138.3334960000002,30.128418000000238,106.53857400000015
292,284.10253900000043,231.79492200000004,96.41015599999992,464.7436520000001,-405.64111300000013,103.9741210000002,217.56396500000028,111.79492200000004,110.64111300000059,297.82031300000017,-136.41015600000037,136.15380900000036,31.025878999999804,99.35888699999941
293,291.4101559999999,220.38476599999922,94.35888699999941,485.51269500000035,-439.7436520000001,101.15380900000036,214.23095699999976,115.0,120.51269500000035,329.87158199999976,-142.9487299999996,136.2822270000006,38.974121000000196,99.61523400000078
294,301.15380900000036,206.53857400000015,95.12841800000024,505.51269500000035,-458.46142599999985,95.64111300000059,213.0771479999994,120.38476599999922,128.3334960000002,357.5639650000003,-148.46142599999985,136.53857400000015,49.87158199999976,106.0258789999998
295,310.89746099999957,190.76904300000024,97.56396500000028,523.5898440000001,-463.20507799999996,87.43603499999972,212.17968800000017,126.0258789999998,134.10253900000043,381.15380900000036,-151.53857400000015,136.79492200000004,61.153809000000365,107.17968800000017
296,319.48730499999965,177.6923829999996,100.76904300000024,538.0771479999994,-458.33325200000036,80.89746099999957,211.53857400000015,129.48730499999965,138.46142599999985,401.79492200000004,-151.53857400000015,138.7177729999994,71.2822270000006,100.89746099999957
297,325.0,169.48730499999965,102.94873000000007,546.5385740000002,-451.41015600000037,80.0,212.3076170000004,128.3334960000002,139.48730499999965,416.6665039999998,-152.43579099999943,141.9228520000006,77.30761700000039,98.20507799999996
298,324.7436520000001,163.58984400000008,102.43603499999972,547.3076170000004,-449.35888699999987,83.3334960000002,214.87158199999976,122.56396500000028,136.2822270000006,422.4360349999997,-159.61547900000005,142.6923829999996,77.17968800000017,104.23095699999976
299,320.12841800000024,157.43603499999972,99.23095699999976,542.3076170000004,-453.076904,87.05126999999993,218.20507799999996,116.53857400000015,133.0771479999994,422.05126999999993,-172.820557,139.48730499999965,73.58984400000008,110.25634799999989
300,314.87158199999976,151.0258789999998,95.0,535.0,-456.28198199999997,88.46142599999985,220.76904300000024,115.38476599999922,134.3588869999994,421.0258789999998,-186.28198199999997,133.9741210000002,71.79492200000004,108.3334960000002
301,311.4101559999999,144.7436520000001,91.79492200000004,527.0512699999999,-453.46142599999985,87.17968800000017,221.15380900000036,118.84619099999964,137.6923829999996,419.6152340000008,-195.38452099999995,128.3334960000002,72.94873000000007,103.84619099999964
302,307.82031300000017,136.6665039999998,89.74365200000011,517.1796880000002,-444.8718259999996,83.58984400000008,219.23095699999976,121.0258789999998,136.53857400000015,413.0771479999994,-200.38452099999995,123.0771479999994,73.7177729999994,104.35888699999941
303,302.6923829999996,126.2822270000006,88.3334960000002,504.7436520000001,-434.7436520000001,79.61523400000078,217.17968800000017,118.3334960000002,129.7436520000001,401.53857400000015,-203.71801800000003,118.7177729999994,71.79492200000004,106.2822270000006
304,297.94873000000007,117.05126999999993,88.3334960000002,491.6665039999998,-425.897461,78.0771479999994,218.7177729999994,113.9741210000002,123.7177729999994,391.79492200000004,-206.02563499999997,117.69238299999961,70.38476599999922,103.20507799999996
305,295.3847659999992,112.30761700000039,91.15380900000036,479.3588869999994,-419.61547900000005,79.87158199999976,225.76904300000024,113.3334960000002,124.23095699999976,389.23095699999976,-207.56420900000057,121.15380900000036,72.30761700000039,98.58984400000008
306,293.9741210000002,111.41015599999992,96.41015599999992,467.17968800000017,-415.5129390000002,82.94873000000007,235.76904300000024,117.82031300000017,129.48730499999965,390.12841800000024,-210.0,126.41015599999992,75.38476599999922,100.64111300000059
307,291.9228520000006,111.15380900000036,101.9228520000006,453.20507799999996,-411.41015600000037,84.74365200000011,244.23095699999976,123.9741210000002,134.10253900000043,387.4360349999997,-212.56420900000057,130.51269500000035,76.9228520000006,107.30761700000039
308,289.48730499999965,108.7177729999994,105.76904300000024,436.53857400000015,-404.2307130000004,85.25634799999989,248.58984400000008,128.9741210000002,135.6411130000006,378.84619099999964,-212.3076170000004,132.6923829999996,77.94873000000007,108.9741210000002
309,286.15380900000036,103.20507799999996,107.69238299999961,417.6923829999996,-393.20507799999996,85.38476599999922,249.61523400000078,130.89746099999957,133.84619099999964,366.4101559999999,-207.6923829999996,134.10253900000043,80.64111300000059,104.23095699999976
310,279.87158199999976,94.87158199999976,108.46142599999985,397.4360349999997,-380.1281740000004,85.38476599999922,249.7436520000001,129.23095699999976,128.58984400000008,350.89746099999957,-202.0512700000004,133.9741210000002,83.3334960000002,102.05126999999993
311,270.0,86.0258789999998,107.94873000000007,377.05126999999993,-365.897461,84.61523400000078,250.6411130000006,124.48730499999965,119.61523400000078,331.15380900000036,-199.8718259999996,131.2822270000006,83.0771479999994,106.0258789999998
312,259.87158199999976,81.9228520000006,107.17968800000017,358.20507799999996,-347.179443,83.9741210000002,253.84619099999964,119.35888699999941,109.87158199999976,308.7177729999994,-199.7436520000001,127.17968800000017,81.6665039999998,109.23095699999976
313,253.46142599999985,85.38476599999922,107.69238299999961,341.6665039999998,-319.7436520000001,83.9741210000002,258.5898440000001,117.30761700000039,103.84619099999964,287.17968800000017,-194.8718259999996,124.87158199999976,84.23095699999976,106.6665039999998
314,250.89746099999957,93.58984400000008,110.0,324.87158199999976,-284.61547900000005,83.84619099999964,262.82031300000017,118.46142599999985,103.0771479999994,268.5898440000001,-179.10253899999998,125.64111300000059,93.3334960000002,103.7177729999994
315,248.3334960000002,99.74365200000011,112.56396500000028,304.87158199999976,-248.076904,82.94873000000007,265.2563479999999,120.64111300000059,105.0,251.2822270000006,-151.41015600000037,128.0771479999994,105.76904300000024,106.0258789999998
316,242.3076170000004,100.38476599999922,113.20507799999996,280.89746099999957,-217.43579099999943,83.0771479999994,267.5639650000003,122.82031300000017,106.9228520000006,233.0771479999994,-114.8718259999996,130.38476599999922,117.43603499999972,108.58984400000008
317,232.56396500000028,96.79492200000004,112.30761700000039,255.2563479999999,-196.79492200000004,86.15380900000036,272.4360349999997,126.0258789999998,108.0771479999994,214.48730499999965,-73.97436500000003,131.6665039999998,126.0258789999998,105.0
318,220.51269500000035,92.05126999999993,111.41015599999992,230.89746099999957,-186.53857400000015,91.0258789999998,280.12841800000024,130.51269500000035,108.58984400000008,197.17968800000017,-33.33325200000036,131.9228520000006,131.2822270000006,99.10253900000043
319,208.84619099999964,88.20507799999996,112.17968800000017,208.58984400000008,-182.820557,94.74365200000011,287.94873000000007,134.87158199999976,108.46142599999985,181.9228520000006,4.102539000000434,131.53857400000015,135.38476599999922,98.46142599999985
320,200.6411130000006,86.79492200000004,113.9741210000002,187.82031300000017,-177.820557,96.15380900000036,292.94873000000007,137.6923829999996,107.94873000000007,168.9741210000002,38.333496000000196,131.41015599999992,142.56396500000028,101.2822270000006
321,197.05126999999993,86.9228520000006,115.38476599999922,168.0771479999994,-165.0,96.41015599999992,294.48730499999965,138.58984400000008,107.30761700000039,157.82031300000017,70.64111300000059,132.17968800000017,156.41015599999992,99.48730499999965
322,194.61523400000078,85.38476599999922,115.12841800000024,149.3588869999994,-145.5129390000002,95.76904300000024,293.46142599999985,137.94873000000007,105.64111300000059,146.6665039999998,100.76904300000024,132.05126999999993,174.87158199999976,92.94873000000007
323,188.0771479999994,78.9741210000002,112.56396500000028,131.53857400000015,-126.66674799999964,93.58984400000008,291.79492200000004,135.89746099999957,101.53857400000015,133.0771479999994,126.41015599999992,129.10253900000043,191.79492200000004,89.10253900000043
324,176.6665039999998,69.35888699999941,108.46142599999985,115.64111300000059,-113.97436500000003,91.2822270000006,292.6923829999996,133.58984400000008,95.38476599999922,118.58984400000008,146.79492200000004,124.10253900000043,202.94873000000007,89.74365200000011
325,165.6411130000006,62.17968800000017,105.51269500000035,103.0771479999994,-106.28198199999997,91.79492200000004,298.20507799999996,132.6923829999996,90.76904300000024,107.69238299999961,163.58984400000008,120.89746099999957,209.10253900000043,88.46142599999985
326,160.51269500000035,59.87158199999976,106.15380900000036,94.35888699999941,-99.23071300000038,95.25634799999989,306.6665039999998,133.7177729999994,90.76904300000024,104.48730499999965,178.9741210000002,122.69238299999961,212.6923829999996,83.3334960000002
327,161.53857400000015,60.25634799999989,109.87158199999976,88.84619099999964,-90.1281740000004,98.7177729999994,312.94873000000007,134.61523400000078,95.12841800000024,108.58984400000008,192.05126999999993,128.84619099999964,214.87158199999976,81.53857400000015
328,166.15380900000036,61.025878999999804,113.9741210000002,86.6665039999998,-79.48706099999981,100.0,312.94873000000007,134.23095699999976,100.89746099999957,116.41015599999992,201.15380900000036,136.2822270000006,216.15380900000036,86.79492200000004
329,172.05126999999993,63.974121000000196,116.6665039999998,89.10253900000043,-69.10253899999998,99.74365200000011,306.53857400000015,133.0771479999994,105.0,123.3334960000002,204.7436520000001,142.43603499999972,218.9741210000002,93.3334960000002
330,178.20507799999996,71.2822270000006,117.56396500000028,96.2822270000006,-61.53857400000015,99.35888699999941,297.5639650000003,132.3076170000004,106.0258789999998,126.15380900000036,202.56396500000028,146.53857400000015,224.7436520000001,96.53857400000015
331,183.0771479999994,79.87158199999976,118.0771479999994,105.51269500000035,-59.35888699999987,98.58984400000008,290.2563479999999,131.6665039999998,104.23095699999976,125.12841800000024,195.76904300000024,148.7177729999994,232.05126999999993,101.41015599999992
332,186.53857400000015,83.46142599999985,119.10253900000043,112.69238299999961,-62.30761700000039,97.69238299999961,288.0771479999994,131.2822270000006,102.05126999999993,123.46142599999985,187.43603499999972,150.0,238.46142599999985,111.53857400000015
333,190.2563479999999,78.7177729999994,121.41015599999992,115.89746099999957,-67.05127000000039,98.84619099999964,292.4360349999997,132.3076170000004,102.69238299999961,126.2822270000006,182.17968800000017,152.6923829999996,243.46142599999985,119.74365200000011
334,195.51269500000035,68.46142599999985,124.87158199999976,116.2822270000006,-69.8718259999996,103.20507799999996,301.0258789999998,135.2563479999999,106.9228520000006,134.10253900000043,181.79492200000004,157.94873000000007,246.79492200000004,118.7177729999994
335,200.6411130000006,59.61523400000078,128.20507799999996,116.41015599999992,-69.61547900000005,108.3334960000002,307.17968800000017,137.94873000000007,111.6665039999998,141.53857400000015,182.56396500000028,163.9741210000002,248.0771479999994,113.20507799999996
336,204.7436520000001,61.666503999999804,129.48730499999965,119.23095699999976,-65.76928699999962,110.25634799999989,305.6411130000006,137.94873000000007,113.20507799999996,143.0771479999994,180.0,167.94873000000007,247.94873000000007,112.82031300000017
337,210.6411130000006,81.6665039999998,128.9741210000002,126.2822270000006,-57.051270000000386,108.58984400000008,296.79492200000004,136.0258789999998,111.15380900000036,138.58984400000008,173.3334960000002,169.48730499999965,249.3588869999994,117.56396500000028
338,222.3076170000004,118.58984400000008,128.84619099999964,137.17968800000017,-43.846190999999635,105.89746099999957,285.76904300000024,133.9741210000002,107.94873000000007,132.05126999999993,165.51269500000035,170.0,253.0771479999994,120.38476599999922
339,239.48730499999965,160.76904300000024,130.89746099999957,148.20507799999996,-30.769286999999622,103.58984400000008,276.9228520000006,132.3076170000004,105.38476599999922,127.30761700000039,157.82031300000017,170.0,255.38476599999922,120.76904300000024
340,255.89746099999957,193.46142599999985,134.23095699999976,155.0,-23.58984399999963,101.15380900000036,271.4101559999999,129.23095699999976,103.7177729999994,124.48730499999965,149.7436520000001,169.10253900000043,250.2563479999999,123.46142599999985
341,266.4101559999999,209.87158199999976,136.0258789999998,156.79492200000004,-23.71801800000003,99.23095699999976,268.0771479999994,124.35888699999941,102.05126999999993,122.30761700000039,140.38476599999922,167.17968800000017,235.76904300000024,127.05126999999993
342,270.2563479999999,214.7436520000001,135.0,155.89746099999957,-27.179442999999992,98.58984400000008,265.2563479999999,118.7177729999994,99.87158199999976,118.58984400000008,130.38476599999922,164.87158199999976,215.2563479999999,124.23095699999976
343,270.0,219.3588869999994,132.56396500000028,155.89746099999957,-29.74365200000011,98.9741210000002,260.76904300000024,113.0771479999994,95.89746099999957,110.89746099999957,119.87158199999976,162.05126999999993,193.20507799999996,115.76904300000024
344,269.23095699999976,231.9228520000006,131.41015599999992,158.84619099999964,-28.846190999999635,97.94873000000007,252.82031300000017,107.30761700000039,90.12841800000024,98.84619099999964,109.35888699999941,159.10253900000043,173.20507799999996,111.6665039999998
345,271.2822270000006,253.9741210000002,132.82031300000017,165.0,-23.58984399999963,95.12841800000024,242.6923829999996,102.17968800000017,84.35888699999941,86.2822270000006,100.64111300000059,157.56396500000028,158.20507799999996,114.87158199999976
346,277.4360349999997,280.51269500000035,136.53857400000015,172.3076170000004,-13.974365000000034,92.94873000000007,233.9741210000002,99.87158199999976,81.53857400000015,78.7177729999994,95.76904300000024,158.9741210000002,149.3588869999994,117.05126999999993
347,284.3588869999994,303.0771479999994,140.51269500000035,178.0771479999994,-3.717772999999397,93.58984400000008,229.3588869999994,100.51269500000035,82.56396500000028,77.69238299999961,92.82031300000017,162.3076170000004,144.3588869999994,112.30761700000039
348,286.53857400000015,315.51269500000035,142.82031300000017,179.87158199999976,1.7949220000000423,96.0258789999998,227.6923829999996,102.17968800000017,84.35888699999941,78.84619099999964,87.05126999999993,163.46142599999985,136.9228520000006,106.79492200000004
349,282.05126999999993,319.6152340000008,142.3076170000004,177.82031300000017,0.512695000000349,98.7177729999994,226.6665039999998,102.43603499999972,84.23095699999976,76.6665039999998,76.41015599999992,160.38476599999922,123.20507799999996,106.41015599999992
350,274.6152340000008,322.3076170000004,140.38476599999922,175.12841800000024,-3.846190999999635,101.41015599999992,225.6411130000006,101.41015599999992,81.53857400000015,69.87158199999976,64.10253900000043,154.87158199999976,104.61523400000078,107.05126999999993
351,268.5898440000001,329.3588869999994,139.61523400000078,174.3588869999994,-5.897461000000021,104.74365200000011,224.3588869999994,99.74365200000011,77.56396500000028,60.12841800000024,54.23095699999976,150.0,85.0,103.3334960000002
352,264.6152340000008,340.0,140.6411130000006,175.51269500000035,-4.102538999999979,107.05126999999993,221.6665039999998,97.30761700000039,73.20507799999996,49.87158199999976,47.82031300000017,146.6665039999998,66.15380900000036,100.25634799999989
353,260.51269500000035,350.12841800000024,141.41015599999992,176.0258789999998,0.256347999999889,106.9228520000006,216.41015599999992,93.58984400000008,68.7177729999994,41.025878999999804,42.56396500000028,143.9741210000002,47.69238299999961,104.87158199999976
354,254.3588869999994,357.05126999999993,139.87158199999976,174.23095699999976,5.897460999999566,105.64111300000059,209.48730499999965,89.61523400000078,65.0,34.87158199999976,37.30761700000039,141.53857400000015,29.74365200000011,112.69238299999961
355,244.87158199999976,359.6152340000008,135.76904300000024,170.38476599999922,11.666503999999804,105.25634799999989,202.82031300000017,86.53857400000015,62.17968800000017,31.025878999999804,31.282227000000603,138.84619099999964,11.153809000000365,113.84619099999964
356,231.2822270000006,357.3076170000004,130.76904300000024,165.2563479999999,15.641113000000587,105.51269500000035,197.43603499999972,83.84619099999964,59.48730499999965,26.794922000000042,23.461425999999847,134.23095699999976,-10.0,109.10253900000043
357,214.48730499999965,351.0258789999998,127.05126999999993,160.2563479999999,16.666503999999804,105.0,192.6923829999996,80.38476599999922,55.897460999999566,20.384765999999217,13.333496000000196,127.05126999999993,-33.58984399999963,107.17968800000017
358,198.9741210000002,345.2563479999999,125.38476599999922,157.17968800000017,16.922852000000603,103.58984400000008,188.7177729999994,77.05126999999993,52.94873000000007,12.948730000000069,3.077147999999397,119.23095699999976,-55.64111300000013,109.74365200000011
359,189.10253900000043,344.3588869999994,126.41015599999992,156.6665039999998,19.74365200000011,102.94873000000007,185.6411130000006,75.89746099999957,52.69238299999961,8.205077999999958,-3.846190999999635,114.23095699999976,-70.64111300000013,109.87158199999976
360,184.3588869999994,348.20507799999996,129.61523400000078,157.43603499999972,25.51269500000035,103.46142599999985,182.82031300000017,77.43603499999972,55.0,8.077147999999397,-6.41015600000037,113.20507799999996,-78.33325200000036,106.41015599999992
361,180.6411130000006,352.6923829999996,132.94873000000007,157.17968800000017,32.43603499999972,104.48730499999965,178.84619099999964,80.25634799999989,57.56396500000028,11.025878999999804,-6.666747999999643,114.10253900000043,-83.97436500000003,107.17968800000017
362,174.7436520000001,354.48730499999965,134.7436520000001,155.76904300000024,39.74365200000011,106.0258789999998,173.9741210000002,82.43603499999972,58.46142599999985,15.256347999999889,-6.794922000000042,114.87158199999976,-91.53857400000015,113.46142599999985
363,166.41015599999992,353.3334960000002,134.61523400000078,154.87158199999976,48.589844000000085,109.10253900000043,170.12841800000024,83.84619099999964,58.46142599999985,18.846190999999635,-7.564209000000574,114.74365200000011,-100.89746100000002,116.15380900000036
364,156.41015599999992,350.0,133.20507799999996,155.12841800000024,58.974121000000196,112.69238299999961,168.3334960000002,84.87158199999976,58.46142599999985,20.25634799999989,-10.38452099999995,113.0771479999994,-109.8718259999996,110.51269500000035
365,144.48730499999965,343.84619099999964,130.76904300000024,155.12841800000024,67.94873000000007,113.9741210000002,167.3076170000004,84.87158199999976,58.7177729999994,18.077147999999397,-16.538574000000153,109.35888699999941,-117.82055700000001,104.74365200000011
366,131.41015599999992,336.0258789999998,126.79492200000004,153.3334960000002,72.56396500000028,112.43603499999972,165.2563479999999,84.10253900000043,58.46142599999985,13.461425999999847,-25.512939000000188,103.58984400000008,-125.25634799999989,105.76904300000024
367,118.9741210000002,329.6152340000008,121.79492200000004,149.23095699999976,73.0771479999994,110.64111300000059,161.6665039999998,83.3334960000002,58.46142599999985,9.102539000000434,-33.71801800000003,97.05126999999993,-132.56420900000057,108.46142599999985
368,107.82031300000017,326.6665039999998,117.05126999999993,143.84619099999964,71.0258789999998,110.51269500000035,157.05126999999993,82.82031300000017,58.46142599999985,5.769043000000238,-38.20507799999996,90.38476599999922,-140.89746100000002,106.0258789999998
369,96.6665039999998,325.2563479999999,113.46142599999985,137.94873000000007,67.94873000000007,111.15380900000036,151.6665039999998,81.0258789999998,57.69238299999961,1.9228520000006029,-38.974365000000034,83.58984400000008,-151.66674799999964,102.69238299999961
370,84.74365200000011,323.0771479999994,110.76904300000024,133.0771479999994,66.15380900000036,110.89746099999957,146.15380900000036,77.30761700000039,55.51269500000035,-2.9487300000000687,-37.564209000000574,76.79492200000004,-163.20507799999996,105.25634799999989
371,74.61523400000078,319.7436520000001,108.84619099999964,130.51269500000035,68.46142599999985,109.87158199999976,142.43603499999972,73.46142599999985,53.7177729999994,-6.666747999999643,-34.8718259999996,71.6665039999998,-170.76928699999962,109.61523400000078
372,67.94873000000007,316.0258789999998,108.20507799999996,130.2563479999999,76.15380900000036,109.87158199999976,141.41015599999992,72.30761700000039,53.974121000000196,-7.564209000000574,-31.153809000000365,68.58984400000008,-171.923096,107.94873000000007
373,63.333496000000196,311.79492200000004,108.3334960000002,130.12841800000024,86.2822270000006,110.89746099999957,142.17968800000017,74.10253900000043,55.76904300000024,-6.666747999999643,-28.333252000000357,66.0258789999998,-170.38452099999995,103.0771479999994
374,56.79492200000004,306.4101559999999,107.43603499999972,127.56396500000028,94.74365200000011,112.30761700000039,142.17968800000017,75.89746099999957,56.9228520000006,-7.051270000000386,-28.71801800000003,62.05126999999993,-172.179443,103.7177729999994
375,47.05126999999993,301.15380900000036,103.46142599999985,122.05126999999993,100.25634799999989,114.23095699999976,140.2563479999999,75.12841800000024,56.2822270000006,-10.512939000000188,-32.435790999999426,56.410155999999915,-179.35888699999987,108.9741210000002
376,35.38476599999922,297.5639650000003,97.56396500000028,115.0,103.58984400000008,116.41015599999992,137.05126999999993,71.79492200000004,54.48730499999965,-16.28198199999997,-38.20507799999996,50.12841800000024,-189.7436520000001,110.0
377,23.589844000000085,293.84619099999964,92.56396500000028,108.58984400000008,105.12841800000024,117.56396500000028,133.20507799999996,66.9228520000006,52.43603499999972,-23.076904000000013,-43.46142599999985,43.974121000000196,-200.38452099999995,106.2822270000006
378,12.692382999999609,288.3334960000002,90.64111300000059,104.48730499999965,104.87158199999976,116.2822270000006,128.84619099999964,62.43603499999972,50.51269500000035,-28.205077999999958,-45.38452099999995,39.23095699999976,-208.58984399999963,105.64111300000059
379,5.256347999999889,282.5639650000003,91.79492200000004,103.3334960000002,104.48730499999965,113.9741210000002,125.0,60.38476599999922,50.0,-28.205077999999958,-41.28198199999997,37.69238299999961,-211.79492200000004,109.74365200000011
380,3.077147999999397,280.2563479999999,94.74365200000011,105.0,106.6665039999998,113.84619099999964,122.82031300000017,61.410155999999915,51.666503999999804,-22.820557000000008,-31.923095999999987,39.35888699999941,-209.61547900000005,110.51269500000035
381,3.5898440000000846,281.53857400000015,97.82031300000017,107.17968800000017,110.64111300000059,116.0258789999998,122.30761700000039,63.20507799999996,53.846190999999635,-17.179442999999992,-23.974365000000034,41.153809000000365,-207.179443,105.12841800000024
382,0.12841800000023795,282.17968800000017,98.3334960000002,106.15380900000036,112.82031300000017,117.69238299999961,121.79492200000004,62.56396500000028,53.20507799999996,-18.461425999999847,-25.0,38.333496000000196,-212.43579099999943,101.41015599999992
383,-10.897461000000021,277.94873000000007,94.10253900000043,100.51269500000035,111.41015599999992,116.53857400000015,120.12841800000024,58.7177729999994,48.974121000000196,-27.564209000000574,-35.64111300000013,30.25634799999989,-227.179443,104.35888699999941
