,EEG.AF3,EEG.F7,EEG.F3,EEG.FC5,EEG.T7,EEG.P7,EEG.O1,EEG.O2,EEG.P8,EEG.T8,EEG.FC6,EEG.F4,EEG.F8,EEG.AF4
0,37.94873000000007,-87.05127000000039,74.48730499999965,407.17968800000017,-116.02563499999997,83.20507799999996,-53.07690400000001,19.615234000000783,104.74365200000011,168.9741210000002,-228.58984399999963,71.2822270000006,21.922852000000603,114.87158199999976
1,73.0771479999994,-42.17944299999999,89.61523400000078,422.17968800000017,-127.94872999999961,67.05126999999993,-44.10253899999998,32.30761700000039,116.41015599999992,188.0771479999994,-225.2563479999999,90.51269500000035,43.589844000000085,112.43603499999972
2,106.79492200000004,-1.7949220000000423,105.25634799999989,432.5639650000003,-140.5129390000002,53.333496000000196,-35.0,49.102539000000434,130.2563479999999,207.3076170000004,-223.84619099999964,109.61523400000078,66.79492200000004,107.43603499999972
3,123.3334960000002,18.974121000000196,112.43603499999972,430.6411130000006,-145.89746100000002,48.974121000000196,-33.46142599999985,57.94873000000007,136.15380900000036,214.23095699999976,-232.0512700000004,117.30761700000039,71.2822270000006,107.30761700000039
4,120.0,21.282227000000603,107.56396500000028,415.89746099999957,-141.02563499999997,55.0,-41.92309599999999,52.94873000000007,129.7436520000001,204.87158199999976,-249.10253899999998,110.76904300000024,50.64111300000059,108.7177729999994
5,107.82031300000017,19.358886999999413,96.0258789999998,395.0,-128.58984399999963,66.9228520000006,-54.8718259999996,38.46142599999985,115.25634799999989,186.0258789999998,-266.66674799999964,96.53857400000015,16.794922000000042,105.0
6,102.05126999999993,26.282227000000603,88.0771479999994,377.05126999999993,-116.92309599999999,76.2822270000006,-63.846190999999635,26.282227000000603,102.56396500000028,170.12841800000024,-275.38452099999995,86.41015599999992,-10.38452099999995,100.12841800000024
7,108.7177729999994,43.0771479999994,88.9741210000002,368.0771479999994,-115.25634799999989,76.2822270000006,-63.46142599999985,26.025878999999804,100.51269500000035,166.53857400000015,-273.58984399999963,87.56396500000028,-18.974365000000034,101.79492200000004
8,122.69238299999961,61.666503999999804,96.41015599999992,368.7177729999994,-125.0,67.30761700000039,-55.25634799999989,38.0771479999994,110.64111300000059,175.2563479999999,-267.3076170000004,97.30761700000039,-12.307617000000391,106.41015599999992
9,134.61523400000078,75.12841800000024,103.7177729999994,375.12841800000024,-138.46142599999985,56.666503999999804,-46.153809000000365,54.48730499999965,125.76904300000024,188.0771479999994,-264.8718259999996,106.41015599999992,-3.077147999999397,105.0
10,138.7177729999994,83.46142599999985,106.53857400000015,380.6411130000006,-145.89746100000002,52.17968800000017,-42.564209000000574,64.23095699999976,135.51269500000035,194.10253900000043,-270.0,108.3334960000002,-2.9487300000000687,100.0
11,136.2822270000006,91.15380900000036,104.61523400000078,379.23095699999976,-144.23071300000038,55.0,-46.153809000000365,60.51269500000035,133.3334960000002,187.82031300000017,-279.102539,102.69238299999961,-15.0,100.25634799999989
12,132.82031300000017,102.05126999999993,100.51269500000035,369.87158199999976,-138.33325200000036,60.51269500000035,-53.846190999999635,46.53857400000015,121.79492200000004,172.3076170000004,-285.64111300000013,94.35888699999941,-33.07690400000001,104.23095699999976
13,133.3334960000002,117.05126999999993,97.94873000000007,357.17968800000017,-133.84619099999964,64.10253900000043,-60.25634799999989,32.43603499999972,109.74365200000011,156.2822270000006,-285.1281740000004,89.10253900000043,-47.82055700000001,102.30761700000039
14,138.9741210000002,133.9741210000002,99.35888699999941,345.76904300000024,-132.179443,64.87158199999976,-61.41015600000037,27.69238299999961,104.74365200000011,146.0258789999998,-278.58984399999963,89.87158199999976,-54.23071300000038,95.76904300000024
15,146.15380900000036,149.3588869999994,103.58984400000008,334.87158199999976,-131.41015600000037,65.64111300000059,-57.17944299999999,33.7177729999994,107.82031300000017,141.79492200000004,-272.820557,94.74365200000011,-54.74365200000011,94.87158199999976
16,149.7436520000001,161.15380900000036,106.9228520000006,319.87158199999976,-128.33325200000036,68.84619099999964,-50.1281740000004,44.102539000000434,114.23095699999976,139.7436520000001,-274.61547900000005,98.84619099999964,-55.0,100.51269500000035
17,147.82031300000017,169.61523400000078,107.56396500000028,298.7177729999994,-120.51293900000019,75.51269500000035,-43.33325200000036,51.025878999999804,117.69238299999961,135.6411130000006,-286.02563499999997,98.9741210000002,-58.846190999999635,102.05126999999993
18,141.9228520000006,177.43603499999972,107.17968800000017,274.3588869999994,-107.82055700000001,84.10253900000043,-39.8718259999996,49.74365200000011,114.23095699999976,127.56396500000028,-301.923096,95.25634799999989,-66.02563499999997,97.17968800000017
19,135.0,186.0258789999998,107.69238299999961,251.0258789999998,-93.33325200000036,90.89746099999957,-41.28198199999997,40.25634799999989,103.9741210000002,115.25634799999989,-314.4870609999998,89.87158199999976,-75.64111300000013,96.2822270000006
20,128.9741210000002,194.87158199999976,108.58984400000008,230.0,-82.17944299999999,93.0771479999994,-46.41015600000037,26.538574000000153,91.41015599999992,101.79492200000004,-318.20507799999996,85.12841800000024,-86.28198199999997,102.30761700000039
21,125.64111300000059,203.7177729999994,109.10253900000043,209.3588869999994,-75.76928699999962,91.6665039999998,-50.76928699999962,16.282227000000603,83.58984400000008,92.94873000000007,-311.923096,83.58984400000008,-94.10253899999998,104.87158199999976
22,127.43603499999972,212.56396500000028,111.79492200000004,187.05126999999993,-71.53857400000015,91.6665039999998,-48.07690400000001,18.205077999999958,86.15380900000036,93.58984400000008,-298.076904,88.0771479999994,-93.58984399999963,99.23095699999976
23,133.3334960000002,220.89746099999957,119.10253900000043,161.0258789999998,-65.25634799999989,96.2822270000006,-36.53857400000015,34.23095699999976,99.35888699999941,101.9228520000006,-280.7692869999996,98.46142599999985,-83.07690400000001,95.64111300000059
24,139.10253900000043,227.94873000000007,128.84619099999964,131.41015599999992,-55.38452099999995,103.46142599999985,-20.641113000000132,57.05126999999993,116.79492200000004,109.48730499999965,-264.2307130000004,110.12841800000024,-68.20507799999996,100.38476599999922
25,140.2563479999999,234.87158199999976,135.6411130000006,100.51269500000035,-43.846190999999635,108.3334960000002,-7.307617000000391,75.76904300000024,130.2563479999999,108.20507799999996,-249.61547900000005,117.82031300000017,-56.66674799999964,102.82031300000017
26,136.6665039999998,245.6411130000006,136.53857400000015,73.3334960000002,-33.58984399999963,108.3334960000002,-0.6411130000005869,83.84619099999964,134.7436520000001,96.9228520000006,-233.97436500000003,120.51269500000035,-51.41015600000037,95.0
27,130.2563479999999,262.05126999999993,133.46142599999985,52.05126999999993,-27.30761700000039,104.35888699999941,0.256347999999889,81.6665039999998,130.76904300000024,80.38476599999922,-215.38452099999995,120.12841800000024,-50.38452099999995,86.79492200000004
28,121.41015599999992,279.48730499999965,128.9741210000002,33.589844000000085,-25.641113000000132,99.61523400000078,-2.3076170000003913,72.17968800000017,120.51269500000035,63.20507799999996,-196.53857400000015,116.79492200000004,-51.66674799999964,88.9741210000002
29,109.48730499999965,290.6411130000006,123.58984400000008,12.948730000000069,-24.487060999999812,97.17968800000017,-6.538574000000153,58.974121000000196,107.17968800000017,47.82031300000017,-182.0512700000004,109.10253900000043,-54.35888699999987,93.9741210000002
30,97.05126999999993,292.94873000000007,118.58984400000008,-10.38452099999995,-17.30761700000039,99.74365200000011,-10.0,46.53857400000015,95.0,36.53857400000015,-171.15380900000036,99.23095699999976,-56.025634999999966,89.74365200000011
31,89.87158199999976,292.17968800000017,116.79492200000004,-31.28198199999997,-0.8974609999995664,106.53857400000015,-9.8718259999996,40.64111300000059,88.7177729999994,32.05126999999993,-155.76928699999962,93.3334960000002,-52.69238299999961,81.79492200000004
32,90.64111300000059,296.79492200000004,119.61523400000078,-45.51293900000019,20.769043000000238,112.69238299999961,-4.102538999999979,44.23095699999976,90.89746099999957,34.61523400000078,-125.76928699999962,95.89746099999957,-42.435790999999426,82.30761700000039
33,96.9228520000006,310.76904300000024,124.61523400000078,-55.51293900000019,39.87158199999976,113.58984400000008,6.410155999999915,55.64111300000059,98.46142599999985,39.61523400000078,-75.64111300000013,105.51269500000035,-27.948729999999614,87.43603499999972
34,103.84619099999964,332.6923829999996,128.9741210000002,-66.92309599999999,53.0771479999994,110.64111300000059,18.717772999999397,70.12841800000024,105.64111300000059,42.05126999999993,-6.538574000000153,116.79492200000004,-12.564209000000574,83.9741210000002
35,107.82031300000017,356.53857400000015,132.6923829999996,-83.07690400000001,63.333496000000196,108.9741210000002,29.615234000000783,83.58984400000008,107.56396500000028,40.0,73.58984400000008,125.76904300000024,2.9487300000000687,73.9741210000002
36,106.6665039999998,375.6411130000006,136.6665039999998,-101.79492200000004,76.2822270000006,111.15380900000036,37.43603499999972,93.0771479999994,103.9741210000002,34.87158199999976,151.9228520000006,130.0,18.461425999999847,72.43603499999972
37,99.61523400000078,386.15380900000036,139.3588869999994,-117.94872999999961,96.2822270000006,114.10253900000043,41.79492200000004,96.9228520000006,97.43603499999972,28.974121000000196,217.82031300000017,128.20507799999996,33.0771479999994,80.76904300000024
38,89.35888699999941,390.76904300000024,138.0771479999994,-125.89746100000002,125.0,114.74365200000011,43.589844000000085,95.12841800000024,90.51269500000035,23.461425999999847,269.23095699999976,121.41015599999992,46.410155999999915,84.87158199999976
39,82.17968800000017,396.9228520000006,133.9741210000002,-122.69238299999961,161.6665039999998,113.58984400000008,45.76904300000024,91.0258789999998,85.12841800000024,18.846190999999635,313.3334960000002,114.74365200000011,60.76904300000024,80.0
40,82.43603499999972,409.3588869999994,131.15380900000036,-113.07690400000001,201.0258789999998,112.43603499999972,50.897460999999566,89.23095699999976,81.79492200000004,16.025878999999804,359.23095699999976,113.7177729999994,80.89746099999957,78.20507799999996
41,88.9741210000002,426.53857400000015,131.79492200000004,-108.58984399999963,236.2822270000006,112.43603499999972,59.48730499999965,92.56396500000028,80.12841800000024,14.358886999999413,410.76904300000024,118.7177729999994,109.48730499999965,85.64111300000059
42,97.43603499999972,444.10253900000043,135.12841800000024,-118.97436500000003,265.76904300000024,113.58984400000008,69.74365200000011,99.87158199999976,78.9741210000002,10.769043000000238,466.6665039999998,126.0258789999998,146.2822270000006,91.6665039999998
43,105.25634799999989,458.84619099999964,139.10253900000043,-142.179443,296.2822270000006,116.6665039999998,79.35888699999941,108.58984400000008,77.17968800000017,1.153809000000365,525.2563479999999,131.6665039999998,188.3334960000002,88.46142599999985
44,112.05126999999993,470.51269500000035,143.0771479999994,-165.2563479999999,337.82031300000017,120.76904300000024,87.82031300000017,115.38476599999922,74.74365200000011,-15.512939000000188,586.2822270000006,135.2563479999999,231.53857400000015,85.38476599999922
45,118.84619099999964,478.9741210000002,146.41015599999992,-175.2563479999999,395.51269500000035,122.43603499999972,96.2822270000006,118.84619099999964,72.05126999999993,-35.25634799999989,648.8461909999996,137.56396500000028,273.9741210000002,92.94873000000007
46,126.9228520000006,486.15380900000036,148.58984400000008,-168.33325200000036,467.94873000000007,119.35888699999941,106.2822270000006,119.35888699999941,69.35888699999941,-52.051270000000386,710.2563479999999,138.9741210000002,317.05126999999993,104.48730499999965
47,137.56396500000028,495.89746099999957,150.38476599999922,-151.79492200000004,548.9741210000002,114.23095699999976,118.46142599999985,119.23095699999976,66.53857400000015,-62.82055700000001,765.8974609999996,140.89746099999957,362.3076170000004,107.69238299999961
48,150.76904300000024,511.4101559999999,152.82031300000017,-138.84619099999964,631.0258789999998,111.2822270000006,132.3076170000004,120.25634799999989,63.589844000000085,-69.35888699999987,810.1284180000002,144.48730499999965,406.79492200000004,104.35888699999941
49,164.10253900000043,530.8974609999996,155.89746099999957,-139.10253899999998,706.5385740000002,110.89746099999957,146.53857400000015,123.0771479999994,61.9228520000006,-74.8718259999996,837.6923829999996,149.10253900000043,441.79492200000004,105.38476599999922
50,174.61523400000078,548.4614259999998,157.94873000000007,-152.43579099999943,771.0258789999998,110.0,160.0,128.20507799999996,63.46142599999985,-81.53857400000015,848.9741210000002,151.9228520000006,459.87158199999976,111.15380900000036
51,182.05126999999993,559.1025390000004,157.3076170000004,-169.35888699999987,827.5639650000003,106.2822270000006,172.05126999999993,135.0,68.46142599999985,-89.61547900000005,851.5385740000002,151.41015599999992,461.4101559999999,111.9228520000006
52,187.56396500000028,560.7690430000002,153.58984400000008,-180.2563479999999,883.4614259999998,101.79492200000004,182.17968800000017,140.51269500000035,73.0771479999994,-99.8718259999996,854.2309569999998,147.56396500000028,454.48730499999965,106.6665039999998
53,190.89746099999957,555.2563479999999,147.56396500000028,-182.820557,942.8203130000002,98.9741210000002,190.51269500000035,140.6411130000006,72.30761700000039,-112.43579099999943,860.0,141.53857400000015,448.3334960000002,105.76904300000024
54,192.6923829999996,547.1796880000002,141.0258789999998,-180.5129390000002,1001.9228520000006,98.20507799999996,197.6923829999996,134.61523400000078,64.87158199999976,-123.97436500000003,865.8974609999996,134.61523400000078,450.2563479999999,113.0771479999994
55,195.12841800000024,542.4360349999997,137.05126999999993,-175.76928699999962,1052.05127,97.82031300000017,205.76904300000024,127.82031300000017,55.897460999999566,-128.46142599999985,868.3334960000002,130.2563479999999,462.94873000000007,119.23095699999976
56,200.6411130000006,543.7177729999994,138.20507799999996,-167.179443,1085.5126950000003,96.15380900000036,216.9228520000006,126.79492200000004,52.94873000000007,-122.17944299999999,866.2822270000006,131.41015599999992,482.5639650000003,117.17968800000017
57,207.05126999999993,546.5385740000002,143.20507799999996,-152.43579099999943,1100.7690430000002,92.56396500000028,231.6665039999998,133.46142599999985,58.846190999999635,-107.82055700000001,859.2309569999998,137.05126999999993,499.10253900000043,113.0771479999994
58,209.23095699999976,542.4360349999997,146.9228520000006,-133.71801800000003,1101.6665039999998,88.58984400000008,247.94873000000007,142.6923829999996,69.10253900000043,-92.94872999999961,846.9228520000006,141.2822270000006,502.82031300000017,115.25634799999989
59,204.10253900000043,527.3076170000004,145.0,-117.43579099999943,1094.6152340000008,87.30761700000039,263.7177729999994,148.20507799999996,76.41015599999992,-83.71801800000003,830.0,139.3588869999994,491.79492200000004,120.51269500000035
60,194.3588869999994,505.2563479999999,138.3334960000002,-110.76928699999962,1084.2309569999998,90.0,277.5639650000003,148.0771479999994,77.30761700000039,-79.8718259999996,810.6411130000006,131.9228520000006,473.3334960000002,120.76904300000024
61,184.23095699999976,485.12841800000024,131.79492200000004,-115.25634799999989,1070.3847659999992,95.0,289.23095699999976,144.48730499999965,74.48730499999965,-75.38452099999995,789.6152340000008,124.23095699999976,456.15380900000036,117.30761700000039
62,176.2822270000006,472.05126999999993,128.84619099999964,-124.35888699999987,1049.3588869999994,97.94873000000007,298.5898440000001,140.89746099999957,73.58984400000008,-64.48706099999981,764.4873049999997,120.12841800000024,443.46142599999985,117.56396500000028
63,170.2563479999999,464.7436520000001,129.23095699999976,-125.76928699999962,1019.1025390000004,96.41015599999992,305.12841800000024,138.84619099999964,78.3334960000002,-46.41015600000037,731.2822270000006,119.48730499999965,433.3334960000002,121.9228520000006
64,164.23095699999976,457.5639650000003,129.23095699999976,-110.1281740000004,982.0512699999999,91.9228520000006,309.7436520000001,137.82031300000017,87.17968800000017,-26.794922000000042,688.3334960000002,119.35888699999941,422.17968800000017,122.56396500000028
65,155.6411130000006,444.6152340000008,125.38476599999922,-77.94872999999961,942.4360349999997,86.9228520000006,313.46142599999985,135.2563479999999,94.87158199999976,-14.743652000000111,637.9487300000001,116.0258789999998,405.51269500000035,117.56396500000028
66,142.94873000000007,424.10253900000043,117.05126999999993,-38.974365000000034,902.5639650000003,82.94873000000007,317.4360349999997,129.3588869999994,97.17968800000017,-15.769286999999622,586.2822270000006,108.46142599999985,380.3847659999992,114.61523400000078
67,128.3334960000002,400.51269500000035,107.94873000000007,-3.5898440000000846,862.8203130000002,80.51269500000035,322.05126999999993,121.53857400000015,94.61523400000078,-26.794922000000042,539.4873049999997,99.74365200000011,350.89746099999957,118.58984400000008
68,117.94873000000007,380.6411130000006,103.46142599999985,24.358886999999413,822.9487300000001,79.61523400000078,326.9228520000006,115.64111300000059,91.79492200000004,-37.564209000000574,500.76904300000024,94.87158199999976,328.3334960000002,123.3334960000002
69,115.38476599999922,367.05126999999993,106.15380900000036,46.9228520000006,781.6665039999998,80.0,331.79492200000004,113.7177729999994,92.94873000000007,-39.10253899999998,466.53857400000015,95.76904300000024,323.5898440000001,123.0771479999994
70,117.43603499999972,356.15380900000036,112.30761700000039,66.79492200000004,737.0512699999999,80.38476599999922,336.0258789999998,114.23095699999976,97.43603499999972,-31.538574000000153,429.3588869999994,99.10253900000043,335.89746099999957,121.2822270000006
71,117.17968800000017,342.5639650000003,115.25634799999989,85.0,688.4614259999998,80.64111300000059,338.9741210000002,112.43603499999972,100.89746099999957,-22.69238299999961,384.7436520000001,99.23095699999976,352.05126999999993,123.9741210000002
72,110.51269500000035,325.3847659999992,111.53857400000015,100.51269500000035,638.3334960000002,81.41015599999992,339.87158199999976,105.51269500000035,99.61523400000078,-20.25634799999989,336.2822270000006,93.7177729999994,358.20507799999996,127.94873000000007
73,99.23095699999976,308.20507799999996,103.7177729999994,112.30761700000039,591.1538090000004,82.17968800000017,338.0771479999994,94.10253900000043,94.48730499999965,-23.974365000000034,292.3076170000004,84.48730499999965,349.48730499999965,126.79492200000004
74,88.7177729999994,294.6152340000008,97.82031300000017,120.25634799999989,549.6152340000008,80.76904300000024,333.7177729999994,82.17968800000017,90.25634799999989,-27.179442999999992,259.23095699999976,76.53857400000015,332.17968800000017,121.9228520000006
75,84.23095699999976,283.9741210000002,98.3334960000002,126.2822270000006,513.4614259999998,77.05126999999993,328.5898440000001,75.12841800000024,91.79492200000004,-23.076904000000013,238.58984400000008,74.74365200000011,318.46142599999985,120.38476599999922
76,88.20507799999996,274.6152340000008,105.51269500000035,131.79492200000004,482.4360349999997,74.48730499999965,325.76904300000024,76.2822270000006,100.12841800000024,-11.538574000000153,227.17968800000017,80.51269500000035,316.79492200000004,122.82031300000017
77,97.43603499999972,264.87158199999976,113.9741210000002,134.7436520000001,456.0258789999998,76.6665039999998,327.82031300000017,84.23095699999976,109.87158199999976,-0.256347999999889,219.48730499999965,90.64111300000059,326.2822270000006,122.94873000000007
78,105.51269500000035,253.84619099999964,117.69238299999961,129.61523400000078,434.10253900000043,82.56396500000028,332.94873000000007,92.43603499999972,112.17968800000017,1.153809000000365,210.6411130000006,98.3334960000002,336.9228520000006,119.61523400000078
79,107.30761700000039,242.6923829999996,113.9741210000002,113.84619099999964,416.6665039999998,87.43603499999972,336.6665039999998,93.84619099999964,102.43603499999972,-10.512939000000188,199.48730499999965,99.61523400000078,339.7436520000001,118.3334960000002
80,104.87158199999976,233.84619099999964,107.17968800000017,92.30761700000039,405.89746099999957,88.7177729999994,335.3847659999992,87.94873000000007,85.12841800000024,-27.435790999999426,189.48730499999965,96.2822270000006,335.12841800000024,120.51269500000035
81,104.23095699999976,228.9741210000002,103.7177729999994,75.76904300000024,403.5898440000001,87.17968800000017,329.3588869999994,81.2822270000006,71.2822270000006,-37.051270000000386,186.0258789999998,93.84619099999964,331.79492200000004,119.35888699999941
82,109.10253900000043,225.89746099999957,106.6665039999998,71.2822270000006,407.3076170000004,85.64111300000059,321.2822270000006,80.51269500000035,70.0,-32.17944299999999,190.0,95.51269500000035,336.6665039999998,112.17968800000017
83,117.43603499999972,221.6665039999998,113.46142599999985,76.2822270000006,410.76904300000024,85.89746099999957,314.3588869999994,86.6665039999998,81.9228520000006,-16.41015600000037,197.3076170000004,101.0258789999998,349.10253900000043,105.89746099999957
84,125.51269500000035,217.94873000000007,119.87158199999976,81.6665039999998,410.12841800000024,89.10253900000043,310.12841800000024,95.51269500000035,98.7177729999994,0.38476599999921746,204.10253900000043,108.46142599999985,362.3076170000004,106.41015599999992
85,130.6411130000006,219.3588869999994,123.3334960000002,78.9741210000002,405.0,95.64111300000059,308.9741210000002,101.79492200000004,111.15380900000036,10.256347999999889,209.10253900000043,116.9228520000006,371.4101559999999,109.10253900000043
86,132.6923829999996,227.3076170000004,124.10253900000043,66.0258789999998,396.79492200000004,102.69238299999961,309.3588869999994,103.3334960000002,114.61523400000078,12.82031300000017,213.7177729999994,125.38476599999922,375.6411130000006,107.30761700000039
87,133.3334960000002,235.89746099999957,123.7177729999994,48.7177729999994,385.2563479999999,105.89746099999957,308.9741210000002,101.0258789999998,111.41015599999992,13.333496000000196,218.0771479999994,132.43603499999972,378.20507799999996,103.9741210000002
88,135.38476599999922,237.82031300000017,123.9741210000002,37.43603499999972,371.15380900000036,103.84619099999964,306.6665039999998,98.3334960000002,107.43603499999972,18.077147999999397,221.15380900000036,137.17968800000017,382.4360349999997,105.25634799999989
89,140.89746099999957,230.2563479999999,126.41015599999992,39.48730499999965,357.3076170000004,100.38476599999922,303.5898440000001,98.9741210000002,107.94873000000007,28.589844000000085,221.2822270000006,140.76904300000024,387.94873000000007,108.84619099999964
90,147.94873000000007,216.2822270000006,130.51269500000035,51.79492200000004,345.12841800000024,99.10253900000043,300.89746099999957,102.94873000000007,112.94873000000007,40.897460999999566,217.3076170000004,143.9741210000002,390.12841800000024,108.7177729999994
91,152.05126999999993,201.2822270000006,134.10253900000043,62.82031300000017,332.6923829999996,99.87158199999976,297.5639650000003,106.9228520000006,118.7177729999994,49.61523400000078,208.9741210000002,146.53857400000015,385.2563479999999,106.0258789999998
92,151.53857400000015,190.12841800000024,135.6411130000006,63.333496000000196,317.17968800000017,99.74365200000011,291.6665039999998,107.82031300000017,122.05126999999993,53.46142599999985,198.84619099999964,148.3334960000002,376.4101559999999,107.43603499999972
93,149.3588869999994,184.87158199999976,135.76904300000024,52.69238299999961,299.10253900000043,97.30761700000039,283.0771479999994,106.41015599999992,123.20507799999996,56.53857400000015,190.76904300000024,150.6411130000006,372.17968800000017,111.79492200000004
94,149.3588869999994,181.9228520000006,136.0258789999998,38.846190999999635,280.6411130000006,93.7177729999994,274.87158199999976,105.89746099999957,124.35888699999941,63.0771479999994,186.15380900000036,154.23095699999976,377.3076170000004,112.17968800000017
95,152.17968800000017,174.10253900000043,136.53857400000015,31.025878999999804,263.46142599999985,90.12841800000024,269.87158199999976,108.0771479999994,126.79492200000004,72.69238299999961,182.6923829999996,158.0771479999994,387.94873000000007,108.0771479999994
96,155.89746099999957,157.56396500000028,136.9228520000006,34.35888699999941,247.6923829999996,86.9228520000006,268.7177729999994,110.89746099999957,128.9741210000002,80.64111300000059,177.05126999999993,161.0258789999998,395.76904300000024,107.82031300000017
97,159.3588869999994,136.9228520000006,137.3076170000004,47.17968800000017,233.58984400000008,85.0,269.48730499999965,111.79492200000004,128.7177729999994,83.0771479999994,169.48730499999965,163.46142599999985,396.2822270000006,113.46142599999985
98,162.3076170000004,119.35888699999941,137.6923829999996,63.333496000000196,222.05126999999993,85.0,269.7436520000001,110.12841800000024,125.51269500000035,80.0,162.05126999999993,165.89746099999957,391.4101559999999,116.2822270000006
99,163.58984400000008,108.84619099999964,137.3076170000004,73.9741210000002,213.20507799999996,85.89746099999957,268.0771479999994,107.43603499999972,121.0258789999998,75.0,155.76904300000024,167.43603499999972,386.15380900000036,111.15380900000036
100,162.05126999999993,103.7177729999994,135.51269500000035,72.94873000000007,206.9228520000006,86.41015599999992,264.48730499999965,105.64111300000059,118.0771479999994,72.69238299999961,149.87158199999976,167.17968800000017,384.87158199999976,105.38476599999922
101,159.10253900000043,101.2822270000006,133.9741210000002,60.51269500000035,203.84619099999964,87.05126999999993,260.89746099999957,106.6665039999998,118.3334960000002,75.89746099999957,144.48730499999965,165.89746099999957,389.3588869999994,106.2822270000006
102,157.56396500000028,100.0,134.87158199999976,43.333496000000196,204.23095699999976,89.35888699999941,259.48730499999965,110.12841800000024,120.76904300000024,82.69238299999961,140.89746099999957,165.76904300000024,397.17968800000017,109.74365200000011
103,158.0771479999994,98.20507799999996,137.94873000000007,30.897460999999566,204.87158199999976,93.20507799999996,260.89746099999957,113.7177729999994,122.94873000000007,87.94873000000007,139.61523400000078,167.3076170000004,402.17968800000017,108.9741210000002
104,158.46142599999985,93.9741210000002,140.51269500000035,28.974121000000196,201.6665039999998,96.53857400000015,263.20507799999996,114.48730499999965,122.56396500000028,87.56396500000028,138.84619099999964,168.7177729999994,399.87158199999976,106.41015599999992
105,157.43603499999972,87.30761700000039,140.38476599999922,38.589844000000085,193.84619099999964,98.20507799999996,264.10253900000043,112.94873000000007,120.76904300000024,83.3334960000002,135.89746099999957,169.3588869999994,393.0771479999994,107.82031300000017
106,156.0258789999998,79.10253900000043,137.82031300000017,54.74365200000011,185.0,99.61523400000078,263.0771479999994,112.56396500000028,120.76904300000024,81.9228520000006,127.17968800000017,169.7436520000001,389.3588869999994,110.51269500000035
107,154.48730499999965,70.12841800000024,134.7436520000001,68.0771479999994,178.58984400000008,101.79492200000004,260.89746099999957,116.0258789999998,124.35888699999941,87.56396500000028,107.94873000000007,169.87158199999976,392.4360349999997,108.3334960000002
108,151.0258789999998,59.48730499999965,132.17968800000017,69.35888699999941,173.7177729999994,103.3334960000002,258.7177729999994,122.17968800000017,130.12841800000024,98.46142599999985,77.30761700000039,168.84619099999964,398.7177729999994,104.48730499999965
109,144.3588869999994,48.20507799999996,129.3588869999994,58.589844000000085,167.43603499999972,102.82031300000017,256.79492200000004,127.82031300000017,134.23095699999976,108.20507799999996,41.79492200000004,165.89746099999957,400.76904300000024,107.17968800000017
110,136.53857400000015,38.846190999999635,125.64111300000059,45.897460999999566,158.7177729999994,101.0258789999998,254.23095699999976,130.38476599999922,133.84619099999964,111.2822270000006,13.077147999999397,162.17968800000017,395.76904300000024,113.9741210000002
111,131.15380900000036,32.82031300000017,121.0258789999998,44.74365200000011,148.20507799999996,99.48730499999965,250.38476599999922,129.23095699999976,129.23095699999976,107.94873000000007,-0.12841800000023795,158.84619099999964,387.4360349999997,114.87158199999976
112,129.3588869999994,27.30761700000039,116.53857400000015,58.846190999999635,137.17968800000017,98.84619099999964,245.12841800000024,126.15380900000036,124.10253900000043,103.46142599999985,0.8974609999995664,156.0258789999998,382.17968800000017,108.58984400000008
113,130.0,18.461425999999847,114.61523400000078,79.35888699999941,125.64111300000059,98.84619099999964,240.2563479999999,123.58984400000008,123.20507799999996,104.35888699999941,8.461425999999847,154.61523400000078,384.10253900000043,104.35888699999941
114,131.6665039999998,5.512695000000349,116.9228520000006,93.3334960000002,113.3334960000002,99.87158199999976,237.56396500000028,124.87158199999976,128.9741210000002,114.10253900000043,15.0,156.41015599999992,392.94873000000007,107.17968800000017
115,132.94873000000007,-8.461425999999847,122.30761700000039,95.12841800000024,98.9741210000002,102.05126999999993,237.56396500000028,130.76904300000024,138.84619099999964,128.46142599999985,17.94873000000007,161.0258789999998,403.46142599999985,110.0
116,131.2822270000006,-19.61547900000005,126.41015599999992,88.58984400000008,80.12841800000024,103.84619099999964,238.0771479999994,137.82031300000017,146.79492200000004,138.58984400000008,17.69238299999961,165.76904300000024,406.79492200000004,108.0771479999994
117,124.87158199999976,-26.41015600000037,125.76904300000024,81.53857400000015,56.666503999999804,103.9741210000002,236.9228520000006,141.6665039999998,148.46142599999985,138.46142599999985,15.512695000000349,166.9228520000006,397.94873000000007,106.53857400000015
118,115.38476599999922,-28.974365000000034,120.76904300000024,78.7177729999994,33.0771479999994,103.46142599999985,233.58984400000008,140.89746099999957,144.48730499999965,131.41015599999992,12.692382999999609,164.61523400000078,380.6411130000006,110.0
119,107.82031300000017,-30.25634799999989,116.41015599999992,79.10253900000043,14.615234000000783,104.61523400000078,229.87158199999976,138.3334960000002,139.48730499999965,127.17968800000017,9.487304999999651,161.53857400000015,364.87158199999976,112.69238299999961
120,105.25634799999989,-33.58984399999963,116.41015599999992,80.0,1.4101559999999154,107.56396500000028,227.3076170000004,137.05126999999993,137.82031300000017,133.0771479999994,5.256347999999889,160.51269500000035,358.0771479999994,109.61523400000078
121,106.41015599999992,-41.28198199999997,119.87158199999976,80.64111300000059,-10.512939000000188,109.87158199999976,225.76904300000024,137.43603499999972,140.6411130000006,147.05126999999993,-0.12841800000023795,161.53857400000015,359.3588869999994,106.0258789999998
122,107.05126999999993,-51.153809000000365,122.82031300000017,83.0771479999994,-24.10253899999998,110.0,223.7177729999994,139.10253900000043,146.53857400000015,160.89746099999957,-4.743652000000111,163.20507799999996,362.17968800000017,108.20507799999996
123,103.9741210000002,-58.974365000000034,121.9228520000006,88.0771479999994,-37.30761700000039,109.61523400000078,220.76904300000024,141.79492200000004,152.43603499999972,166.79492200000004,-6.281981999999971,164.10253900000043,360.3847659999992,111.41015599999992
124,95.64111300000059,-63.58984399999963,116.79492200000004,92.43603499999972,-47.69238299999961,110.51269500000035,217.43603499999972,145.2563479999999,155.51269500000035,163.58984400000008,-5.128174000000399,162.82031300000017,351.79492200000004,108.20507799999996
125,83.84619099999964,-67.94872999999961,110.25634799999989,92.69238299999961,-55.25634799999989,112.56396500000028,214.10253900000043,148.0771479999994,154.3588869999994,157.17968800000017,-4.358886999999868,158.7177729999994,338.20507799999996,103.0771479999994
126,72.69238299999961,-74.61547900000005,105.76904300000024,90.25634799999989,-62.564209000000574,114.35888699999941,211.41015599999992,148.58984400000008,149.87158199999976,155.2563479999999,-5.897461000000021,153.0771479999994,325.6411130000006,104.74365200000011
127,67.05126999999993,-83.07690400000001,105.25634799999989,90.25634799999989,-71.79492200000004,114.87158199999976,209.61523400000078,147.56396500000028,145.12841800000024,161.53857400000015,-8.333252000000357,148.7177729999994,320.0,111.2822270000006
128,67.43603499999972,-91.15380900000036,107.30761700000039,95.38476599999922,-83.20507799999996,113.9741210000002,208.58984400000008,146.15380900000036,143.46142599999985,171.9228520000006,-9.358886999999868,148.0771479999994,322.4360349999997,112.69238299999961
129,68.7177729999994,-97.94872999999961,108.9741210000002,102.56396500000028,-96.41015600000037,111.15380900000036,207.56396500000028,145.38476599999922,145.76904300000024,179.23095699999976,-10.1281740000004,150.12841800000024,327.05126999999993,108.20507799999996
130,65.51269500000035,-103.07690400000001,108.3334960000002,105.64111300000059,-110.0,107.30761700000039,206.15380900000036,145.38476599999922,149.87158199999976,178.7177729999994,-14.487060999999812,152.05126999999993,326.9228520000006,106.15380900000036
131,56.9228520000006,-105.25634799999989,106.15380900000036,101.6665039999998,-121.15380900000036,104.87158199999976,204.7436520000001,146.41015599999992,153.0771479999994,173.3334960000002,-24.358886999999868,151.0258789999998,319.6152340000008,108.58984400000008
132,46.53857400000015,-103.84619099999964,104.35888699999941,92.69238299999961,-127.82055700000001,106.2822270000006,203.9741210000002,148.84619099999964,154.7436520000001,170.2563479999999,-37.564209000000574,147.3076170000004,308.84619099999964,108.84619099999964
133,38.846190999999635,-101.92309599999999,104.10253900000043,83.7177729999994,-131.79492200000004,110.51269500000035,203.7177729999994,151.9228520000006,155.12841800000024,174.48730499999965,-49.10253899999998,142.82031300000017,298.46142599999985,105.38476599999922
134,35.38476599999922,-104.10253899999998,105.38476599999922,80.38476599999922,-137.0512700000004,114.48730499999965,202.6923829999996,153.84619099999964,154.87158199999976,184.23095699999976,-54.61547900000005,140.12841800000024,289.10253900000043,105.51269500000035
135,35.64111300000059,-110.89746100000002,107.43603499999972,85.89746099999957,-145.89746100000002,115.76904300000024,200.12841800000024,153.3334960000002,154.23095699999976,193.3334960000002,-53.58984399999963,140.76904300000024,280.12841800000024,111.2822270000006
136,37.43603499999972,-118.33325200000036,109.35888699999941,98.0771479999994,-156.66674799999964,114.48730499999965,196.79492200000004,151.15380900000036,154.23095699999976,195.89746099999957,-49.48706099999981,143.84619099999964,270.2563479999999,114.23095699999976
137,37.56396500000028,-122.56420900000057,110.12841800000024,110.25634799999989,-166.66674799999964,111.6665039999998,193.7177729999994,148.58984400000008,155.0,191.79492200000004,-48.846190999999635,146.15380900000036,258.5898440000001,109.87158199999976
138,34.35888699999941,-122.56420900000057,108.84619099999964,116.9228520000006,-173.97436500000003,107.56396500000028,190.76904300000024,146.2822270000006,155.89746099999957,185.76904300000024,-56.025634999999966,145.12841800000024,243.9741210000002,105.12841800000024
139,29.48730499999965,-118.46142599999985,106.6665039999998,118.7177729999994,-177.6923829999996,103.84619099999964,187.43603499999972,144.61523400000078,155.2563479999999,183.0771479999994,-69.48706099999981,140.89746099999957,227.56396500000028,106.2822270000006
140,27.05126999999993,-110.38452099999995,105.38476599999922,120.0,-177.820557,102.69238299999961,183.9741210000002,144.10253900000043,152.82031300000017,185.89746099999957,-82.69238299999961,136.53857400000015,211.41015599999992,108.58984400000008
141,28.461425999999847,-100.64111300000013,105.76904300000024,122.82031300000017,-176.53857400000015,104.48730499999965,181.0258789999998,143.9741210000002,149.61523400000078,190.89746099999957,-90.25634799999989,133.9741210000002,195.38476599999922,105.89746099999957
142,30.51269500000035,-94.8718259999996,106.2822270000006,125.12841800000024,-178.46142599999985,106.6665039999998,178.58984400000008,142.6923829999996,146.2822270000006,192.43603499999972,-93.07690400000001,131.41015599999992,176.79492200000004,102.94873000000007
143,29.48730499999965,-96.66674799999964,104.74365200000011,125.25634799999989,-186.02563499999997,106.53857400000015,175.2563479999999,139.3588869999994,142.43603499999972,187.43603499999972,-96.28198199999997,126.0258789999998,154.23095699999976,106.53857400000015
144,25.51269500000035,-103.46142599999985,100.25634799999989,126.6665039999998,-196.41015600000037,104.35888699999941,171.0258789999998,135.38476599999922,137.6923829999996,177.82031300000017,-104.10253899999998,116.9228520000006,131.2822270000006,112.30761700000039
145,21.666503999999804,-107.56420900000057,93.84619099999964,133.9741210000002,-204.35888699999987,102.05126999999993,166.2822270000006,132.6923829999996,133.9741210000002,169.23095699999976,-116.28198199999997,106.6665039999998,112.94873000000007,112.17968800000017
146,20.0,-103.58984399999963,87.69238299999961,146.6665039999998,-206.66674799999964,100.76904300000024,162.3076170000004,131.15380900000036,133.20507799999996,166.41015599999992,-129.7436520000001,98.3334960000002,101.15380900000036,108.0771479999994
147,20.641113000000587,-91.66674799999964,83.7177729999994,158.20507799999996,-204.35888699999987,100.38476599999922,159.48730499999965,130.12841800000024,135.6411130000006,169.61523400000078,-139.7436520000001,93.84619099999964,93.58984400000008,107.82031300000017
148,22.69238299999961,-75.89746100000002,82.82031300000017,162.43603499999972,-199.8718259999996,101.0258789999998,158.46142599999985,129.48730499999965,139.23095699999976,176.0258789999998,-142.56420900000057,93.3334960000002,87.17968800000017,111.0258789999998
149,25.25634799999989,-61.53857400000015,84.35888699999941,158.46142599999985,-196.66674799999964,102.69238299999961,158.7177729999994,129.61523400000078,141.6665039999998,181.41015599999992,-139.35888699999987,94.87158199999976,78.9741210000002,110.51269500000035
150,26.410155999999915,-54.61547900000005,86.15380900000036,150.2563479999999,-197.179443,103.84619099999964,158.84619099999964,129.3588869999994,141.2822270000006,181.79492200000004,-135.89746100000002,95.12841800000024,66.53857400000015,106.53857400000015
151,24.48730499999965,-58.20507799999996,85.64111300000059,143.84619099999964,-201.79492200000004,102.56396500000028,157.05126999999993,127.17968800000017,136.9228520000006,175.2563479999999,-138.076904,91.79492200000004,49.48730499999965,106.41015599999992
152,21.025878999999804,-68.97436500000003,82.56396500000028,143.46142599999985,-207.3076170000004,100.0,153.0771479999994,122.69238299999961,128.7177729999994,163.84619099999964,-145.2563479999999,86.15380900000036,30.769043000000238,110.38476599999922
153,18.717772999999397,-77.82055700000001,78.3334960000002,149.61523400000078,-209.10253899999998,98.20507799999996,148.46142599999985,117.82031300000017,119.35888699999941,152.82031300000017,-151.53857400000015,81.6665039999998,15.769043000000238,110.76904300000024
154,18.461425999999847,-76.66674799999964,74.87158199999976,158.20507799999996,-206.66674799999964,97.82031300000017,144.3588869999994,114.35888699999941,112.43603499999972,146.6665039999998,-152.43579099999943,80.12841800000024,7.051269999999931,106.41015599999992
155,18.846190999999635,-65.64111300000013,72.69238299999961,163.20507799999996,-203.20507799999996,96.2822270000006,140.51269500000035,112.56396500000028,110.0,145.6411130000006,-150.0,80.0,2.3076170000003913,105.12841800000024
156,18.846190999999635,-51.28198199999997,72.30761700000039,162.05126999999993,-201.66674799999964,93.20507799999996,135.89746099999957,113.0771479999994,112.43603499999972,146.53857400000015,-149.7436520000001,79.61523400000078,-1.7949220000000423,110.25634799999989
157,19.48730499999965,-41.28198199999997,74.10253900000043,156.79492200000004,-201.28198199999997,90.76904300000024,131.53857400000015,116.9228520000006,117.69238299999961,147.6923829999996,-153.97436500000003,79.10253900000043,-6.281981999999971,113.9741210000002
158,22.30761700000039,-38.846190999999635,77.94873000000007,151.9228520000006,-199.7436520000001,91.15380900000036,128.7177729999994,123.7177729999994,123.0771479999994,149.87158199999976,-158.84619099999964,80.25634799999989,-9.61547900000005,110.51269500000035
159,27.05126999999993,-40.76928699999962,83.46142599999985,150.51269500000035,-195.89746100000002,93.9741210000002,127.82031300000017,130.38476599999922,125.76904300000024,154.3588869999994,-158.97436500000003,83.9741210000002,-10.512939000000188,106.0258789999998
160,33.0771479999994,-40.76928699999962,88.9741210000002,154.10253900000043,-190.2563479999999,97.05126999999993,127.69238299999961,134.10253900000043,125.25634799999989,160.38476599999922,-150.2563479999999,90.0,-9.358886999999868,106.15380900000036
161,39.48730499999965,-34.23071300000038,93.20507799999996,162.43603499999972,-183.46142599999985,99.35888699999941,126.79492200000004,133.84619099999964,123.3334960000002,165.2563479999999,-134.8718259999996,96.15380900000036,-8.333252000000357,107.17968800000017
162,44.48730499999965,-22.30761700000039,94.35888699999941,172.17968800000017,-177.56420900000057,100.12841800000024,124.35888699999941,131.0258789999998,122.30761700000039,165.89746099999957,-120.64111300000013,100.0,-10.769286999999622,104.61523400000078
163,44.61523400000078,-10.512939000000188,91.53857400000015,177.94873000000007,-175.0,99.10253900000043,120.51269500000035,127.17968800000017,122.56396500000028,160.6411130000006,-117.17944299999999,98.58984400000008,-19.10253899999998,103.3334960000002
164,38.974121000000196,-4.358886999999868,85.89746099999957,176.6665039999998,-176.53857400000015,97.30761700000039,116.2822270000006,123.58984400000008,121.79492200000004,151.79492200000004,-127.17944299999999,91.53857400000015,-32.82055700000001,108.0771479999994
165,30.769043000000238,-4.743652000000111,80.0,170.6411130000006,-179.10253899999998,97.30761700000039,113.58984400000008,121.2822270000006,119.10253900000043,144.3588869999994,-142.820557,82.30761700000039,-47.17944299999999,112.82031300000017
166,24.48730499999965,-9.487060999999812,76.41015599999992,163.58984400000008,-179.10253899999998,100.51269500000035,113.0771479999994,121.41015599999992,115.25634799999989,142.56396500000028,-151.66674799999964,75.64111300000059,-57.051270000000386,109.48730499999965
167,21.282227000000603,-15.769286999999622,75.25634799999989,157.94873000000007,-176.41015600000037,104.74365200000011,113.9741210000002,122.69238299999961,111.9228520000006,146.0258789999998,-147.56420900000057,73.46142599999985,-61.28198199999997,102.30761700000039
168,18.974121000000196,-21.794922000000042,74.74365200000011,154.10253900000043,-174.10253899999998,105.64111300000059,113.58984400000008,122.69238299999961,110.0,149.3588869999994,-135.64111300000013,73.58984400000008,-63.46142599999985,101.2822270000006
169,15.641113000000587,-25.769286999999622,72.30761700000039,152.43603499999972,-173.84619099999964,101.79492200000004,109.87158199999976,119.74365200000011,109.35888699999941,147.3076170000004,-126.53857400000015,72.17968800000017,-67.82055700000001,106.0258789999998
170,10.0,-26.794922000000042,67.30761700000039,152.3076170000004,-174.7436520000001,96.15380900000036,103.58984400000008,115.12841800000024,108.7177729999994,138.58984400000008,-127.94872999999961,67.05126999999993,-75.64111300000013,107.69238299999961
171,2.3076170000003913,-25.641113000000132,60.897460999999566,151.41015599999992,-174.7436520000001,92.56396500000028,97.30761700000039,111.15380900000036,106.9228520000006,126.6665039999998,-138.97436500000003,59.23095699999976,-85.89746100000002,104.74365200000011
172,-6.281981999999971,-23.333252000000357,56.153809000000365,148.3334960000002,-172.179443,92.82031300000017,93.46142599999985,109.48730499999965,103.3334960000002,116.9228520000006,-151.79492200000004,51.666503999999804,-95.64111300000013,104.61523400000078
173,-11.794922000000042,-19.487060999999812,55.76904300000024,145.51269500000035,-166.79492200000004,96.53857400000015,92.82031300000017,110.38476599999922,99.48730499999965,113.84619099999964,-157.43579099999943,48.333496000000196,-101.28198199999997,108.3334960000002
174,-9.61547900000005,-13.71801800000003,61.153809000000365,147.05126999999993,-158.58984399999963,102.05126999999993,94.35888699999941,113.46142599999985,98.3334960000002,117.56396500000028,-151.53857400000015,51.666503999999804,-100.64111300000013,108.84619099999964
175,-0.12841800000023795,-7.692382999999609,70.51269500000035,154.3588869999994,-150.0,107.17968800000017,96.0258789999998,117.30761700000039,100.89746099999957,123.9741210000002,-137.43579099999943,60.64111300000059,-95.76928699999962,104.48730499999965
176,10.769043000000238,-4.743652000000111,79.23095699999976,163.20507799999996,-144.10253899999998,109.10253900000043,95.89746099999957,120.0,105.51269500000035,128.0771479999994,-122.30761700000039,70.38476599999922,-92.05127000000039,102.56396500000028
177,15.512695000000349,-5.769286999999622,83.0771479999994,166.2822270000006,-141.923096,107.69238299999961,93.46142599999985,121.15380900000036,108.7177729999994,127.43603499999972,-112.30761700000039,75.76904300000024,-93.58984399999963,105.89746099999957
178,11.794922000000042,-8.076904000000013,80.64111300000059,159.3588869999994,-141.15380900000036,104.48730499999965,89.87158199999976,121.2822270000006,108.0771479999994,123.0771479999994,-109.61547900000005,74.61523400000078,-100.38452099999995,106.9228520000006
179,1.7949220000000423,-8.71801800000003,74.23095699999976,144.48730499999965,-140.38452099999995,101.79492200000004,86.53857400000015,121.15380900000036,103.9741210000002,117.05126999999993,-112.94872999999961,68.0771479999994,-109.48706099999981,102.05126999999993
180,-9.230713000000378,-8.076904000000013,67.43603499999972,128.58984400000008,-140.0,100.25634799999989,83.7177729999994,120.0,98.9741210000002,111.0258789999998,-119.48706099999981,59.48730499999965,-116.79492200000004,99.48730499999965
181,-16.41015600000037,-7.307617000000391,63.46142599999985,118.84619099999964,-141.15380900000036,99.48730499999965,80.89746099999957,118.0771479999994,95.76904300000024,106.53857400000015,-125.1281740000004,53.333496000000196,-118.20507799999996,105.38476599999922
182,-16.28198199999997,-5.256347999999889,63.974121000000196,118.84619099999964,-141.923096,100.25634799999989,78.46142599999985,116.2822270000006,95.89746099999957,105.64111300000059,-125.25634799999989,53.0771479999994,-111.28198199999997,112.30761700000039
183,-8.974365000000034,0.12841800000023795,68.46142599999985,126.6665039999998,-138.97436500000003,102.69238299999961,77.69238299999961,116.15380900000036,98.9741210000002,108.9741210000002,-118.07690400000001,59.23095699999976,-98.33325200000036,111.2822270000006
184,0.512695000000349,8.717772999999397,73.84619099999964,136.15380900000036,-131.28198199999997,105.89746099999957,78.84619099999964,117.17968800000017,102.82031300000017,114.48730499999965,-106.41015600000037,67.82031300000017,-87.56420900000057,105.64111300000059
185,6.025878999999804,17.43603499999972,77.17968800000017,142.05126999999993,-121.02563499999997,107.94873000000007,81.0258789999998,118.0771479999994,105.51269500000035,118.58984400000008,-95.76928699999962,73.58984400000008,-86.02563499999997,104.23095699999976
186,5.641113000000587,24.230956999999762,77.30761700000039,143.3334960000002,-111.66674799999964,108.7177729999994,83.0771479999994,117.94873000000007,106.2822270000006,118.84619099999964,-90.51293900000019,73.58984400000008,-93.46142599999985,106.0258789999998
187,2.5639650000002803,29.358886999999413,76.15380900000036,142.6923829999996,-105.51293900000019,109.35888699999941,83.7177729999994,117.05126999999993,105.51269500000035,115.89746099999957,-90.89746100000002,69.87158199999976,-102.94872999999961,104.74365200000011
188,0.8974609999995664,33.846190999999635,76.0258789999998,142.56396500000028,-103.07690400000001,110.64111300000059,82.43603499999972,116.2822270000006,104.35888699999941,112.56396500000028,-93.71801800000003,66.53857400000015,-108.07690400000001,102.05126999999993
189,2.6923829999996087,37.94873000000007,77.56396500000028,142.82031300000017,-102.82055700000001,111.79492200000004,79.35888699999941,115.38476599999922,103.46142599999985,111.0258789999998,-94.23071300000038,66.6665039999998,-106.79492200000004,104.74365200000011
190,7.56396500000028,41.79492200000004,79.23095699999976,141.9228520000006,-101.92309599999999,112.56396500000028,75.64111300000059,114.23095699999976,103.3334960000002,112.30761700000039,-88.46142599999985,70.64111300000059,-100.76928699999962,110.51269500000035
191,14.358886999999413,45.0,80.0,139.48730499999965,-97.82055700000001,113.58984400000008,72.69238299999961,113.58984400000008,103.46142599999985,115.12841800000024,-76.41015600000037,76.79492200000004,-93.20507799999996,109.74365200000011
192,20.128418000000238,45.76904300000024,80.25634799999989,136.79492200000004,-91.02563499999997,114.61523400000078,71.53857400000015,114.35888699999941,103.58984400000008,117.05126999999993,-63.71801800000003,81.9228520000006,-88.07690400000001,102.17968800000017
193,20.384765999999217,42.30761700000039,81.0258789999998,135.2563479999999,-84.8718259999996,114.74365200000011,71.9228520000006,116.2822270000006,103.84619099999964,115.64111300000059,-57.82055700000001,83.58984400000008,-88.84619099999964,97.82031300000017
194,13.205077999999958,35.12841800000024,82.82031300000017,135.38476599999922,-81.79492200000004,113.9741210000002,72.82031300000017,118.46142599999985,104.61523400000078,111.41015599999992,-61.025634999999966,81.41015599999992,-95.0,100.51269500000035
195,2.1796880000001693,28.077147999999397,85.0,135.51269500000035,-81.15380900000036,113.7177729999994,73.58984400000008,120.51269500000035,106.53857400000015,107.43603499999972,-67.05127000000039,77.56396500000028,-100.64111300000013,102.82031300000017
196,-5.897461000000021,24.615234000000783,86.79492200000004,132.43603499999972,-81.15380900000036,114.35888699999941,73.9741210000002,122.30761700000039,108.84619099999964,107.05126999999993,-67.43579099999943,75.51269500000035,-99.23071300000038,100.76904300000024
197,-6.281981999999971,25.0,87.94873000000007,123.20507799999996,-81.02563499999997,114.74365200000011,73.20507799999996,123.0771479999994,110.51269500000035,110.25634799999989,-58.71801800000003,76.9228520000006,-88.97436500000003,101.15380900000036
198,1.2822270000006029,26.410155999999915,88.7177729999994,109.23095699999976,-81.53857400000015,113.84619099999964,70.89746099999957,122.05126999999993,110.64111300000059,114.74365200000011,-44.23071300000038,81.41015599999992,-73.58984399999963,107.56396500000028
199,13.077147999999397,26.538574000000153,90.0,96.6665039999998,-81.92309599999999,112.82031300000017,67.82031300000017,120.25634799999989,109.74365200000011,118.3334960000002,-29.10253899999998,87.69238299999961,-57.435790999999426,112.05126999999993
200,24.102539000000434,24.615234000000783,93.20507799999996,92.17968800000017,-80.1281740000004,113.58984400000008,65.76904300000024,119.74365200000011,108.9741210000002,121.0258789999998,-16.794922000000042,94.48730499999965,-42.69238299999961,107.82031300000017
201,30.384765999999217,21.153809000000365,97.82031300000017,97.82031300000017,-75.89746100000002,115.76904300000024,65.76904300000024,121.53857400000015,109.23095699999976,124.10253900000043,-8.205077999999958,100.12841800000024,-30.38452099999995,101.53857400000015
202,30.769043000000238,17.69238299999961,101.2822270000006,109.61523400000078,-71.28198199999997,117.30761700000039,66.79492200000004,123.58984400000008,110.76904300000024,127.56396500000028,-2.6923829999996087,103.46142599999985,-21.794922000000042,101.9228520000006
203,28.077147999999397,16.410155999999915,101.15380900000036,120.64111300000059,-67.94872999999961,117.05126999999993,66.15380900000036,123.9741210000002,112.30761700000039,129.87158199999976,0.12841800000023795,103.46142599999985,-18.076904000000013,105.76904300000024
204,25.384765999999217,18.589844000000085,97.17968800000017,123.9741210000002,-66.92309599999999,115.25634799999989,62.43603499999972,122.17968800000017,112.56396500000028,128.58984400000008,0.256347999999889,100.38476599999922,-18.461425999999847,105.38476599999922
205,24.102539000000434,21.922852000000603,92.05126999999993,117.56396500000028,-67.82055700000001,112.82031300000017,56.9228520000006,119.61523400000078,110.51269500000035,122.94873000000007,-2.4360349999997197,95.0,-21.28198199999997,102.82031300000017
206,23.077147999999397,22.94873000000007,88.9741210000002,105.12841800000024,-69.74365200000011,110.51269500000035,52.43603499999972,117.82031300000017,107.05126999999993,115.76904300000024,-6.923095999999987,89.23095699999976,-23.846190999999635,105.25634799999989
207,21.666503999999804,20.25634799999989,89.23095699999976,94.87158199999976,-69.74365200000011,110.0,51.53857400000015,118.20507799999996,104.74365200000011,112.17968800000017,-9.743652000000111,85.51269500000035,-23.333252000000357,109.61523400000078
208,21.153809000000365,15.897460999999566,92.30761700000039,92.94873000000007,-65.1281740000004,112.82031300000017,54.87158199999976,121.53857400000015,106.15380900000036,115.76904300000024,-6.794922000000042,85.76904300000024,-18.58984399999963,107.05126999999993
209,22.43603499999972,12.82031300000017,96.41015599999992,98.7177729999994,-56.92309599999999,117.43603499999972,60.12841800000024,125.64111300000059,110.76904300000024,124.61523400000078,2.4360349999997197,89.74365200000011,-12.307617000000391,99.23095699999976
210,24.871581999999762,12.692382999999609,99.74365200000011,106.2822270000006,-49.23071300000038,120.64111300000059,63.974121000000196,127.69238299999961,115.12841800000024,132.05126999999993,13.205077999999958,94.74365200000011,-9.61547900000005,96.79492200000004
211,27.17968800000017,16.410155999999915,100.76904300000024,110.0,-44.61547900000005,120.51269500000035,64.23095699999976,126.2822270000006,115.89746099999957,132.82031300000017,19.230956999999762,98.20507799999996,-13.076904000000013,101.9228520000006
212,28.205077999999958,23.333496000000196,100.38476599999922,108.3334960000002,-42.564209000000574,118.84619099999964,61.53857400000015,123.58984400000008,112.56396500000028,127.17968800000017,18.205077999999958,99.35888699999941,-19.230713000000378,105.25634799999989
213,27.30761700000039,30.384765999999217,100.0,103.0771479999994,-41.28198199999997,117.56396500000028,57.82031300000017,121.6665039999998,107.30761700000039,120.0,12.82031300000017,98.7177729999994,-22.564209000000574,102.56396500000028
214,25.0,33.7177729999994,100.38476599999922,97.56396500000028,-40.51293900000019,116.6665039999998,54.23095699999976,120.12841800000024,102.43603499999972,115.89746099999957,8.717772999999397,97.30761700000039,-20.512939000000188,101.15380900000036
215,23.077147999999397,32.05126999999993,101.79492200000004,94.35888699999941,-40.25634799999989,115.38476599999922,51.2822270000006,117.69238299999961,98.9741210000002,115.76904300000024,10.384765999999217,96.2822270000006,-14.61547900000005,104.35888699999941
216,23.717772999999397,28.589844000000085,104.23095699999976,94.87158199999976,-39.35888699999987,114.10253900000043,49.23095699999976,114.23095699999976,97.05126999999993,117.43603499999972,17.94873000000007,96.79492200000004,-9.102538999999979,105.0
217,27.56396500000028,27.17968800000017,107.43603499999972,99.35888699999941,-36.79492200000004,113.84619099999964,48.46142599999985,111.41015599999992,96.79492200000004,117.94873000000007,27.56396500000028,99.23095699999976,-7.051270000000386,99.48730499999965
218,32.30761700000039,28.974121000000196,110.51269500000035,105.12841800000024,-33.33325200000036,114.74365200000011,49.87158199999976,110.89746099999957,97.82031300000017,115.64111300000059,33.589844000000085,102.43603499999972,-9.102538999999979,96.41015599999992
219,35.76904300000024,32.69238299999961,112.82031300000017,108.7177729999994,-29.61547900000005,116.79492200000004,53.589844000000085,112.69238299999961,100.38476599999922,111.79492200000004,33.333496000000196,105.0,-12.435790999999426,102.69238299999961
220,38.0771479999994,37.17968800000017,114.74365200000011,107.56396500000028,-25.512939000000188,120.51269500000035,59.48730499999965,116.6665039999998,104.23095699999976,110.12841800000024,29.230956999999762,107.43603499999972,-12.307617000000391,110.51269500000035
221,40.38476599999922,41.9228520000006,117.69238299999961,102.30761700000039,-20.89746100000002,125.89746099999957,65.89746099999957,122.30761700000039,108.20507799999996,112.69238299999961,25.897460999999566,110.51269500000035,-7.948729999999614,109.61523400000078
222,42.17968800000017,46.153809000000365,122.05126999999993,96.15380900000036,-17.564209000000574,130.2563479999999,70.0,127.17968800000017,110.64111300000059,117.82031300000017,25.641113000000587,114.10253900000043,-2.9487300000000687,103.9741210000002
223,42.82031300000017,47.94873000000007,126.15380900000036,93.3334960000002,-17.30761700000039,131.2822270000006,70.12841800000024,129.10253900000043,110.12841800000024,121.9228520000006,27.43603499999972,116.9228520000006,-1.5385740000001533,102.82031300000017
224,42.82031300000017,46.2822270000006,127.69238299999961,97.30761700000039,-18.71801800000003,128.84619099999964,66.79492200000004,128.0771479999994,108.0771479999994,122.69238299999961,29.48730499999965,118.0771479999994,-3.4614259999998467,105.51269500000035
225,43.0771479999994,41.53857400000015,125.64111300000059,106.79492200000004,-19.230713000000378,126.0258789999998,63.0771479999994,125.51269500000035,106.6665039999998,120.38476599999922,30.897460999999566,118.0771479999994,-5.128174000000399,104.23095699999976
226,42.30761700000039,35.0,120.38476599999922,115.0,-18.076904000000013,124.61523400000078,61.025878999999804,122.17968800000017,106.53857400000015,116.41015599999992,31.153809000000365,116.9228520000006,-5.0,100.64111300000059
227,37.69238299999961,28.974121000000196,112.56396500000028,113.84619099999964,-17.051270000000386,124.61523400000078,60.38476599999922,117.30761700000039,106.15380900000036,111.41015599999992,29.74365200000011,113.58984400000008,-5.512939000000188,102.43603499999972
228,30.0,26.666503999999804,103.9741210000002,101.79492200000004,-16.923095999999987,125.12841800000024,60.38476599999922,111.2822270000006,103.9741210000002,106.2822270000006,27.43603499999972,107.56396500000028,-8.333252000000357,108.0771479999994
229,23.461425999999847,28.846190999999635,97.30761700000039,86.53857400000015,-16.666747999999643,126.2822270000006,60.64111300000059,106.6665039999998,100.38476599999922,103.0771479999994,25.769043000000238,101.2822270000006,-11.538574000000153,107.56396500000028
230,21.922852000000603,32.30761700000039,94.74365200000011,78.0771479999994,-15.897461000000021,128.0771479999994,61.025878999999804,105.64111300000059,97.82031300000017,103.20507799999996,25.897460999999566,98.0771479999994,-12.307617000000391,100.0
231,24.74365200000011,32.05126999999993,96.53857400000015,80.0,-15.1281740000004,129.23095699999976,61.2822270000006,107.82031300000017,98.3334960000002,106.6665039999998,26.794922000000042,99.61523400000078,-10.256347999999889,96.15380900000036
232,28.846190999999635,27.05126999999993,100.25634799999989,88.20507799999996,-15.256347999999889,128.9741210000002,61.025878999999804,110.38476599999922,101.2822270000006,111.15380900000036,27.56396500000028,104.87158199999976,-7.179442999999992,100.38476599999922
233,32.56396500000028,23.205077999999958,104.10253900000043,95.64111300000059,-15.256347999999889,128.0771479999994,60.25634799999989,111.15380900000036,104.61523400000078,114.23095699999976,28.846190999999635,111.2822270000006,-5.0,104.74365200000011
234,35.12841800000024,27.17968800000017,107.30761700000039,99.61523400000078,-13.974365000000034,127.05126999999993,58.589844000000085,110.0,106.53857400000015,114.48730499999965,31.538574000000153,116.15380900000036,-4.487060999999812,103.7177729999994
235,36.53857400000015,38.0771479999994,109.35888699999941,101.15380900000036,-11.923095999999987,126.0258789999998,55.897460999999566,107.94873000000007,106.53857400000015,112.43603499999972,35.0,117.82031300000017,-5.0,103.20507799999996
236,36.9228520000006,48.846190999999635,109.61523400000078,103.0771479999994,-10.641113000000132,125.12841800000024,52.94873000000007,106.9228520000006,105.64111300000059,110.25634799999989,37.56396500000028,116.6665039999998,-5.128174000000399,107.94873000000007
237,38.20507799999996,52.43603499999972,108.7177729999994,105.51269500000035,-9.8718259999996,125.25634799999989,51.2822270000006,108.58984400000008,105.76904300000024,110.64111300000059,38.20507799999996,115.25634799999989,-2.3076170000003913,111.2822270000006
238,41.53857400000015,47.69238299999961,108.84619099999964,105.51269500000035,-9.102538999999979,126.9228520000006,51.666503999999804,112.30761700000039,107.82031300000017,114.35888699999941,37.94873000000007,116.53857400000015,3.846190999999635,107.17968800000017
239,45.51269500000035,38.0771479999994,111.53857400000015,100.51269500000035,-8.71801800000003,128.46142599999985,52.94873000000007,115.51269500000035,110.64111300000059,119.74365200000011,38.46142599999985,121.53857400000015,11.282227000000603,101.6665039999998
240,47.43603499999972,28.846190999999635,116.0258789999998,91.9228520000006,-9.743652000000111,127.43603499999972,52.56396500000028,115.51269500000035,112.05126999999993,123.20507799999996,41.2822270000006,127.82031300000017,16.282227000000603,102.69238299999961
241,46.410155999999915,24.74365200000011,119.35888699999941,86.0258789999998,-11.41015600000037,123.7177729999994,49.48730499999965,112.56396500000028,111.0258789999998,123.0771479999994,47.30761700000039,132.05126999999993,17.43603499999972,106.2822270000006
242,43.7177729999994,27.17968800000017,119.35888699999941,88.20507799999996,-11.538574000000153,119.87158199999976,45.38476599999922,109.35888699999941,108.9741210000002,119.87158199999976,55.0,132.56396500000028,15.897460999999566,103.9741210000002
243,40.51269500000035,33.333496000000196,115.51269500000035,97.56396500000028,-9.487060999999812,117.82031300000017,42.69238299999961,108.20507799999996,107.69238299999961,116.15380900000036,59.87158199999976,129.48730499999965,13.461425999999847,98.7177729999994
244,36.9228520000006,38.0771479999994,109.48730499999965,106.15380900000036,-7.051270000000386,117.82031300000017,42.43603499999972,109.23095699999976,107.69238299999961,113.9741210000002,58.46142599999985,124.48730499999965,10.769043000000238,99.61523400000078
245,33.0771479999994,38.46142599999985,104.35888699999941,106.79492200000004,-6.41015600000037,118.84619099999964,44.23095699999976,111.2822270000006,108.0771479999994,113.84619099999964,50.76904300000024,119.61523400000078,8.077147999999397,105.51269500000035
246,31.282227000000603,36.153809000000365,102.82031300000017,98.84619099999964,-7.435790999999426,120.0,46.153809000000365,112.56396500000028,108.3334960000002,115.0,42.05126999999993,116.41015599999992,5.897460999999566,106.79492200000004
247,33.0771479999994,33.974121000000196,105.76904300000024,89.48730499999965,-8.58984399999963,120.12841800000024,46.53857400000015,111.6665039999998,108.7177729999994,115.89746099999957,37.82031300000017,115.38476599999922,4.6152340000007825,102.30761700000039
248,37.30761700000039,33.589844000000085,111.0258789999998,87.69238299999961,-8.974365000000034,118.46142599999985,44.74365200000011,108.0771479999994,108.9741210000002,115.0,39.74365200000011,115.76904300000024,3.5898440000000846,100.51269500000035
249,41.9228520000006,35.25634799999989,115.12841800000024,96.41015599999992,-8.076904000000013,115.64111300000059,41.153809000000365,103.46142599999985,108.9741210000002,112.17968800000017,45.0,116.9228520000006,2.3076170000003913,103.84619099999964
250,44.74365200000011,38.846190999999635,116.15380900000036,109.61523400000078,-5.897461000000021,114.61523400000078,37.69238299999961,100.64111300000059,108.20507799999996,108.3334960000002,49.102539000000434,118.20507799999996,0.512695000000349,104.74365200000011
251,44.87158199999976,43.846190999999635,114.61523400000078,117.30761700000039,-3.717772999999397,116.53857400000015,35.897460999999566,101.15380900000036,106.53857400000015,105.12841800000024,49.23095699999976,119.35888699999941,-1.5385740000001533,101.15380900000036
252,42.56396500000028,47.43603499999972,112.30761700000039,113.46142599999985,-3.2050779999999577,119.61523400000078,35.64111300000059,103.7177729999994,104.61523400000078,103.46142599999985,45.76904300000024,119.48730499999965,-3.5898440000000846,100.64111300000059
253,38.846190999999635,46.153809000000365,109.87158199999976,101.9228520000006,-5.256347999999889,120.76904300000024,35.25634799999989,105.0,102.82031300000017,103.0771479999994,41.666503999999804,118.58984400000008,-4.871825999999601,106.2822270000006
254,35.897460999999566,39.23095699999976,107.05126999999993,93.3334960000002,-8.58984399999963,119.23095699999976,33.46142599999985,103.46142599999985,101.9228520000006,103.3334960000002,40.12841800000024,116.9228520000006,-4.358886999999868,109.23095699999976
255,35.25634799999989,29.358886999999413,103.9741210000002,94.74365200000011,-10.641113000000132,116.53857400000015,30.51269500000035,99.48730499999965,101.9228520000006,102.82031300000017,42.17968800000017,115.64111300000059,-2.3076170000003913,104.35888699999941
256,36.79492200000004,20.25634799999989,102.30761700000039,102.82031300000017,-10.512939000000188,114.61523400000078,27.94873000000007,95.12841800000024,102.30761700000039,101.53857400000015,45.12841800000024,115.38476599999922,-0.38476599999921746,99.61523400000078
257,39.35888699999941,15.512695000000349,103.58984400000008,107.82031300000017,-8.461425999999847,114.23095699999976,27.30761700000039,92.43603499999972,103.20507799999996,100.89746099999957,46.153809000000365,116.2822270000006,-0.256347999999889,103.20507799999996
258,41.9228520000006,17.56396500000028,107.17968800000017,103.58984400000008,-5.128174000000399,115.89746099999957,28.717772999999397,93.0771479999994,105.0,102.69238299999961,45.0,118.20507799999996,-1.153809000000365,109.10253900000043
259,42.94873000000007,25.128418000000238,110.76904300000024,92.94873000000007,-1.2822270000006029,118.84619099999964,30.897460999999566,96.79492200000004,107.30761700000039,107.05126999999993,43.333496000000196,119.74365200000011,-1.6665039999998044,108.0771479999994
260,40.76904300000024,32.43603499999972,111.41015599999992,83.7177729999994,0.769043000000238,120.64111300000059,31.922852000000603,100.76904300000024,108.7177729999994,111.41015599999992,42.17968800000017,119.48730499999965,-2.5639650000002803,102.82031300000017
261,34.35888699999941,33.46142599999985,107.94873000000007,81.79492200000004,-0.6411130000005869,119.35888699999941,30.51269500000035,101.2822270000006,107.43603499999972,112.17968800000017,40.76904300000024,116.6665039999998,-4.871825999999601,102.05126999999993
262,26.666503999999804,27.30761700000039,102.43603499999972,87.30761700000039,-4.487060999999812,115.38476599999922,27.05126999999993,97.82031300000017,103.58984400000008,108.46142599999985,39.48730499999965,112.82031300000017,-7.435790999999426,105.12841800000024
263,22.69238299999961,19.102539000000434,98.58984400000008,95.76904300000024,-7.435790999999426,111.41015599999992,23.589844000000085,93.20507799999996,99.23095699999976,102.69238299999961,39.87158199999976,110.25634799999989,-8.58984399999963,104.10253900000043
264,25.0,16.025878999999804,99.23095699999976,101.15380900000036,-7.179442999999992,110.12841800000024,22.05126999999993,90.64111300000059,96.6665039999998,98.20507799999996,42.69238299999961,110.25634799999989,-7.820557000000008,100.38476599999922
265,31.922852000000603,21.666503999999804,102.94873000000007,101.0258789999998,-4.102538999999979,111.15380900000036,22.56396500000028,90.89746099999957,97.05126999999993,96.9228520000006,46.53857400000015,112.05126999999993,-6.538574000000153,101.9228520000006
266,38.974121000000196,33.974121000000196,106.0258789999998,97.82031300000017,-0.12841800000023795,113.3334960000002,23.974121000000196,92.69238299999961,99.87158199999976,98.7177729999994,49.23095699999976,113.84619099999964,-5.38452099999995,108.0771479999994
267,42.56396500000028,46.9228520000006,105.64111300000059,97.05126999999993,4.230956999999762,116.0258789999998,25.128418000000238,94.35888699999941,103.58984400000008,101.0258789999998,49.102539000000434,114.23095699999976,-3.2050779999999577,109.23095699999976
268,41.666503999999804,52.94873000000007,102.94873000000007,101.53857400000015,8.077147999999397,117.82031300000017,25.0,94.87158199999976,106.2822270000006,101.6665039999998,46.53857400000015,112.69238299999961,0.6411130000005869,103.0771479999994
269,37.94873000000007,47.69238299999961,100.76904300000024,108.46142599999985,10.256347999999889,117.30761700000039,23.461425999999847,93.7177729999994,106.6665039999998,100.12841800000024,43.333496000000196,110.12841800000024,4.743652000000111,99.48730499999965
270,34.35888699999941,34.48730499999965,100.64111300000059,112.69238299999961,10.256347999999889,114.35888699999941,20.897460999999566,91.41015599999992,105.0,97.82031300000017,41.79492200000004,107.69238299999961,6.410155999999915,102.94873000000007
271,33.20507799999996,22.82031300000017,100.64111300000059,111.79492200000004,8.717772999999397,110.89746099999957,18.077147999999397,89.23095699999976,102.17968800000017,96.6665039999998,42.17968800000017,106.0258789999998,4.487304999999651,105.51269500000035
272,33.333496000000196,19.871581999999762,98.3334960000002,107.05126999999993,5.897460999999566,108.7177729999994,16.153809000000365,87.94873000000007,99.35888699999941,96.41015599999992,42.17968800000017,104.10253900000043,-0.8974609999995664,102.56396500000028
273,31.410155999999915,24.102539000000434,92.43603499999972,100.25634799999989,1.7949220000000423,107.82031300000017,15.512695000000349,87.05126999999993,97.05126999999993,95.0,38.20507799999996,99.87158199999976,-8.58984399999963,100.64111300000059
274,26.410155999999915,29.230956999999762,86.15380900000036,91.79492200000004,-1.9228520000006029,107.69238299999961,15.769043000000238,86.2822270000006,96.15380900000036,91.6665039999998,31.794922000000042,94.23095699999976,-15.641113000000132,105.51269500000035
275,22.43603499999972,31.282227000000603,84.61523400000078,82.82031300000017,-1.5385740000001533,109.10253900000043,17.05126999999993,86.41015599999992,96.9228520000006,89.10253900000043,30.0,90.76904300000024,-17.051270000000386,109.74365200000011
276,24.871581999999762,31.666503999999804,90.51269500000035,76.41015599999992,5.0,112.05126999999993,18.974121000000196,88.3334960000002,99.74365200000011,90.64111300000059,37.94873000000007,93.46142599999985,-10.641113000000132,105.89746099999957
277,33.7177729999994,33.333496000000196,100.25634799999989,76.15380900000036,14.487304999999651,114.87158199999976,20.128418000000238,90.38476599999922,102.82031300000017,96.15380900000036,52.17968800000017,101.2822270000006,-0.12841800000023795,99.74365200000011
278,43.20507799999996,38.20507799999996,106.53857400000015,83.0771479999994,21.153809000000365,115.38476599999922,19.358886999999413,89.87158199999976,103.20507799999996,101.41015599999992,62.43603499999972,108.7177729999994,7.43603499999972,101.2822270000006
279,47.17968800000017,45.12841800000024,104.48730499999965,93.46142599999985,21.794922000000042,113.46142599999985,17.30761700000039,85.89746099999957,99.87158199999976,102.56396500000028,61.666503999999804,110.25634799999989,8.461425999999847,107.17968800000017
280,43.846190999999635,51.025878999999804,96.0258789999998,100.51269500000035,17.94873000000007,111.0258789999998,15.897460999999566,80.89746099999957,95.0,99.23095699999976,51.666503999999804,105.12841800000024,5.769043000000238,107.94873000000007
281,36.153809000000365,51.2822270000006,87.56396500000028,100.38476599999922,13.589844000000085,110.0,16.153809000000365,77.94873000000007,92.43603499999972,94.61523400000078,40.897460999999566,97.17968800000017,3.846190999999635,104.35888699999941
282,29.615234000000783,44.102539000000434,84.61523400000078,95.38476599999922,12.051269999999931,110.76904300000024,17.56396500000028,78.84619099999964,93.84619099999964,92.56396500000028,38.0771479999994,92.30761700000039,4.743652000000111,104.48730499999965
283,29.48730499999965,34.35888699999941,88.58984400000008,93.3334960000002,15.641113000000587,113.3334960000002,18.717772999999397,83.20507799999996,98.0771479999994,94.61523400000078,46.025878999999804,94.35888699999941,8.205077999999958,107.94873000000007
284,36.666503999999804,30.0,96.9228520000006,98.7177729999994,23.717772999999397,117.30761700000039,19.230956999999762,88.58984400000008,102.56396500000028,99.48730499999965,60.0,102.69238299999961,13.205077999999958,106.15380900000036
285,46.79492200000004,35.76904300000024,105.0,108.20507799999996,32.30761700000039,120.64111300000059,18.974121000000196,91.15380900000036,104.87158199999976,103.58984400000008,71.2822270000006,113.0771479999994,18.333496000000196,99.23095699999976
286,53.0771479999994,47.94873000000007,109.23095699999976,112.69238299999961,36.2822270000006,120.38476599999922,17.56396500000028,88.84619099999964,104.48730499999965,103.7177729999994,73.3334960000002,119.74365200000011,21.025878999999804,97.05126999999993
287,51.9228520000006,57.94873000000007,108.58984400000008,107.82031300000017,34.102539000000434,116.41015599999992,15.128418000000238,83.0771479999994,102.82031300000017,100.12841800000024,67.30761700000039,120.12841800000024,19.615234000000783,102.56396500000028
288,46.153809000000365,60.25634799999989,105.0,97.17968800000017,29.358886999999413,112.56396500000028,13.333496000000196,78.84619099999964,102.43603499999972,96.6665039999998,60.51269500000035,116.41015599999992,15.512695000000349,106.53857400000015
289,41.53857400000015,56.025878999999804,101.79492200000004,89.35888699999941,26.153809000000365,111.79492200000004,13.846190999999635,80.12841800000024,104.35888699999941,97.05126999999993,59.23095699999976,112.69238299999961,12.56396500000028,104.10253900000043
290,41.2822270000006,50.51269500000035,100.12841800000024,90.0,25.641113000000587,113.84619099999964,16.538574000000153,85.38476599999922,107.30761700000039,101.2822270000006,63.0771479999994,110.76904300000024,13.974121000000196,102.56396500000028
291,44.61523400000078,48.20507799999996,100.12841800000024,97.69238299999961,26.666503999999804,116.0258789999998,19.48730499999965,90.0,108.84619099999964,105.51269500000035,67.05126999999993,109.87158199999976,19.48730499999965,106.53857400000015
292,48.0771479999994,49.23095699999976,101.0258789999998,104.87158199999976,27.94873000000007,116.79492200000004,21.153809000000365,90.51269500000035,107.94873000000007,105.64111300000059,66.79492200000004,108.7177729999994,25.384765999999217,109.10253900000043
293,47.69238299999961,49.35888699999941,102.17968800000017,103.46142599999985,29.102539000000434,115.89746099999957,20.641113000000587,87.05126999999993,104.87158199999976,100.38476599999922,62.82031300000017,107.56396500000028,25.51269500000035,104.48730499999965
294,41.410155999999915,44.35888699999941,102.30761700000039,91.2822270000006,28.846190999999635,112.56396500000028,17.94873000000007,81.53857400000015,100.76904300000024,91.15380900000036,57.69238299999961,106.41015599999992,16.025878999999804,99.35888699999941
295,32.05126999999993,35.12841800000024,100.76904300000024,76.6665039999998,26.794922000000042,107.05126999999993,13.589844000000085,76.15380900000036,97.05126999999993,82.05126999999993,54.61523400000078,105.12841800000024,0.8974609999995664,101.79492200000004
296,27.17968800000017,28.589844000000085,97.94873000000007,72.43603499999972,26.025878999999804,101.79492200000004,9.230956999999762,72.94873000000007,95.12841800000024,78.0771479999994,55.64111300000059,103.84619099999964,-8.076904000000013,106.41015599999992
297,32.05126999999993,30.769043000000238,96.15380900000036,85.25634799999989,29.358886999999413,99.87158199999976,7.179688000000169,73.58984400000008,96.0258789999998,82.05126999999993,61.410155999999915,103.20507799999996,-1.2822270000006029,104.74365200000011
298,43.589844000000085,40.51269500000035,96.41015599999992,107.30761700000039,35.76904300000024,101.53857400000015,8.205077999999958,76.53857400000015,98.46142599999985,91.6665039999998,69.61523400000078,103.3334960000002,19.102539000000434,100.0
299,52.05126999999993,48.846190999999635,97.43603499999972,122.69238299999961,40.38476599999922,103.9741210000002,10.897460999999566,78.46142599999985,99.87158199999976,100.76904300000024,76.2822270000006,103.0771479999994,39.35888699999941,100.89746099999957
300,50.0,47.05126999999993,96.79492200000004,120.64111300000059,39.61523400000078,104.48730499999965,12.307617000000391,77.30761700000039,98.46142599999985,103.58984400000008,78.0771479999994,101.79492200000004,47.05126999999993,105.89746099999957
301,38.46142599999985,34.23095699999976,94.23095699999976,104.35888699999941,34.61523400000078,102.56396500000028,11.025878999999804,74.35888699999941,95.51269500000035,99.35888699999941,75.51269500000035,100.0,40.64111300000059,105.51269500000035
302,25.384765999999217,18.846190999999635,91.53857400000015,86.53857400000015,29.48730499999965,99.48730499999965,7.43603499999972,71.9228520000006,93.46142599999985,91.9228520000006,71.6665039999998,98.9741210000002,29.230956999999762,100.0
303,18.333496000000196,12.307617000000391,90.38476599999922,78.3334960000002,27.56396500000028,96.41015599999992,3.4614259999998467,71.41015599999992,93.9741210000002,87.05126999999993,69.10253900000043,99.10253900000043,23.333496000000196,99.10253900000043
304,20.769043000000238,20.0,91.79492200000004,81.79492200000004,29.74365200000011,95.0,1.153809000000365,72.17968800000017,96.6665039999998,88.0771479999994,69.10253900000043,100.0,27.43603499999972,104.35888699999941
305,30.25634799999989,36.53857400000015,95.51269500000035,90.76904300000024,34.48730499999965,97.30761700000039,2.3076170000003913,73.9741210000002,100.12841800000024,93.7177729999994,71.6665039999998,101.53857400000015,37.30761700000039,107.05126999999993
306,39.87158199999976,48.46142599999985,100.0,97.05126999999993,38.974121000000196,102.69238299999961,6.153809000000365,75.64111300000059,101.9228520000006,99.35888699999941,75.0,103.46142599999985,43.974121000000196,103.7177729999994
307,43.46142599999985,45.25634799999989,103.20507799999996,97.94873000000007,40.25634799999989,107.43603499999972,10.512695000000349,76.15380900000036,100.89746099999957,100.64111300000059,77.17968800000017,105.25634799999989,41.79492200000004,102.05126999999993
308,40.12841800000024,29.615234000000783,103.84619099999964,96.15380900000036,38.20507799999996,108.58984400000008,12.051269999999931,75.0,98.46142599999985,98.58984400000008,78.46142599999985,106.53857400000015,34.102539000000434,105.89746099999957
309,35.25634799999989,15.384765999999217,102.94873000000007,95.51269500000035,35.76904300000024,106.2822270000006,9.230956999999762,73.58984400000008,97.94873000000007,97.69238299999961,82.05126999999993,108.20507799999996,30.128418000000238,107.56396500000028
310,34.61523400000078,14.743652000000111,103.3334960000002,97.05126999999993,36.025878999999804,102.94873000000007,4.102539000000434,73.58984400000008,101.41015599999992,101.15380900000036,89.74365200000011,111.15380900000036,35.25634799999989,102.17968800000017
311,38.7177729999994,28.205077999999958,105.89746099999957,98.7177729999994,38.974121000000196,100.76904300000024,0.12841800000023795,75.51269500000035,107.30761700000039,107.43603499999972,98.84619099999964,114.87158199999976,44.74365200000011,97.17968800000017
312,44.102539000000434,44.74365200000011,109.35888699999941,99.35888699999941,42.05126999999993,100.0,-0.512695000000349,77.82031300000017,111.41015599999992,112.05126999999993,103.9741210000002,117.56396500000028,50.0,99.87158199999976
313,47.82031300000017,53.46142599999985,111.53857400000015,100.76904300000024,43.7177729999994,100.64111300000059,2.1796880000001693,78.9741210000002,111.2822270000006,112.17968800000017,102.69238299999961,118.7177729999994,47.82031300000017,104.48730499999965
314,50.0,51.153809000000365,111.9228520000006,105.76904300000024,43.846190999999635,102.30761700000039,5.512695000000349,78.7177729999994,107.94873000000007,108.9741210000002,97.43603499999972,118.58984400000008,43.7177729999994,103.46142599999985
315,51.025878999999804,42.94873000000007,111.53857400000015,114.48730499999965,43.20507799999996,103.3334960000002,6.538574000000153,77.17968800000017,104.23095699999976,106.0258789999998,92.56396500000028,118.20507799999996,44.87158199999976,100.76904300000024
316,50.64111300000059,37.05126999999993,110.51269500000035,122.43603499999972,42.56396500000028,102.05126999999993,3.9741210000001956,75.0,102.69238299999961,106.15380900000036,91.41015599999992,117.69238299999961,52.30761700000039,104.23095699999976
317,48.974121000000196,39.35888699999941,108.3334960000002,123.84619099999964,42.82031300000017,98.7177729999994,-0.6411130000005869,73.3334960000002,103.7177729999994,109.35888699999941,95.12841800000024,117.05126999999993,60.76904300000024,110.12841800000024
318,47.82031300000017,48.46142599999985,105.64111300000059,116.2822270000006,43.846190999999635,95.89746099999957,-3.5898440000000846,73.7177729999994,105.89746099999957,113.20507799999996,102.82031300000017,116.79492200000004,64.35888699999941,108.9741210000002
319,48.333496000000196,57.05126999999993,103.9741210000002,103.0771479999994,43.974121000000196,95.25634799999989,-3.077147999999397,76.2822270000006,107.82031300000017,115.64111300000059,110.76904300000024,117.30761700000039,61.025878999999804,102.56396500000028
320,49.74365200000011,57.69238299999961,103.84619099999964,91.15380900000036,41.666503999999804,96.9228520000006,0.0,78.7177729999994,108.20507799999996,116.2822270000006,114.87158199999976,118.20507799999996,53.846190999999635,101.41015599999992
321,50.76904300000024,50.12841800000024,104.48730499999965,85.76904300000024,38.20507799999996,99.87158199999976,3.4614259999998467,80.0,107.43603499999972,116.53857400000015,114.10253900000043,119.10253900000043,48.846190999999635,106.9228520000006
322,50.64111300000059,41.153809000000365,104.48730499999965,87.69238299999961,37.69238299999961,103.3334960000002,6.025878999999804,80.38476599999922,106.53857400000015,117.56396500000028,111.2822270000006,119.61523400000078,49.87158199999976,109.35888699999941
323,48.846190999999635,37.56396500000028,103.58984400000008,93.58984400000008,42.17968800000017,106.53857400000015,7.948730000000069,80.64111300000059,106.9228520000006,118.0771479999994,109.74365200000011,119.35888699999941,55.51269500000035,105.38476599999922
324,45.64111300000059,41.025878999999804,102.17968800000017,99.61523400000078,49.87158199999976,108.20507799999996,10.128418000000238,81.15380900000036,107.94873000000007,116.6665039999998,110.12841800000024,117.82031300000017,61.153809000000365,102.69238299999961
325,42.30761700000039,47.56396500000028,100.51269500000035,104.48730499999965,55.897460999999566,107.82031300000017,12.56396500000028,81.6665039999998,108.7177729999994,113.3334960000002,110.89746099999957,115.38476599999922,62.69238299999961,104.48730499999965
326,41.153809000000365,51.79492200000004,99.61523400000078,108.84619099999964,56.79492200000004,106.53857400000015,14.358886999999413,81.79492200000004,108.46142599999985,109.74365200000011,110.89746099999957,113.0771479999994,60.25634799999989,104.10253900000043
327,42.82031300000017,49.74365200000011,100.25634799999989,111.9228520000006,51.2822270000006,104.74365200000011,14.358886999999413,81.15380900000036,106.79492200000004,107.69238299999961,109.23095699999976,111.15380900000036,56.2822270000006,99.23095699999976
328,44.87158199999976,41.410155999999915,102.05126999999993,110.25634799999989,41.2822270000006,101.53857400000015,11.153809000000365,79.10253900000043,104.87158199999976,107.05126999999993,105.51269500000035,109.35888699999941,53.20507799999996,97.82031300000017
329,44.48730499999965,31.410155999999915,103.20507799999996,102.30761700000039,32.43603499999972,97.82031300000017,6.153809000000365,76.6665039999998,103.58984400000008,106.79492200000004,101.6665039999998,107.17968800000017,52.17968800000017,104.74365200000011
330,41.79492200000004,26.922852000000603,102.30761700000039,92.05126999999993,31.282227000000603,96.0258789999998,2.5639650000002803,76.2822270000006,104.10253900000043,106.9228520000006,100.64111300000059,105.38476599999922,53.589844000000085,110.76904300000024
331,39.35888699999941,30.897460999999566,100.0,87.05126999999993,39.35888699999941,97.82031300000017,3.077147999999397,79.74365200000011,106.41015599999992,108.20507799999996,104.23095699999976,105.51269500000035,56.53857400000015,107.69238299999961
332,38.589844000000085,38.589844000000085,98.3334960000002,90.76904300000024,49.74365200000011,100.76904300000024,6.666503999999804,85.25634799999989,109.10253900000043,110.25634799999989,110.25634799999989,107.43603499999972,58.7177729999994,101.53857400000015
333,38.46142599999985,41.79492200000004,98.46142599999985,99.35888699999941,52.56396500000028,100.76904300000024,9.487304999999651,88.7177729999994,110.38476599999922,111.2822270000006,114.35888699999941,109.23095699999976,57.69238299999961,102.05126999999993
334,37.69238299999961,37.82031300000017,99.87158199999976,104.87158199999976,45.0,96.79492200000004,8.461425999999847,87.94873000000007,109.74365200000011,110.12841800000024,113.9741210000002,108.84619099999964,53.846190999999635,106.41015599999992
335,36.025878999999804,31.025878999999804,101.15380900000036,102.30761700000039,33.20507799999996,91.9228520000006,3.9741210000001956,84.10253900000043,108.20507799999996,107.43603499999972,110.25634799999989,106.41015599999992,49.74365200000011,105.64111300000059
336,33.974121000000196,27.94873000000007,100.89746099999957,93.58984400000008,26.538574000000153,89.61523400000078,-0.512695000000349,80.25634799999989,107.30761700000039,104.35888699999941,105.64111300000059,103.7177729999994,46.79492200000004,101.53857400000015
337,32.56396500000028,31.153809000000365,99.35888699999941,86.79492200000004,29.615234000000783,91.79492200000004,-2.0512699999999313,78.46142599999985,107.82031300000017,102.94873000000007,102.43603499999972,102.94873000000007,45.897460999999566,102.94873000000007
338,33.846190999999635,38.589844000000085,98.58984400000008,90.0,39.74365200000011,97.82031300000017,0.8974609999995664,80.12841800000024,109.48730499999965,104.61523400000078,101.6665039999998,105.64111300000059,47.17968800000017,108.3334960000002
339,39.23095699999976,46.410155999999915,100.64111300000059,105.25634799999989,50.12841800000024,104.23095699999976,6.794922000000042,84.61523400000078,111.2822270000006,109.35888699999941,103.0771479999994,111.2822270000006,51.153809000000365,108.46142599999985
340,46.153809000000365,50.51269500000035,105.0,124.35888699999941,53.7177729999994,106.79492200000004,11.922852000000603,89.87158199999976,112.56396500000028,114.61523400000078,105.0,116.6665039999998,56.025878999999804,102.94873000000007
341,49.74365200000011,48.333496000000196,108.46142599999985,133.9741210000002,48.46142599999985,103.46142599999985,13.205077999999958,92.17968800000017,112.82031300000017,116.53857400000015,104.23095699999976,117.56396500000028,58.20507799999996,101.15380900000036
342,46.53857400000015,40.64111300000059,107.82031300000017,126.15380900000036,39.35888699999941,98.20507799999996,10.384765999999217,89.48730499999965,112.17968800000017,113.0771479999994,98.20507799999996,112.30761700000039,55.76904300000024,105.51269500000035
343,38.0771479999994,31.794922000000042,103.0771479999994,104.74365200000011,34.61523400000078,97.69238299999961,5.769043000000238,82.56396500000028,110.12841800000024,105.89746099999957,87.69238299999961,103.46142599999985,49.87158199999976,107.30761700000039
344,28.846190999999635,25.769043000000238,97.43603499999972,82.17968800000017,38.20507799999996,104.10253900000043,2.3076170000003913,74.35888699999941,105.51269500000035,99.10253900000043,77.05126999999993,96.2822270000006,42.82031300000017,103.0771479999994
345,23.589844000000085,23.077147999999397,94.61523400000078,70.38476599999922,46.2822270000006,112.05126999999993,0.769043000000238,68.20507799999996,98.7177729999994,95.51269500000035,71.9228520000006,94.10253900000043,36.410155999999915,101.15380900000036
346,25.0,23.333496000000196,96.0258789999998,74.23095699999976,51.153809000000365,114.35888699999941,0.6411130000005869,66.2822270000006,92.43603499999972,95.64111300000059,77.05126999999993,96.6665039999998,32.30761700000039,106.2822270000006
347,32.30761700000039,27.69238299999961,100.76904300000024,90.0,49.74365200000011,108.9741210000002,1.2822270000006029,68.7177729999994,90.51269500000035,98.9741210000002,91.9228520000006,101.79492200000004,33.333496000000196,110.51269500000035
348,41.666503999999804,37.05126999999993,105.89746099999957,107.56396500000028,44.23095699999976,99.87158199999976,1.6665039999998044,73.7177729999994,93.84619099999964,103.3334960000002,109.74365200000011,106.6665039999998,40.25634799999989,107.56396500000028
349,47.05126999999993,47.43603499999972,108.3334960000002,118.0771479999994,38.20507799999996,92.17968800000017,1.2822270000006029,77.82031300000017,100.12841800000024,105.64111300000059,119.48730499999965,108.3334960000002,48.846190999999635,103.58984400000008
350,45.64111300000059,51.9228520000006,106.6665039999998,119.10253900000043,33.7177729999994,89.10253900000043,0.0,78.7177729999994,105.0,103.9741210000002,115.25634799999989,105.89746099999957,53.589844000000085,105.89746099999957
351,41.025878999999804,46.9228520000006,102.82031300000017,115.64111300000059,31.666503999999804,91.15380900000036,-1.153809000000365,77.43603499999972,106.79492200000004,99.74365200000011,100.76904300000024,101.53857400000015,52.94873000000007,109.61523400000078
352,38.974121000000196,36.153809000000365,100.25634799999989,113.3334960000002,31.538574000000153,95.89746099999957,-0.6411130000005869,76.79492200000004,106.41015599999992,97.05126999999993,86.79492200000004,98.7177729999994,50.38476599999922,106.6665039999998
353,42.05126999999993,27.05126999999993,100.38476599999922,113.46142599999985,31.666503999999804,98.84619099999964,1.4101559999999154,78.0771479999994,106.0258789999998,98.7177729999994,82.56396500000028,98.9741210000002,49.61523400000078,101.15380900000036
354,47.56396500000028,24.615234000000783,101.9228520000006,113.9741210000002,30.51269500000035,97.05126999999993,3.4614259999998467,79.74365200000011,106.79492200000004,103.58984400000008,88.7177729999994,100.51269500000035,51.53857400000015,102.43603499999972
355,50.38476599999922,28.205077999999958,101.2822270000006,113.20507799999996,29.871581999999762,93.20507799999996,3.717772999999397,78.7177729999994,107.30761700000039,107.05126999999993,97.69238299999961,100.51269500000035,53.589844000000085,108.3334960000002
356,47.30761700000039,32.17968800000017,96.9228520000006,110.89746099999957,33.846190999999635,93.3334960000002,1.0258789999998044,72.30761700000039,104.10253900000043,104.10253900000043,100.25634799999989,96.9228520000006,52.05126999999993,109.10253900000043
357,38.333496000000196,30.897460999999566,89.87158199999976,106.79492200000004,43.7177729999994,101.0258789999998,-4.358886999999868,60.12841800000024,94.87158199999976,92.82031300000017,92.43603499999972,90.0,43.974121000000196,104.35888699999941
358,27.43603499999972,24.102539000000434,83.20507799999996,101.0258789999998,56.025878999999804,112.69238299999961,-11.28198199999997,45.897460999999566,82.30761700000039,77.82031300000017,78.84619099999964,82.17968800000017,30.769043000000238,102.69238299999961
359,21.666503999999804,18.205077999999958,80.51269500000035,94.74365200000011,64.61523400000078,120.89746099999957,-16.794922000000042,36.666503999999804,73.7177729999994,68.0771479999994,70.25634799999989,78.0771479999994,20.128418000000238,105.38476599999922
360,26.282227000000603,19.871581999999762,83.84619099999964,90.64111300000059,65.64111300000059,120.64111300000059,-18.333252000000357,38.20507799999996,75.64111300000059,71.41015599999992,74.74365200000011,81.2822270000006,21.538574000000153,104.74365200000011
361,40.12841800000024,29.48730499999965,91.53857400000015,91.0258789999998,58.7177729999994,112.30761700000039,-15.38452099999995,50.12841800000024,87.94873000000007,87.82031300000017,89.61523400000078,91.0258789999998,37.94873000000007,99.61523400000078
362,54.87158199999976,39.74365200000011,99.10253900000043,97.30761700000039,46.79492200000004,100.64111300000059,-10.38452099999995,65.25634799999989,103.7177729999994,108.46142599999985,103.58984400000008,101.79492200000004,61.410155999999915,98.7177729999994
363,61.666503999999804,42.82031300000017,102.30761700000039,110.12841800000024,34.61523400000078,91.79492200000004,-6.281981999999971,75.51269500000035,114.61523400000078,122.56396500000028,106.41015599999992,107.82031300000017,79.48730499999965,105.12841800000024
364,58.974121000000196,37.69238299999961,100.51269500000035,129.23095699999976,27.30761700000039,90.64111300000059,-4.61547900000005,77.43603499999972,117.30761700000039,124.87158199999976,96.2822270000006,107.17968800000017,83.9741210000002,109.10253900000043
365,52.94873000000007,29.48730499999965,96.9228520000006,151.0258789999998,27.05126999999993,95.89746099999957,-5.0,73.20507799999996,114.61523400000078,118.46142599999985,80.51269500000035,103.46142599999985,77.17968800000017,104.87158199999976
366,51.666503999999804,23.717772999999397,96.0258789999998,168.20507799999996,30.25634799999989,100.89746099999957,-6.538574000000153,67.94873000000007,112.43603499999972,112.82031300000017,68.3334960000002,102.56396500000028,69.35888699999941,100.51269500000035
367,58.846190999999635,21.922852000000603,100.25634799999989,175.38476599999922,29.230956999999762,98.58984400000008,-7.564209000000574,67.82031300000017,115.51269500000035,117.30761700000039,65.89746099999957,108.20507799999996,72.82031300000017,103.58984400000008
368,71.15380900000036,20.897460999999566,108.3334960000002,175.0,19.230956999999762,87.43603499999972,-6.538574000000153,76.2822270000006,125.12841800000024,135.2563479999999,72.69238299999961,119.61523400000078,91.2822270000006,108.3334960000002
369,80.0,15.0,115.51269500000035,176.53857400000015,2.5639650000002803,74.23095699999976,-3.846190999999635,88.58984400000008,136.79492200000004,158.9741210000002,80.51269500000035,130.0,114.87158199999976,106.9228520000006
370,76.53857400000015,0.8974609999995664,115.38476599999922,186.9228520000006,-11.666747999999643,68.58984400000008,-3.717772999999397,92.17968800000017,141.15380900000036,171.79492200000004,76.0258789999998,130.0,124.10253900000043,103.84619099999964
371,58.333496000000196,-18.205077999999958,103.84619099999964,205.0,-14.61547900000005,76.15380900000036,-11.28198199999997,75.51269500000035,131.15380900000036,160.12841800000024,50.64111300000059,113.84619099999964,104.23095699999976,106.79492200000004
372,34.35888699999941,-33.33325200000036,84.35888699999941,224.48730499999965,-4.871825999999601,94.10253900000043,-27.30761700000039,40.76904300000024,108.20507799999996,126.41015599999992,9.358886999999413,86.15380900000036,59.87158199999976,111.53857400000015
373,20.128418000000238,-35.38452099999995,67.56396500000028,242.17968800000017,9.358886999999413,111.79492200000004,-46.025634999999966,5.256347999999889,84.35888699999941,90.12841800000024,-31.28198199999997,61.153809000000365,13.717772999999397,109.61523400000078
374,27.05126999999993,-21.025634999999966,64.10253900000043,261.6665039999998,15.0,116.0258789999998,-57.564209000000574,-9.230713000000378,74.87158199999976,76.79492200000004,-53.846190999999635,54.102539000000434,-8.205077999999958,103.58984400000008
375,54.61523400000078,5.128418000000238,77.17968800000017,289.7436520000001,4.358886999999413,100.0,-55.64111300000013,8.333496000000196,88.58984400000008,99.74365200000011,-53.58984399999963,69.61523400000078,4.743652000000111,103.3334960000002
376,91.41015599999992,34.87158199999976,99.10253900000043,329.23095699999976,-18.461425999999847,69.74365200000011,-42.435790999999426,49.102539000000434,120.51269500000035,149.61523400000078,-41.153809000000365,98.46142599999985,41.410155999999915,108.58984400000008
377,122.05126999999993,60.897460999999566,116.6665039999998,376.0258789999998,-39.35888699999987,42.17968800000017,-27.820557000000008,88.58984400000008,153.3334960000002,199.23095699999976,-36.66674799999964,122.69238299999961,75.0,110.12841800000024
378,134.61523400000078,77.56396500000028,119.35888699999941,418.9741210000002,-44.48706099999981,33.46142599999985,-23.076904000000013,99.61523400000078,166.0258789999998,220.51269500000035,-56.79492200000004,127.05126999999993,80.25634799999989,107.30761700000039
379,127.17968800000017,82.82031300000017,105.51269500000035,446.4101559999999,-31.794922000000042,48.0771479999994,-33.46142599999985,72.43603499999972,149.48730499999965,205.0,-103.33325200000036,108.46142599999985,49.102539000000434,107.82031300000017
380,109.61523400000078,80.76904300000024,83.58984400000008,454.87158199999976,-13.076904000000013,74.35888699999941,-53.20507799999996,24.230956999999762,114.61523400000078,170.38476599999922,-159.7436520000001,78.58984400000008,-2.6923829999996087,112.43603499999972
381,97.69238299999961,79.35888699999941,67.94873000000007,454.48730499999965,-6.153809000000365,92.69238299999961,-69.48706099999981,-11.41015600000037,86.6665039999998,147.6923829999996,-201.15380900000036,56.79492200000004,-46.92309599999999,112.05126999999993
382,101.53857400000015,85.51269500000035,67.82031300000017,459.7436520000001,-21.923095999999987,89.48730499999965,-73.07690400000001,-10.897461000000021,84.61523400000078,156.2822270000006,-213.46142599999985,55.64111300000059,-63.58984399999963,104.87158199999976
383,118.0771479999994,99.10253900000043,79.61523400000078,476.53857400000015,-55.51293900000019,67.43603499999972,-66.02563499999997,19.102539000000434,105.12841800000024,188.84619099999964,-204.35888699999987,71.41015599999992,-56.153809000000365,100.51269500000035
