,EEG.AF3,EEG.F7,EEG.F3,EEG.FC5,EEG.T7,EEG.P7,EEG.O1,EEG.O2,EEG.P8,EEG.T8,EEG.FC6,EEG.F4,EEG.F8,EEG.AF4
0,98.9741210000002,14.871581999999762,93.7177729999994,344.7436520000001,6.538574000000153,85.51269500000035,30.384765999999217,88.9741210000002,158.20507799999996,206.79492200000004,-126.79492200000004,97.17968800000017,98.84619099999964,110.25634799999989
1,80.76904300000024,-8.846190999999635,79.10253900000043,360.3847659999992,5.3847659999992175,98.9741210000002,19.74365200000011,65.0,142.56396500000028,204.3588869999994,-162.9487299999996,78.58984400000008,86.9228520000006,113.20507799999996
2,66.0258789999998,-28.846190999999635,67.05126999999993,383.3334960000002,0.769043000000238,109.48730499999965,8.205077999999958,43.7177729999994,131.15380900000036,206.41015599999992,-186.02563499999997,63.589844000000085,72.94873000000007,110.89746099999957
3,68.20507799999996,-32.17944299999999,66.41015599999992,414.3588869999994,-10.512939000000188,110.0,3.2050779999999577,40.0,134.3588869999994,222.82031300000017,-188.58984399999963,62.69238299999961,67.05126999999993,108.0771479999994
4,87.17968800000017,-18.333252000000357,76.9228520000006,446.9228520000006,-26.923095999999987,99.61523400000078,6.794922000000042,56.025878999999804,152.05126999999993,252.3076170000004,-176.66674799999964,75.38476599999922,69.74365200000011,110.64111300000059
5,111.15380900000036,2.0512699999999313,89.61523400000078,472.3076170000004,-42.69238299999961,84.10253900000043,14.871581999999762,80.76904300000024,173.3334960000002,282.94873000000007,-165.76928699999962,91.2822270000006,73.58984400000008,113.46142599999985
6,128.0771479999994,17.69238299999961,96.53857400000015,486.4101559999999,-51.66674799999964,71.9228520000006,20.51269500000035,99.23095699999976,184.61523400000078,301.9228520000006,-168.076904,100.25634799999989,72.56396500000028,109.61523400000078
7,134.87158199999976,24.358886999999413,97.05126999999993,490.3847659999992,-53.58984399999963,66.15380900000036,19.615234000000783,104.23095699999976,180.6411130000006,306.6665039999998,-183.58984399999963,100.51269500000035,67.94873000000007,103.58984400000008
8,138.0771479999994,27.05126999999993,95.89746099999957,489.23095699999976,-53.71801800000003,62.94873000000007,13.717772999999397,100.51269500000035,168.7177729999994,306.4101559999999,-201.923096,97.94873000000007,66.9228520000006,104.10253900000043
9,145.2563479999999,33.333496000000196,96.79492200000004,487.82031300000017,-56.153809000000365,57.94873000000007,8.461425999999847,98.20507799999996,161.41015599999992,312.5639650000003,-212.179443,99.23095699999976,74.48730499999965,107.82031300000017
10,156.41015599999992,46.79492200000004,98.7177729999994,486.0258789999998,-57.564209000000574,53.20507799999996,7.051269999999931,100.76904300000024,163.20507799999996,324.3588869999994,-214.10253899999998,103.20507799999996,84.61523400000078,106.53857400000015
11,161.6665039999998,62.30761700000039,95.76904300000024,476.9228520000006,-50.51293900000019,55.51269500000035,6.025878999999804,99.35888699999941,164.3588869999994,326.0258789999998,-219.23071300000038,100.51269500000035,80.89746099999957,102.17968800000017
12,150.38476599999922,71.41015599999992,82.69238299999961,452.4360349999997,-32.435790999999426,68.46142599999985,-1.9228520000006029,80.76904300000024,150.6411130000006,301.15380900000036,-239.10253899999998,82.30761700000039,49.87158199999976,102.30761700000039
13,124.35888699999941,71.9228520000006,62.30761700000039,413.0771479999994,-8.58984399999963,87.69238299999961,-19.8718259999996,44.48730499999965,119.35888699999941,251.2822270000006,-272.179443,51.666503999999804,-2.0512699999999313,104.87158199999976
14,101.2822270000006,71.41015599999992,47.05126999999993,371.53857400000015,11.153809000000365,103.58984400000008,-40.1281740000004,7.692382999999609,86.0258789999998,200.12841800000024,-300.38452099999995,25.51269500000035,-47.82055700000001,102.30761700000039
15,100.51269500000035,80.64111300000059,49.87158199999976,343.0771479999994,20.25634799999989,108.0771479999994,-49.23071300000038,-6.281981999999971,72.30761700000039,176.9228520000006,-304.102539,22.69238299999961,-59.10253899999998,96.9228520000006
16,126.53857400000015,103.20507799999996,72.17968800000017,331.4101559999999,18.589844000000085,99.87158199999976,-38.58984399999963,13.077147999999397,88.0771479999994,193.7177729999994,-277.9487299999996,47.56396500000028,-29.358886999999868,98.3334960000002
17,165.51269500000035,132.56396500000028,101.0258789999998,326.53857400000015,13.205077999999958,85.51269500000035,-12.564209000000574,55.12841800000024,124.35888699999941,236.53857400000015,-236.02563499999997,86.2822270000006,21.025878999999804,104.74365200000011
18,197.05126999999993,158.3334960000002,121.0258789999998,314.48730499999965,13.974121000000196,75.12841800000024,14.615234000000783,97.05126999999993,160.12841800000024,275.89746099999957,-198.84619099999964,117.69238299999961,62.30761700000039,105.12841800000024
19,208.7177729999994,174.7436520000001,125.89746099999957,287.05126999999993,26.794922000000042,76.6665039999998,29.358886999999413,118.9741210000002,177.05126999999993,286.6665039999998,-180.64111300000013,129.48730499999965,75.0,99.23095699999976
20,201.6665039999998,181.79492200000004,120.25634799999989,245.0,49.74365200000011,89.35888699999941,28.077147999999397,114.61523400000078,169.23095699999976,262.6923829999996,-181.53857400000015,123.3334960000002,59.61523400000078,98.0771479999994
21,187.43603499999972,184.7436520000001,113.7177729999994,195.76904300000024,73.9741210000002,105.51269500000035,17.56396500000028,93.20507799999996,146.41015599999992,219.48730499999965,-191.02563499999997,110.51269500000035,32.69238299999961,103.58984400000008
22,179.3588869999994,190.38476599999922,113.9741210000002,149.48730499999965,92.05126999999993,116.9228520000006,10.0,73.20507799999996,126.79492200000004,182.94873000000007,-194.4870609999998,103.84619099999964,14.871581999999762,104.74365200000011
23,184.23095699999976,203.3334960000002,123.20507799999996,113.20507799999996,102.82031300000017,120.51269500000035,13.846190999999635,69.74365200000011,124.48730499999965,171.0258789999998,-182.3076170000004,109.87158199999976,18.589844000000085,98.3334960000002
24,197.3076170000004,222.56396500000028,136.15380900000036,86.79492200000004,110.25634799999989,118.84619099999964,27.43603499999972,82.69238299999961,138.58984400000008,180.0,-157.820557,123.84619099999964,39.87158199999976,95.25634799999989
25,206.53857400000015,241.6665039999998,143.0771479999994,63.974121000000196,118.58984400000008,117.30761700000039,40.0,97.05126999999993,153.3334960000002,188.0771479999994,-133.97436500000003,133.20507799999996,61.2822270000006,100.12841800000024
26,202.6923829999996,255.38476599999922,138.20507799999996,38.589844000000085,128.9741210000002,121.15380900000036,41.53857400000015,95.76904300000024,151.53857400000015,173.20507799999996,-121.02563499999997,128.46142599999985,65.38476599999922,101.41015599999992
27,187.6923829999996,263.46142599999985,126.0258789999998,9.358886999999413,137.6923829999996,131.41015599999992,31.538574000000153,75.76904300000024,129.61523400000078,132.05126999999993,-116.79492200000004,113.0771479999994,49.74365200000011,92.82031300000017
28,171.6665039999998,269.23095699999976,118.20507799999996,-21.538574000000153,138.20507799999996,143.3334960000002,20.128418000000238,51.025878999999804,100.76904300000024,82.17968800000017,-109.23071300000038,100.38476599999922,27.17968800000017,85.12841800000024
29,164.23095699999976,275.51269500000035,122.05126999999993,-51.53857400000015,125.51269500000035,148.7177729999994,19.102539000000434,39.87158199999976,84.23095699999976,48.0771479999994,-87.43579099999943,100.89746099999957,15.384765999999217,87.43603499999972
30,168.20507799999996,284.48730499999965,135.12841800000024,-78.20507799999996,102.30761700000039,143.0771479999994,31.922852000000603,51.410155999999915,89.48730499999965,43.333496000000196,-50.0,114.48730499999965,23.717772999999397,90.38476599999922
31,180.38476599999922,297.82031300000017,149.10253900000043,-96.92309599999999,79.35888699999941,130.51269500000035,52.05126999999993,79.10253900000043,111.41015599999992,63.0771479999994,-3.4614259999998467,132.82031300000017,48.974121000000196,83.0771479999994
32,193.58984400000008,315.89746099999957,157.05126999999993,-103.71801800000003,67.43603499999972,120.51269500000035,68.9741210000002,107.17968800000017,134.61523400000078,89.10253900000043,42.69238299999961,146.15380900000036,77.05126999999993,73.58984400000008
33,200.6411130000006,334.7436520000001,156.53857400000015,-99.8718259999996,69.74365200000011,119.10253900000043,76.53857400000015,120.25634799999989,145.0,102.69238299999961,80.38476599999922,149.23095699999976,92.05126999999993,74.35888699999941
34,198.7177729999994,348.9741210000002,149.3588869999994,-92.94872999999961,80.51269500000035,125.25634799999989,75.76904300000024,113.84619099999964,138.0771479999994,96.79492200000004,108.3334960000002,142.43603499999972,87.17968800000017,80.12841800000024
35,192.17968800000017,356.9228520000006,141.53857400000015,-91.02563499999997,92.69238299999961,132.94873000000007,72.43603499999972,96.79492200000004,120.89746099999957,79.48730499999965,134.3588869999994,133.3334960000002,70.89746099999957,77.30761700000039
36,189.48730499999965,362.3076170000004,139.87158199999976,-97.05127000000039,102.69238299999961,136.2822270000006,72.94873000000007,84.35888699999941,105.64111300000059,66.0258789999998,170.2563479999999,130.6411130000006,60.76904300000024,69.10253900000043
37,194.23095699999976,368.20507799999996,145.12841800000024,-108.07690400000001,109.35888699999941,132.6923829999996,79.74365200000011,86.15380900000036,101.0258789999998,66.0258789999998,221.2822270000006,136.9228520000006,68.46142599999985,69.74365200000011
38,201.79492200000004,375.12841800000024,151.0258789999998,-118.46142599999985,113.84619099999964,124.35888699999941,89.74365200000011,98.84619099999964,106.15380900000036,75.51269500000035,281.4101559999999,145.38476599999922,90.76904300000024,79.74365200000011
39,205.38476599999922,381.9228520000006,150.12841800000024,-122.69238299999961,119.87158199999976,117.82031300000017,98.20507799999996,111.6665039999998,112.30761700000039,82.56396500000028,340.0,147.05126999999993,114.23095699999976,85.0
40,202.05126999999993,389.3588869999994,142.6923829999996,-117.94872999999961,132.6923829999996,118.58984400000008,102.69238299999961,116.15380900000036,111.41015599999992,78.58984400000008,390.51269500000035,140.0,128.3334960000002,81.9228520000006
41,195.0,397.3076170000004,134.7436520000001,-106.66674799999964,155.2563479999999,125.38476599999922,104.48730499999965,111.9228520000006,102.30761700000039,64.61523400000078,432.94873000000007,129.61523400000078,133.3334960000002,83.0771479999994
42,189.61523400000078,403.84619099999964,132.17968800000017,-96.53857400000015,186.15380900000036,131.53857400000015,107.30761700000039,105.12841800000024,91.15380900000036,49.102539000000434,471.2822270000006,122.82031300000017,139.10253900000043,93.58984400000008
43,190.12841800000024,407.6923829999996,136.2822270000006,-95.38452099999995,221.6665039999998,131.2822270000006,114.23095699999976,103.0771479999994,85.12841800000024,40.64111300000059,509.23095699999976,123.3334960000002,156.6665039999998,101.9228520000006
44,196.9228520000006,410.89746099999957,143.9741210000002,-104.8718259999996,259.10253900000043,124.87158199999976,125.25634799999989,109.35888699999941,86.6665039999998,42.30761700000039,551.6665039999998,130.0,189.23095699999976,100.38476599999922
45,206.0258789999998,417.05126999999993,150.12841800000024,-118.71801800000003,296.0258789999998,116.6665039999998,137.56396500000028,120.76904300000024,91.6665039999998,48.46142599999985,602.3076170000004,137.56396500000028,230.38476599999922,97.82031300000017
46,211.6665039999998,427.17968800000017,150.2563479999999,-128.076904,331.79492200000004,110.51269500000035,147.82031300000017,130.12841800000024,93.0771479999994,50.12841800000024,661.4101559999999,140.51269500000035,269.48730499999965,103.20507799999996
47,212.6923829999996,440.3847659999992,143.84619099999964,-128.97436500000003,369.23095699999976,108.84619099999964,155.51269500000035,132.94873000000007,86.9228520000006,41.2822270000006,724.6152340000008,136.41015599999992,301.4101559999999,109.48730499999965
48,213.7177729999994,454.7436520000001,136.41015599999992,-124.48706099999981,414.6152340000008,112.69238299999961,164.23095699999976,131.6665039999998,76.15380900000036,24.358886999999413,784.8715819999998,128.84619099999964,328.84619099999964,106.9228520000006
49,219.3588869999994,467.4360349999997,134.61523400000078,-123.20507799999996,469.6152340000008,118.84619099999964,177.17968800000017,132.3076170000004,68.20507799999996,8.205077999999958,834.8715819999998,124.61523400000078,354.7436520000001,101.2822270000006
50,227.3076170000004,473.7177729999994,139.48730499999965,-132.56420900000057,527.6923829999996,121.79492200000004,194.3588869999994,137.82031300000017,67.94873000000007,-1.0258789999998044,868.7177729999994,125.76904300000024,375.2563479999999,103.46142599999985
51,230.6411130000006,471.0258789999998,145.12841800000024,-152.3076170000004,578.8461909999996,117.56396500000028,210.89746099999957,145.12841800000024,72.94873000000007,-3.5898440000000846,884.4873049999997,128.46142599999985,382.82031300000017,111.15380900000036
52,226.0258789999998,463.46142599999985,143.7177729999994,-172.6923829999996,618.5898440000001,108.46142599999985,221.15380900000036,148.20507799999996,76.2822270000006,-5.256347999999889,886.5385740000002,126.41015599999992,374.87158199999976,113.0771479999994
53,216.0258789999998,458.0771479999994,133.20507799999996,-181.923096,650.7690430000002,100.51269500000035,223.3334960000002,143.3334960000002,71.79492200000004,-11.666747999999643,883.3334960000002,117.30761700000039,357.4360349999997,108.20507799999996
54,206.9228520000006,458.5898440000001,118.3334960000002,-175.38452099999995,680.3847659999992,96.79492200000004,220.89746099999957,131.79492200000004,59.48730499999965,-22.435790999999426,882.4360349999997,104.48730499999965,342.3076170000004,106.79492200000004
55,203.9741210000002,462.6923829999996,106.9228520000006,-157.0512700000004,708.8461909999996,96.0258789999998,220.38476599999922,119.48730499999965,46.2822270000006,-31.923095999999987,886.6665039999998,93.9741210000002,340.12841800000024,113.20507799999996
56,210.12841800000024,466.4101559999999,106.0258789999998,-135.38452099999995,733.205078,95.25634799999989,227.6923829999996,114.10253900000043,40.51269500000035,-32.69238299999961,894.3588869999994,92.05126999999993,355.51269500000035,118.7177729999994
57,223.20507799999996,467.82031300000017,115.64111300000059,-118.07690400000001,749.2309569999998,93.84619099999964,243.9741210000002,119.61523400000078,46.153809000000365,-22.435790999999426,901.6665039999998,100.51269500000035,383.7177729999994,117.94873000000007
58,235.51269500000035,466.79492200000004,129.3588869999994,-110.25634799999989,752.8203130000002,91.41015599999992,264.3588869999994,132.94873000000007,59.48730499999965,-6.281981999999971,905.0,114.23095699999976,410.89746099999957,116.79492200000004
59,238.46142599999985,462.3076170000004,137.43603499999972,-112.94872999999961,742.8203130000002,87.82031300000017,281.2822270000006,145.89746099999957,71.79492200000004,6.538574000000153,902.4360349999997,123.58984400000008,422.6923829999996,120.76904300000024
60,229.61523400000078,453.20507799999996,134.7436520000001,-120.64111300000013,723.5898440000001,84.87158199999976,289.87158199999976,150.51269500000035,75.51269500000035,9.615234000000783,893.3334960000002,122.56396500000028,413.46142599999985,124.87158199999976
61,213.58984400000008,438.84619099999964,123.7177729999994,-124.23071300000038,701.794922,84.23095699999976,291.15380900000036,144.48730499999965,69.10253900000043,2.5639650000002803,876.794922,112.17968800000017,389.3588869999994,122.69238299999961
62,198.0771479999994,420.3847659999992,111.53857400000015,-116.53857400000015,682.4360349999997,85.38476599999922,290.0,130.89746099999957,58.20507799999996,-8.58984399999963,850.6411130000006,98.84619099999964,361.9228520000006,118.0771479999994
63,188.20507799999996,401.2822270000006,104.48730499999965,-97.82055700000001,667.1796880000002,86.0258789999998,291.53857400000015,115.76904300000024,51.53857400000015,-15.769286999999622,814.4873049999997,88.9741210000002,340.89746099999957,118.7177729999994
64,185.12841800000024,386.2822270000006,105.12841800000024,-73.58984399999963,655.6411130000006,86.15380900000036,297.82031300000017,105.0,54.74365200000011,-14.487060999999812,772.3076170000004,86.53857400000015,330.0,123.58984400000008
65,186.9228520000006,377.94873000000007,111.9228520000006,-50.76928699999962,646.794922,87.56396500000028,308.0771479999994,101.79492200000004,67.17968800000017,-5.897461000000021,730.6411130000006,91.15380900000036,327.3076170000004,124.74365200000011
66,188.84619099999964,373.9741210000002,120.0,-33.846190999999635,636.794922,90.76904300000024,319.48730499999965,104.61523400000078,82.05126999999993,5.128418000000238,693.5898440000001,98.46142599999985,326.4101559999999,121.2822270000006
67,186.79492200000004,368.5898440000001,124.35888699999941,-22.564209000000574,620.1284180000002,93.46142599999985,328.5898440000001,109.23095699999976,91.6665039999998,14.358886999999413,661.9228520000006,103.46142599999985,319.6152340000008,120.76904300000024
68,180.6411130000006,358.0771479999994,122.94873000000007,-10.769286999999622,594.4873049999997,92.94873000000007,332.5639650000003,111.0258789999998,92.82031300000017,20.384765999999217,635.1284180000002,103.84619099999964,303.5898440000001,125.76904300000024
69,174.23095699999976,343.5898440000001,117.30761700000039,8.974121000000196,563.7177729999994,90.0,330.6411130000006,108.3334960000002,87.69238299999961,24.615234000000783,612.3076170000004,100.89746099999957,281.9228520000006,129.48730499999965
70,170.89746099999957,328.0771479999994,111.2822270000006,38.333496000000196,534.7436520000001,87.30761700000039,325.0,102.43603499999972,82.05126999999993,27.94873000000007,589.7436520000001,97.30761700000039,262.4360349999997,127.05126999999993
71,169.7436520000001,314.10253900000043,107.30761700000039,70.0,511.15380900000036,86.0258789999998,319.7436520000001,96.9228520000006,81.0258789999998,30.128418000000238,561.9228520000006,94.23095699999976,251.15380900000036,123.20507799999996
72,167.56396500000028,302.94873000000007,106.2822270000006,94.23095699999976,490.3847659999992,86.41015599999992,318.7177729999994,96.0258789999998,86.15380900000036,30.128418000000238,526.4101559999999,91.79492200000004,249.61523400000078,123.58984400000008
73,162.3076170000004,294.7436520000001,107.43603499999972,106.9228520000006,467.05126999999993,87.94873000000007,322.3076170000004,100.89746099999957,94.10253900000043,27.30761700000039,487.4360349999997,88.9741210000002,256.0258789999998,125.12841800000024
74,153.9741210000002,288.84619099999964,108.84619099999964,112.30761700000039,437.17968800000017,90.0,327.6923829999996,107.17968800000017,97.94873000000007,21.153809000000365,451.15380900000036,85.0,266.79492200000004,122.30761700000039
75,144.61523400000078,285.3847659999992,107.94873000000007,117.69238299999961,401.9228520000006,90.89746099999957,330.0,108.20507799999996,92.94873000000007,12.17968800000017,421.4101559999999,78.9741210000002,276.79492200000004,117.82031300000017
76,137.3076170000004,286.0258789999998,104.10253900000043,127.56396500000028,368.46142599999985,90.51269500000035,326.6665039999998,100.89746099999957,80.76904300000024,2.8203130000001693,398.5898440000001,72.30761700000039,281.0258789999998,117.56396500000028
77,134.23095699999976,292.17968800000017,99.87158199999976,140.51269500000035,345.12841800000024,90.25634799999989,319.7436520000001,90.12841800000024,69.10253900000043,-3.5898440000000846,381.53857400000015,68.0771479999994,276.2822270000006,120.12841800000024
78,134.23095699999976,301.0258789999998,98.7177729999994,151.2822270000006,334.87158199999976,91.79492200000004,314.10253900000043,84.10253900000043,65.38476599999922,-4.358886999999868,368.84619099999964,67.82031300000017,262.5639650000003,119.10253900000043
79,133.3334960000002,304.87158199999976,101.6665039999998,154.48730499999965,331.9228520000006,94.23095699999976,312.5639650000003,86.79492200000004,70.76904300000024,-0.769043000000238,357.17968800000017,69.61523400000078,243.84619099999964,115.25634799999989
80,128.9741210000002,297.6923829999996,106.53857400000015,148.46142599999985,327.94873000000007,95.76904300000024,313.7177729999994,95.25634799999989,79.87158199999976,4.230956999999762,344.3588869999994,71.15380900000036,227.3076170000004,115.64111300000059
81,123.84619099999964,282.4360349999997,110.64111300000059,136.15380900000036,319.7436520000001,96.41015599999992,314.7436520000001,103.20507799999996,85.89746099999957,8.077147999999397,332.82031300000017,72.69238299999961,220.6411130000006,120.38476599999922
82,122.43603499999972,267.94873000000007,112.17968800000017,122.94873000000007,309.7436520000001,97.05126999999993,313.3334960000002,105.89746099999957,85.38476599999922,10.256347999999889,327.6923829999996,75.64111300000059,226.9228520000006,121.6665039999998
83,126.53857400000015,260.89746099999957,110.64111300000059,111.9228520000006,300.51269500000035,97.30761700000039,309.48730499999965,101.9228520000006,79.74365200000011,11.153809000000365,331.53857400000015,80.12841800000024,241.79492200000004,116.41015599999992
84,133.3334960000002,259.87158199999976,107.17968800000017,103.0771479999994,292.3076170000004,96.6665039999998,304.10253900000043,94.35888699999941,73.0771479999994,12.051269999999931,341.0258789999998,84.74365200000011,257.17968800000017,111.15380900000036
85,139.61523400000078,258.9741210000002,104.48730499999965,94.87158199999976,284.3588869999994,95.51269500000035,298.84619099999964,88.46142599999985,69.61523400000078,14.230956999999762,350.2563479999999,88.46142599999985,267.94873000000007,111.0258789999998
86,144.7436520000001,253.58984400000008,105.89746099999957,85.64111300000059,276.9228520000006,95.76904300000024,294.7436520000001,88.58984400000008,71.15380900000036,18.589844000000085,355.2563479999999,91.79492200000004,274.48730499999965,112.17968800000017
87,149.3588869999994,242.94873000000007,111.9228520000006,73.84619099999964,270.2563479999999,97.82031300000017,292.05126999999993,94.35888699999941,75.76904300000024,23.974121000000196,355.2563479999999,95.64111300000059,278.9741210000002,110.12841800000024
88,153.7177729999994,230.38476599999922,119.35888699999941,60.25634799999989,263.9741210000002,100.0,289.87158199999976,101.2822270000006,80.38476599999922,28.846190999999635,352.4360349999997,100.12841800000024,283.3334960000002,108.7177729999994
89,158.3334960000002,221.79492200000004,124.23095699999976,48.7177729999994,258.5898440000001,101.2822270000006,287.17968800000017,105.38476599999922,83.3334960000002,33.333496000000196,350.51269500000035,105.12841800000024,289.6152340000008,112.17968800000017
90,164.23095699999976,220.38476599999922,125.12841800000024,44.35888699999941,254.3588869999994,101.53857400000015,284.3588869999994,106.53857400000015,85.51269500000035,39.48730499999965,352.5639650000003,111.0258789999998,300.12841800000024,116.2822270000006
91,170.6411130000006,221.9228520000006,123.0771479999994,48.0771479999994,248.7177729999994,100.38476599999922,281.79492200000004,106.9228520000006,89.23095699999976,49.48730499999965,358.20507799999996,117.17968800000017,314.48730499999965,114.61523400000078
92,175.0,217.17968800000017,120.12841800000024,54.23095699999976,238.20507799999996,97.17968800000017,279.48730499999965,108.20507799999996,96.0258789999998,63.333496000000196,363.84619099999964,121.6665039999998,328.0771479999994,110.12841800000024
93,175.38476599999922,201.41015599999992,118.20507799999996,56.025878999999804,222.6923829999996,93.0771479999994,277.82031300000017,111.2822270000006,104.74365200000011,78.7177729999994,365.6411130000006,123.46142599999985,336.6665039999998,110.25634799999989
94,173.58984400000008,179.10253900000043,118.84619099999964,52.17968800000017,207.94873000000007,91.15380900000036,277.5639650000003,115.89746099999957,112.30761700000039,91.15380900000036,362.4360349999997,124.10253900000043,338.9741210000002,113.84619099999964
95,171.9228520000006,159.48730499999965,121.6665039999998,46.666503999999804,199.48730499999965,93.3334960000002,278.46142599999985,120.12841800000024,115.0,95.89746099999957,354.87158199999976,125.25634799999989,335.89746099999957,113.46142599999985
96,170.6411130000006,147.56396500000028,123.84619099999964,44.102539000000434,196.9228520000006,97.30761700000039,279.3588869999994,121.0258789999998,112.05126999999993,91.0258789999998,343.84619099999964,126.2822270000006,328.7177729999994,109.10253900000043
97,168.58984400000008,141.79492200000004,122.43603499999972,45.25634799999989,195.38476599999922,99.35888699999941,277.82031300000017,117.43603499999972,106.15380900000036,80.12841800000024,331.0258789999998,125.51269500000035,320.12841800000024,109.10253900000043
98,166.2822270000006,138.20507799999996,117.69238299999961,47.82031300000017,191.15380900000036,99.10253900000043,273.7177729999994,112.43603499999972,102.43603499999972,71.6665039999998,319.23095699999976,123.20507799999996,315.6411130000006,115.25634799999989
99,165.76904300000024,133.58984400000008,112.94873000000007,48.333496000000196,183.58984400000008,98.0771479999994,268.20507799999996,110.64111300000059,104.48730499999965,72.30761700000039,311.15380900000036,122.05126999999993,319.87158199999976,118.84619099999964
100,167.43603499999972,126.0258789999998,111.53857400000015,44.23095699999976,173.20507799999996,96.9228520000006,263.3334960000002,113.7177729999994,111.6665039999998,81.6665039999998,306.15380900000036,123.84619099999964,331.0258789999998,115.25634799999989
101,170.12841800000024,114.61523400000078,114.10253900000043,36.79492200000004,161.53857400000015,95.0,260.0,118.58984400000008,119.48730499999965,93.84619099999964,302.17968800000017,128.20507799999996,343.0771479999994,111.15380900000036
102,173.3334960000002,101.6665039999998,119.10253900000043,30.769043000000238,151.79492200000004,92.69238299999961,257.94873000000007,121.53857400000015,123.46142599999985,102.56396500000028,297.6923829999996,133.7177729999994,351.79492200000004,112.56396500000028
103,176.41015599999992,89.61523400000078,123.9741210000002,31.153809000000365,147.17968800000017,91.41015599999992,256.9228520000006,121.79492200000004,123.0771479999994,105.89746099999957,292.5639650000003,138.84619099999964,357.82031300000017,114.61523400000078
104,177.94873000000007,78.58984400000008,126.53857400000015,37.94873000000007,147.3076170000004,90.89746099999957,256.6665039999998,121.15380900000036,121.2822270000006,105.89746099999957,286.6665039999998,142.17968800000017,363.0771479999994,111.53857400000015
105,175.2563479999999,67.17968800000017,125.76904300000024,47.30761700000039,148.9741210000002,90.0,257.17968800000017,122.17968800000017,121.9228520000006,106.6665039999998,279.87158199999976,142.94873000000007,367.4360349999997,107.56396500000028
106,169.23095699999976,56.025878999999804,123.20507799999996,55.25634799999989,148.7177729999994,89.10253900000043,257.82031300000017,126.2822270000006,126.79492200000004,111.0258789999998,273.0771479999994,142.82031300000017,370.76904300000024,109.23095699999976
107,163.9741210000002,47.17968800000017,122.05126999999993,59.87158199999976,145.38476599999922,91.0258789999998,258.7177729999994,133.0771479999994,134.48730499999965,119.23095699999976,268.5898440000001,144.10253900000043,374.6152340000008,112.94873000000007
108,162.17968800000017,39.74365200000011,123.7177729999994,59.48730499999965,138.3334960000002,96.53857400000015,259.10253900000043,139.7436520000001,141.2822270000006,127.69238299999961,266.15380900000036,147.05126999999993,379.3588869999994,111.6665039999998
109,162.82031300000017,29.615234000000783,126.53857400000015,54.102539000000434,127.30761700000039,102.17968800000017,257.6923829999996,142.6923829999996,144.10253900000043,131.53857400000015,262.4360349999997,150.0,383.46142599999985,108.46142599999985
110,162.6923829999996,14.358886999999413,127.43603499999972,48.0771479999994,113.58984400000008,104.35888699999941,254.10253900000043,140.38476599999922,142.56396500000028,128.84619099999964,254.7436520000001,151.2822270000006,385.51269500000035,111.2822270000006
111,160.6411130000006,-2.5639650000002803,125.51269500000035,48.20507799999996,100.0,102.82031300000017,249.7436520000001,135.89746099999957,138.7177729999994,122.43603499999972,244.3588869999994,150.89746099999957,386.4101559999999,117.94873000000007
112,157.43603499999972,-14.8718259999996,121.41015599999992,56.9228520000006,89.23095699999976,100.25634799999989,246.6665039999998,133.46142599999985,136.0258789999998,117.56396500000028,234.48730499999965,149.7436520000001,388.46142599999985,119.35888699999941
113,153.58984400000008,-18.974365000000034,117.56396500000028,68.9741210000002,80.51269500000035,99.23095699999976,246.15380900000036,135.38476599999922,136.9228520000006,118.58984400000008,226.9228520000006,148.84619099999964,392.3076170000004,114.87158199999976
114,149.61523400000078,-16.923095999999987,116.53857400000015,76.79492200000004,71.6665039999998,100.12841800000024,248.0771479999994,141.15380900000036,141.53857400000015,126.15380900000036,221.53857400000015,149.48730499999965,396.79492200000004,113.46142599999985
115,146.9228520000006,-14.230713000000378,120.0,77.05126999999993,62.43603499999972,102.56396500000028,251.41015599999992,148.7177729999994,147.56396500000028,138.20507799999996,217.94873000000007,152.94873000000007,400.89746099999957,117.43603499999972
116,145.6411130000006,-17.564209000000574,127.05126999999993,71.79492200000004,54.102539000000434,106.15380900000036,254.7436520000001,156.2822270000006,153.20507799999996,150.6411130000006,215.76904300000024,158.58984400000008,403.84619099999964,118.20507799999996
117,143.58984400000008,-31.538574000000153,133.3334960000002,64.61523400000078,47.30761700000039,108.58984400000008,256.0258789999998,161.2822270000006,156.79492200000004,158.58984400000008,213.20507799999996,163.46142599999985,404.48730499999965,112.43603499999972
118,138.46142599999985,-53.71801800000003,134.3588869999994,58.589844000000085,41.9228520000006,108.58984400000008,253.84619099999964,162.6923829999996,157.6923829999996,160.51269500000035,208.3334960000002,164.87158199999976,402.4360349999997,108.3334960000002
119,131.41015599999992,-74.48706099999981,129.3588869999994,56.2822270000006,38.0771479999994,107.56396500000028,249.3588869999994,161.53857400000015,156.53857400000015,158.20507799999996,200.89746099999957,162.82031300000017,399.7436520000001,111.2822270000006
120,125.25634799999989,-84.10253899999998,121.41015599999992,58.974121000000196,36.153809000000365,108.84619099999964,245.6411130000006,160.6411130000006,155.12841800000024,156.0258789999998,192.82031300000017,159.3588869999994,399.6152340000008,114.87158199999976
121,120.89746099999957,-81.28198199999997,115.12841800000024,65.51269500000035,34.35888699999941,113.20507799999996,245.0,161.6665039999998,154.7436520000001,156.6665039999998,186.2822270000006,156.53857400000015,402.05126999999993,113.20507799999996
122,116.6665039999998,-74.61547900000005,112.94873000000007,72.30761700000039,28.846190999999635,117.94873000000007,247.17968800000017,163.9741210000002,155.6411130000006,159.87158199999976,181.15380900000036,154.7436520000001,403.5898440000001,110.89746099999957
123,111.41015599999992,-74.61547900000005,114.74365200000011,77.05126999999993,17.56396500000028,119.74365200000011,248.7177729999994,165.89746099999957,157.3076170000004,163.9741210000002,175.2563479999999,153.84619099999964,401.53857400000015,113.84619099999964
124,105.25634799999989,-85.0,117.30761700000039,79.74365200000011,2.3076170000003913,117.30761700000039,246.41015599999992,165.76904300000024,158.3334960000002,167.3076170000004,164.61523400000078,152.82031300000017,396.2822270000006,117.43603499999972
125,98.0771479999994,-101.92309599999999,116.53857400000015,80.12841800000024,-13.205077999999958,112.05126999999993,239.48730499999965,162.6923829999996,157.82031300000017,168.7177729999994,146.15380900000036,150.2563479999999,389.6152340000008,115.25634799999989
126,88.58984400000008,-117.82055700000001,110.76904300000024,76.41015599999992,-25.769286999999622,106.41015599999992,230.76904300000024,157.3076170000004,155.51269500000035,168.58984400000008,120.76904300000024,144.7436520000001,383.3334960000002,111.41015599999992
127,77.43603499999972,-125.89746100000002,102.94873000000007,68.20507799999996,-33.71801800000003,103.84619099999964,225.12841800000024,152.82031300000017,152.94873000000007,168.9741210000002,95.38476599999922,138.20507799999996,379.48730499999965,113.20507799999996
128,68.3334960000002,-124.8718259999996,99.23095699999976,58.974121000000196,-37.051270000000386,106.41015599999992,225.89746099999957,153.0771479999994,152.94873000000007,172.94873000000007,78.3334960000002,134.7436520000001,379.48730499999965,117.82031300000017
129,64.35888699999941,-120.25634799999989,102.56396500000028,53.974121000000196,-38.33325200000036,111.9228520000006,232.82031300000017,159.3588869999994,156.53857400000015,181.79492200000004,72.05126999999993,136.79492200000004,383.0771479999994,116.53857400000015
130,65.25634799999989,-121.41015600000037,109.87158199999976,55.64111300000059,-42.051270000000386,116.0258789999998,241.2822270000006,167.94873000000007,161.79492200000004,193.0771479999994,71.41015599999992,142.05126999999993,386.9228520000006,110.76904300000024
131,67.43603499999972,-131.923096,115.64111300000059,62.69238299999961,-50.1281740000004,116.0258789999998,246.6665039999998,173.58984400000008,165.89746099999957,202.43603499999972,68.7177729999994,146.41015599999992,387.5639650000003,110.0
132,67.82031300000017,-146.28198199999997,116.0258789999998,72.05126999999993,-59.61547900000005,114.23095699999976,247.43603499999972,175.0,167.56396500000028,208.3334960000002,61.2822270000006,147.94873000000007,384.10253900000043,115.38476599999922
133,64.48730499999965,-155.0,110.89746099999957,81.15380900000036,-66.02563499999997,114.74365200000011,245.51269500000035,174.61523400000078,168.46142599999985,211.53857400000015,52.17968800000017,147.3076170000004,376.9228520000006,118.7177729999994
134,57.05126999999993,-155.1281740000004,103.58984400000008,88.3334960000002,-68.84619099999964,117.94873000000007,243.9741210000002,175.0,170.2563479999999,213.9741210000002,44.61523400000078,145.76904300000024,365.0,117.17968800000017
135,47.94873000000007,-150.89746100000002,98.7177729999994,92.43603499999972,-70.89746100000002,121.2822270000006,243.84619099999964,175.76904300000024,172.82031300000017,215.76904300000024,38.7177729999994,143.7177729999994,347.17968800000017,117.17968800000017
136,41.9228520000006,-146.66674799999964,98.9741210000002,94.48730499999965,-74.74365200000011,121.9228520000006,243.46142599999985,175.0,173.84619099999964,215.51269500000035,32.56396500000028,141.41015599999992,326.0258789999998,120.64111300000059
137,43.20507799999996,-141.79492200000004,103.46142599999985,97.56396500000028,-80.76928699999962,119.35888699999941,240.6411130000006,171.41015599999992,171.15380900000036,212.17968800000017,25.25634799999989,139.3588869999994,307.4360349999997,120.51269500000035
138,50.64111300000059,-135.0,108.20507799999996,103.84619099999964,-88.84619099999964,114.35888699999941,235.12841800000024,165.12841800000024,163.9741210000002,205.89746099999957,17.30761700000039,137.56396500000028,294.6152340000008,114.10253900000043
139,58.46142599999985,-127.43579099999943,110.51269500000035,111.79492200000004,-98.58984399999963,109.10253900000043,229.23095699999976,157.56396500000028,154.7436520000001,198.46142599999985,10.128418000000238,135.89746099999957,285.3847659999992,109.35888699999941
140,61.666503999999804,-120.51293900000019,110.25634799999989,117.05126999999993,-107.30761700000039,106.6665039999998,226.15380900000036,152.56396500000028,148.20507799999996,193.0771479999994,5.512695000000349,134.23095699999976,275.12841800000024,111.9228520000006
141,59.87158199999976,-113.33325200000036,108.84619099999964,116.15380900000036,-111.66674799999964,109.87158199999976,227.43603499999972,153.7177729999994,147.3076170000004,191.2822270000006,2.6923829999996087,133.20507799999996,261.2822270000006,115.25634799999989
142,56.153809000000365,-103.97436500000003,106.9228520000006,110.76904300000024,-110.25634799999989,116.9228520000006,232.05126999999993,161.0258789999998,151.79492200000004,191.9228520000006,-1.7949220000000423,132.3076170000004,244.61523400000078,113.0771479999994
143,53.46142599999985,-92.56420900000057,104.87158199999976,106.79492200000004,-105.1281740000004,122.94873000000007,235.89746099999957,169.3588869999994,157.17968800000017,191.41015599999992,-11.28198199999997,130.51269500000035,227.3076170000004,109.87158199999976
144,53.974121000000196,-82.56420900000057,103.58984400000008,109.10253900000043,-100.0,124.48730499999965,235.89746099999957,172.56396500000028,158.7177729999994,186.79492200000004,-24.61547900000005,128.20507799999996,211.41015599999992,112.05126999999993
145,57.56396500000028,-76.92309599999999,104.61523400000078,116.41015599999992,-96.92309599999999,122.30761700000039,231.79492200000004,168.7177729999994,155.51269500000035,178.7177729999994,-36.025634999999966,127.17968800000017,198.7177729999994,115.76904300000024
146,62.05126999999993,-76.53857400000015,107.82031300000017,121.15380900000036,-96.92309599999999,119.35888699999941,225.89746099999957,160.51269500000035,149.3588869999994,171.15380900000036,-41.153809000000365,127.82031300000017,188.0771479999994,114.10253900000043
147,63.974121000000196,-80.1281740000004,110.89746099999957,117.43603499999972,-99.8718259999996,116.6665039999998,220.6411130000006,152.05126999999993,142.94873000000007,166.79492200000004,-41.66674799999964,128.84619099999964,177.05126999999993,110.51269500000035
148,61.666503999999804,-83.97436500000003,111.2822270000006,106.79492200000004,-103.46142599999985,113.84619099999964,216.79492200000004,145.6411130000006,137.6923829999996,165.6411130000006,-42.30761700000039,127.82031300000017,164.7436520000001,111.9228520000006
149,57.17968800000017,-83.58984399999963,107.43603499999972,97.82031300000017,-104.23071300000038,110.76904300000024,214.48730499999965,141.9228520000006,133.7177729999994,165.12841800000024,-45.1281740000004,124.10253900000043,153.0771479999994,115.64111300000059
150,53.846190999999635,-76.92309599999999,101.0258789999998,98.84619099999964,-100.89746100000002,108.58984400000008,213.7177729999994,140.51269500000035,131.0258789999998,162.94873000000007,-49.23071300000038,119.61523400000078,144.48730499999965,114.48730499999965
151,53.20507799999996,-66.79492200000004,95.0,111.2822270000006,-96.79492200000004,107.05126999999993,214.10253900000043,140.0,129.23095699999976,157.82031300000017,-54.23071300000038,116.15380900000036,137.43603499999972,110.0
152,54.87158199999976,-58.58984399999963,92.05126999999993,129.61523400000078,-97.05127000000039,105.89746099999957,214.48730499999965,139.10253900000043,128.3334960000002,150.89746099999957,-60.89746100000002,113.9741210000002,128.20507799999996,110.25634799999989
153,57.69238299999961,-55.25634799999989,92.82031300000017,145.51269500000035,-101.66674799999964,105.51269500000035,214.10253900000043,137.56396500000028,127.94873000000007,145.0,-69.23071300000038,112.30761700000039,115.25634799999989,114.74365200000011
154,60.897460999999566,-54.35888699999987,95.89746099999957,153.46142599999985,-105.76928699999962,107.17968800000017,212.56396500000028,137.17968800000017,128.46142599999985,142.94873000000007,-76.92309599999999,110.76904300000024,101.15380900000036,115.0
155,63.46142599999985,-51.92309599999999,98.7177729999994,152.3076170000004,-104.74365200000011,110.76904300000024,210.51269500000035,138.9741210000002,130.2563479999999,145.51269500000035,-81.15380900000036,108.84619099999964,89.48730499999965,109.35888699999941
156,64.23095699999976,-45.89746100000002,99.10253900000043,146.2822270000006,-98.58984399999963,113.84619099999964,208.20507799999996,142.17968800000017,132.82031300000017,150.51269500000035,-81.66674799999964,107.05126999999993,82.30761700000039,106.15380900000036
157,63.589844000000085,-38.20507799999996,96.15380900000036,141.9228520000006,-91.28198199999997,114.23095699999976,205.76904300000024,145.12841800000024,135.2563479999999,154.48730499999965,-80.38452099999995,105.76904300000024,78.58984400000008,108.84619099999964
158,62.94873000000007,-32.17944299999999,91.2822270000006,142.6923829999996,-86.66674799999964,112.17968800000017,203.58984400000008,146.41015599999992,136.41015599999992,154.61523400000078,-80.0,104.87158199999976,76.0258789999998,110.38476599999922
159,61.410155999999915,-30.544922000000042,90.51269500000035,141.875,-87.61206099999981,110.27246099999957,201.13769500000035,143.83007799999996,133.1088869999994,149.5991210000002,-82.40380900000036,104.31103499999972,69.26269500000035,110.49658199999976
160,59.87158199999976,-28.91015600000037,89.74365200000011,141.0576170000004,-88.55761700000039,108.36523400000078,198.68603499999972,141.25,129.8076170000004,144.5834960000002,-84.80761700000039,103.75,62.5,110.60888699999941
161,58.333496000000196,-27.275634999999966,88.9741210000002,140.24023400000078,-89.5031740000004,106.4584960000002,196.2338869999994,138.66992200000004,126.50634799999989,139.5673829999996,-87.21142599999985,103.18896500000028,55.73730499999965,110.72119099999964
162,56.79492200000004,-25.641113000000132,88.20507799999996,139.4228520000006,-90.44872999999961,104.55126999999993,193.7822270000006,136.08984400000008,123.20507799999996,134.55126999999993,-89.61547900000005,102.62841800000024,48.974121000000196,110.8334960000002
163,55.25634799999989,-24.00634799999989,87.43603499999972,138.60595699999976,-91.39428699999962,102.64404300000024,191.33007799999996,133.50976599999922,119.90380900000036,129.53515599999992,-92.01928699999962,102.06738299999961,42.21142599999985,110.94531300000017
164,53.7177729999994,-22.3718259999996,86.6665039999998,137.78857400000015,-92.33984399999963,100.73730499999965,188.87841800000024,130.92968800000017,116.60253900000043,124.51904300000024,-94.42309599999999,101.50634799999989,35.44873000000007,111.05761700000039
165,52.17968800000017,-20.737060999999812,85.89746099999957,136.97119099999964,-93.28515600000037,98.83007799999996,186.42626999999993,128.3491210000002,113.30126999999993,119.50341800000024,-96.82690400000001,100.94531300000017,28.68603499999972,111.16992200000004
166,50.64111300000059,-19.10253899999998,85.12841800000024,136.15380900000036,-94.23071300000038,96.9228520000006,183.9741210000002,125.76904300000024,110.0,114.48730499999965,-99.23071300000038,100.38476599999922,21.922852000000603,111.2822270000006
167,50.64111300000059,-23.71801800000003,83.9741210000002,139.87158199999976,-91.53857400000015,98.20507799999996,181.6665039999998,126.53857400000015,111.6665039999998,109.48730499999965,-107.05127000000039,99.23095699999976,15.0,108.46142599999985
168,48.7177729999994,-26.153809000000365,82.82031300000017,138.84619099999964,-88.46142599999985,100.0,177.17968800000017,125.25634799999989,112.17968800000017,102.69238299999961,-108.97436500000003,96.6665039999998,6.282227000000603,103.58984400000008
169,44.23095699999976,-24.74365200000011,81.53857400000015,132.17968800000017,-87.69238299999961,99.87158199999976,171.53857400000015,121.41015599999992,110.76904300000024,94.87158199999976,-105.64111300000013,92.94873000000007,-4.358886999999868,105.12841800000024
170,39.35888699999941,-17.69238299999961,80.76904300000024,123.9741210000002,-89.10253899999998,98.46142599999985,167.17968800000017,117.30761700000039,107.82031300000017,89.10253900000043,-99.48706099999981,89.74365200000011,-12.692382999999609,110.51269500000035
171,37.94873000000007,-5.512939000000188,80.89746099999957,118.9741210000002,-89.23071300000038,98.3334960000002,166.2822270000006,116.9228520000006,106.0258789999998,88.46142599999985,-92.94872999999961,89.10253900000043,-13.974365000000034,111.15380900000036
172,40.38476599999922,7.179688000000169,81.0258789999998,118.58984400000008,-85.51293900000019,101.0258789999998,168.3334960000002,120.89746099999957,106.9228520000006,92.56396500000028,-89.10253899999998,90.76904300000024,-8.076904000000013,106.9228520000006
173,43.0771479999994,13.974121000000196,80.12841800000024,121.9228520000006,-78.58984399999963,105.25634799999989,170.76904300000024,126.0258789999998,109.35888699999941,97.43603499999972,-90.38452099999995,91.6665039999998,-1.153809000000365,106.41015599999992
174,43.20507799999996,12.17968800000017,77.82031300000017,127.69238299999961,-71.02563499999997,108.9741210000002,170.6411130000006,128.20507799999996,110.38476599999922,98.20507799999996,-96.66674799999964,89.74365200000011,0.0,110.12841800000024
175,41.53857400000015,5.256347999999889,75.89746099999957,134.87158199999976,-65.51293900000019,110.64111300000059,168.0771479999994,126.6665039999998,108.46142599999985,93.3334960000002,-104.48706099999981,85.89746099999957,-7.179442999999992,110.76904300000024
176,40.0,-0.38476599999921746,76.2822270000006,140.38476599999922,-63.974365000000034,110.38476599999922,164.87158199999976,123.46142599999985,104.74365200000011,86.0258789999998,-110.0,82.56396500000028,-19.8718259999996,106.6665039999998
177,39.23095699999976,0.512695000000349,78.7177729999994,140.38476599999922,-65.76928699999962,108.7177729999994,162.82031300000017,121.6665039999998,101.79492200000004,81.2822270000006,-110.76928699999962,81.6665039999998,-33.20507799999996,105.64111300000059
178,39.35888699999941,9.615234000000783,81.79492200000004,133.3334960000002,-67.43579099999943,107.05126999999993,162.56396500000028,122.56396500000028,101.0258789999998,81.79492200000004,-107.17944299999999,83.20507799999996,-41.53857400000015,110.12841800000024
179,40.51269500000035,23.589844000000085,82.82031300000017,122.43603499999972,-65.51293900000019,107.05126999999993,163.0771479999994,125.64111300000059,101.6665039999998,85.51269500000035,-101.79492200000004,85.51269500000035,-42.30761700000039,112.43603499999972
180,40.897460999999566,34.48730499999965,80.51269500000035,113.20507799999996,-60.51293900000019,107.69238299999961,162.3076170000004,127.82031300000017,101.53857400000015,86.6665039999998,-98.20507799999996,85.64111300000059,-38.46142599999985,108.58984400000008
181,37.82031300000017,34.74365200000011,74.48730499999965,110.38476599999922,-57.051270000000386,106.15380900000036,158.0771479999994,125.64111300000059,98.46142599999985,80.51269500000035,-98.84619099999964,81.41015599999992,-37.435790999999426,105.38476599999922
182,30.897460999999566,23.846190999999635,67.30761700000039,114.48730499999965,-58.33325200000036,101.15380900000036,150.38476599999922,118.20507799999996,92.56396500000028,68.3334960000002,-102.30761700000039,73.84619099999964,-43.33325200000036,108.58984400000008
183,24.74365200000011,10.641113000000587,62.82031300000017,121.53857400000015,-62.30761700000039,95.76904300000024,141.79492200000004,109.48730499999965,87.43603499999972,57.56396500000028,-103.84619099999964,67.69238299999961,-52.69238299999961,112.43603499999972
184,23.846190999999635,5.897460999999566,63.589844000000085,124.87158199999976,-63.71801800000003,94.23095699999976,136.2822270000006,105.38476599999922,86.6665039999998,55.64111300000059,-100.38452099999995,67.43603499999972,-57.564209000000574,110.38476599999922
185,27.43603499999972,12.82031300000017,68.20507799999996,120.0,-60.51293900000019,96.79492200000004,135.0,107.56396500000028,90.38476599999922,62.82031300000017,-94.8718259999996,71.6665039999998,-54.8718259999996,107.05126999999993
186,30.0,25.384765999999217,71.79492200000004,107.69238299999961,-56.025634999999966,99.23095699999976,135.51269500000035,112.30761700000039,94.87158199999976,72.43603499999972,-93.58984399999963,74.74365200000011,-48.846190999999635,109.10253900000043
187,27.30761700000039,34.48730499999965,70.25634799999989,95.64111300000059,-54.61547900000005,97.94873000000007,134.61523400000078,114.10253900000043,95.38476599999922,76.41015599999992,-98.97436500000003,71.79492200000004,-47.17944299999999,112.05126999999993
188,20.25634799999989,34.87158199999976,64.48730499999965,92.56396500000028,-57.051270000000386,92.82031300000017,130.6411130000006,110.51269500000035,90.76904300000024,71.6665039999998,-107.30761700000039,63.333496000000196,-53.974365000000034,108.46142599999985
189,12.948730000000069,27.82031300000017,59.35888699999941,101.0258789999998,-60.76928699999962,86.9228520000006,124.48730499999965,103.7177729999994,83.20507799999996,61.666503999999804,-112.82055700000001,54.87158199999976,-66.53857400000015,102.17968800000017
190,9.743652000000111,19.230956999999762,58.974121000000196,114.35888699999941,-62.564209000000574,83.3334960000002,119.23095699999976,98.0771479999994,77.69238299999961,52.56396500000028,-111.53857400000015,51.79492200000004,-78.20507799999996,102.17968800000017
191,12.948730000000069,15.769043000000238,63.846190999999635,123.3334960000002,-60.25634799999989,84.48730499999965,117.30761700000039,97.69238299999961,77.17968800000017,49.23095699999976,-103.71801800000003,55.897460999999566,-82.69238299999961,107.17968800000017
192,21.282227000000603,20.0,70.51269500000035,123.20507799999996,-53.71801800000003,90.25634799999989,119.61523400000078,102.94873000000007,81.41015599999992,52.30761700000039,-92.56420900000057,64.35888699999941,-78.71801800000003,107.69238299999961
193,30.0,28.461425999999847,74.74365200000011,115.0,-45.64111300000013,97.30761700000039,124.35888699999941,110.12841800000024,86.9228520000006,58.333496000000196,-82.69238299999961,71.79492200000004,-70.64111300000013,102.69238299999961
194,33.589844000000085,34.48730499999965,73.9741210000002,103.3334960000002,-40.0,101.9228520000006,127.82031300000017,114.23095699999976,90.38476599999922,62.43603499999972,-77.69238299999961,73.7177729999994,-64.61547900000005,101.15380900000036
195,30.25634799999989,35.64111300000059,69.48730499999965,93.9741210000002,-38.20507799999996,102.56396500000028,127.17968800000017,113.84619099999964,90.25634799999989,62.30761700000039,-77.94872999999961,70.38476599999922,-63.33325200000036,105.51269500000035
196,23.333496000000196,34.61523400000078,64.87158199999976,92.17968800000017,-38.07690400000001,101.0258789999998,122.17968800000017,110.64111300000059,88.20507799999996,58.974121000000196,-80.76928699999962,65.51269500000035,-64.74365200000011,108.0771479999994
197,18.077147999999397,35.64111300000059,63.7177729999994,98.58984400000008,-36.79492200000004,99.10253900000043,115.51269500000035,107.82031300000017,86.2822270000006,55.897460999999566,-83.07690400000001,63.46142599999985,-65.64111300000013,105.38476599999922
198,17.05126999999993,39.35888699999941,66.79492200000004,107.56396500000028,-34.23071300000038,97.30761700000039,110.76904300000024,107.43603499999972,86.15380900000036,55.897460999999566,-83.33325200000036,65.38476599999922,-65.0,104.35888699999941
199,20.384765999999217,43.846190999999635,71.9228520000006,111.41015599999992,-31.538574000000153,96.15380900000036,109.87158199999976,109.35888699999941,88.0771479999994,59.61523400000078,-81.53857400000015,69.10253900000043,-63.974365000000034,107.94873000000007
200,26.025878999999804,48.0771479999994,76.15380900000036,107.56396500000028,-28.846190999999635,97.05126999999993,112.56396500000028,112.94873000000007,91.41015599999992,65.51269500000035,-77.69238299999961,72.17968800000017,-62.948729999999614,109.10253900000043
201,31.410155999999915,52.69238299999961,77.56396500000028,100.51269500000035,-25.0,101.15380900000036,116.53857400000015,116.9228520000006,95.25634799999989,71.0258789999998,-72.30761700000039,72.94873000000007,-61.92309599999999,103.7177729999994
202,34.35888699999941,57.05126999999993,77.17968800000017,97.30761700000039,-19.61547900000005,106.41015599999992,118.7177729999994,119.61523400000078,97.82031300000017,73.3334960000002,-66.66674799999964,71.79492200000004,-60.89746100000002,99.87158199999976
203,34.35888699999941,58.846190999999635,76.6665039999998,101.15380900000036,-14.358886999999868,109.61523400000078,117.05126999999993,120.51269500000035,98.20507799999996,71.41015599999992,-62.17944299999999,69.61523400000078,-60.64111300000013,104.23095699999976
204,32.82031300000017,56.53857400000015,77.43603499999972,108.0771479999994,-11.025634999999966,108.7177729999994,112.17968800000017,119.74365200000011,96.41015599999992,66.41015599999992,-59.23071300000038,67.82031300000017,-61.41015600000037,109.87158199999976
205,31.410155999999915,50.38476599999922,79.61523400000078,110.38476599999922,-10.897461000000021,103.9741210000002,106.6665039999998,117.82031300000017,93.20507799999996,61.2822270000006,-57.82055700000001,67.05126999999993,-62.564209000000574,107.82031300000017
206,30.384765999999217,42.43603499999972,82.05126999999993,103.46142599999985,-13.974365000000034,97.69238299999961,103.20507799999996,114.61523400000078,90.0,58.0771479999994,-57.17944299999999,67.30761700000039,-63.46142599999985,102.30761700000039
207,29.48730499999965,36.410155999999915,83.9741210000002,90.89746099999957,-17.30761700000039,93.46142599999985,102.56396500000028,110.38476599999922,88.46142599999985,58.20507799999996,-56.025634999999966,68.9741210000002,-62.948729999999614,103.20507799999996
208,29.74365200000011,36.666503999999804,85.12841800000024,82.69238299999961,-16.41015600000037,94.48730499999965,104.10253900000043,107.94873000000007,89.87158199999976,62.30761700000039,-51.53857400000015,73.3334960000002,-58.58984399999963,108.58984400000008
209,32.82031300000017,46.025878999999804,86.2822270000006,86.53857400000015,-8.846190999999635,101.2822270000006,106.41015599999992,110.0,93.9741210000002,69.23095699999976,-42.17944299999999,80.12841800000024,-49.61547900000005,109.10253900000043
210,37.82031300000017,61.9228520000006,88.20507799999996,100.25634799999989,2.0512699999999313,109.48730499999965,107.56396500000028,115.76904300000024,98.84619099999964,76.15380900000036,-31.025634999999966,86.79492200000004,-39.35888699999987,104.74365200000011
211,42.43603499999972,76.0258789999998,90.12841800000024,113.46142599999985,9.102539000000434,112.43603499999972,105.64111300000059,121.2822270000006,101.6665039999998,79.74365200000011,-23.461425999999847,89.23095699999976,-33.46142599999985,103.7177729999994
212,44.61523400000078,81.41015599999992,91.0258789999998,117.30761700000039,8.333496000000196,107.82031300000017,100.76904300000024,122.30761700000039,101.2822270000006,79.10253900000043,-22.820557000000008,86.2822270000006,-33.846190999999635,107.05126999999993
213,44.87158199999976,77.30761700000039,90.25634799999989,111.53857400000015,1.6665039999998044,99.61523400000078,95.25634799999989,118.20507799999996,98.0771479999994,75.89746099999957,-27.051270000000386,80.89746099999957,-37.564209000000574,107.30761700000039
214,44.48730499999965,68.46142599999985,88.46142599999985,103.46142599999985,-5.128174000000399,93.58984400000008,92.05126999999993,111.2822270000006,94.48730499999965,73.3334960000002,-31.28198199999997,77.56396500000028,-40.89746100000002,102.94873000000007
215,44.102539000000434,61.025878999999804,86.6665039999998,100.0,-6.923095999999987,93.0771479999994,92.82031300000017,105.38476599999922,92.94873000000007,73.3334960000002,-31.41015600000037,78.46142599999985,-42.82055700000001,102.17968800000017
216,43.589844000000085,58.46142599999985,86.0258789999998,101.9228520000006,-1.9228520000006029,97.56396500000028,96.2822270000006,104.10253900000043,94.87158199999976,76.41015599999992,-26.794922000000042,82.69238299999961,-43.846190999999635,107.30761700000039
217,43.7177729999994,61.666503999999804,87.05126999999993,105.12841800000024,8.077147999999397,104.48730499999965,100.12841800000024,108.46142599999985,100.12841800000024,81.53857400000015,-18.974365000000034,87.17968800000017,-42.564209000000574,110.0
218,44.87158199999976,68.7177729999994,89.35888699999941,104.48730499999965,18.205077999999958,110.64111300000059,101.9228520000006,116.6665039999998,106.2822270000006,87.17968800000017,-11.28198199999997,89.35888699999941,-37.30761700000039,106.53857400000015
219,46.025878999999804,75.89746099999957,91.41015599999992,99.10253900000043,22.69238299999961,112.43603499999972,100.64111300000059,123.58984400000008,110.0,91.0258789999998,-6.538574000000153,88.3334960000002,-29.10253899999998,105.0
220,46.410155999999915,79.10253900000043,91.15380900000036,91.9228520000006,20.0,109.48730499999965,97.05126999999993,125.12841800000024,109.10253900000043,92.30761700000039,-5.769286999999622,85.38476599999922,-22.30761700000039,110.89746099999957
221,46.2822270000006,76.9228520000006,88.84619099999964,87.43603499999972,13.717772999999397,104.61523400000078,92.94873000000007,120.89746099999957,104.23095699999976,90.76904300000024,-7.307617000000391,83.3334960000002,-20.25634799999989,116.6665039999998
222,45.897460999999566,70.51269500000035,86.9228520000006,87.56396500000028,9.102539000000434,101.2822270000006,90.0,113.46142599999985,98.20507799999996,87.30761700000039,-9.61547900000005,83.46142599999985,-23.333252000000357,113.7177729999994
223,44.102539000000434,62.82031300000017,87.05126999999993,89.10253900000043,8.589844000000085,100.64111300000059,88.46142599999985,106.2822270000006,93.9741210000002,82.56396500000028,-12.307617000000391,84.48730499999965,-29.74365200000011,107.17968800000017
224,40.38476599999922,58.20507799999996,89.10253900000043,88.46142599999985,10.641113000000587,101.53857400000015,87.17968800000017,101.2822270000006,92.43603499999972,77.30761700000039,-15.0,84.23095699999976,-36.66674799999964,106.0258789999998
225,36.153809000000365,60.12841800000024,91.0258789999998,85.38476599999922,13.461425999999847,103.46142599999985,85.89746099999957,99.74365200000011,92.56396500000028,73.0771479999994,-15.769286999999622,81.9228520000006,-41.28198199999997,107.82031300000017
226,34.23095699999976,67.94873000000007,90.89746099999957,84.10253900000043,16.410155999999915,106.41015599999992,84.87158199999976,101.2822270000006,92.17968800000017,70.76904300000024,-13.846190999999635,78.58984400000008,-43.58984399999963,105.25634799999989
227,35.0,75.0,88.20507799999996,88.7177729999994,18.077147999999397,108.9741210000002,84.48730499999965,103.0771479999994,89.74365200000011,68.84619099999964,-11.41015600000037,75.12841800000024,-46.025634999999966,100.76904300000024
228,36.53857400000015,74.87158199999976,83.58984400000008,99.48730499999965,17.05126999999993,109.74365200000011,84.10253900000043,102.17968800000017,85.38476599999922,66.0258789999998,-11.538574000000153,71.9228520000006,-50.1281740000004,102.69238299999961
229,38.0771479999994,68.46142599999985,80.25634799999989,112.82031300000017,15.128418000000238,108.84619099999964,83.58984400000008,98.58984400000008,81.2822270000006,62.82031300000017,-13.58984399999963,70.0,-51.92309599999999,108.9741210000002
230,41.153809000000365,64.23095699999976,81.2822270000006,123.7177729999994,16.282227000000603,108.58984400000008,83.7177729999994,95.76904300000024,80.51269500000035,62.43603499999972,-12.948729999999614,71.53857400000015,-46.92309599999999,110.0
231,46.153809000000365,68.58984400000008,87.56396500000028,127.05126999999993,22.17968800000017,111.15380900000036,85.64111300000059,96.79492200000004,84.35888699999941,66.79492200000004,-7.179442999999992,77.05126999999993,-36.53857400000015,105.0
232,50.38476599999922,79.48730499999965,95.76904300000024,119.48730499999965,30.641113000000587,115.76904300000024,88.9741210000002,101.9228520000006,90.0,73.84619099999964,0.769043000000238,83.9741210000002,-28.974365000000034,102.82031300000017
233,50.38476599999922,88.0771479999994,101.15380900000036,102.94873000000007,36.666503999999804,120.51269500000035,92.05126999999993,107.43603499999972,93.58984400000008,79.23095699999976,4.358886999999413,88.3334960000002,-31.41015600000037,105.89746099999957
234,45.897460999999566,87.17968800000017,101.2822270000006,86.0258789999998,37.56396500000028,123.20507799999996,92.94873000000007,110.25634799999989,93.20507799999996,79.35888699999941,1.4101559999999154,87.69238299999961,-42.435790999999426,106.2822270000006
235,40.12841800000024,75.64111300000059,97.05126999999993,78.46142599999985,33.20507799999996,122.17968800000017,91.15380900000036,108.9741210000002,90.0,74.23095699999976,-4.358886999999868,82.82031300000017,-53.07690400000001,101.6665039999998
236,37.43603499999972,59.23095699999976,92.05126999999993,83.9741210000002,26.410155999999915,117.82031300000017,87.17968800000017,105.25634799999989,86.6665039999998,68.20507799999996,-6.025634999999966,77.56396500000028,-53.846190999999635,100.38476599999922
237,40.64111300000059,47.05126999999993,89.87158199999976,96.15380900000036,21.922852000000603,112.69238299999961,83.0771479999994,101.79492200000004,85.38476599999922,66.6665039999998,1.5385740000001533,76.0258789999998,-40.89746100000002,106.41015599999992
238,49.87158199999976,46.666503999999804,91.79492200000004,103.9741210000002,24.230956999999762,111.15380900000036,81.2822270000006,102.05126999999993,87.05126999999993,72.69238299999961,17.30761700000039,80.38476599999922,-18.333252000000357,111.0258789999998
239,61.2822270000006,56.79492200000004,96.6665039999998,99.48730499999965,33.20507799999996,115.0,82.69238299999961,106.9228520000006,90.76904300000024,83.7177729999994,33.846190999999635,88.84619099999964,4.6152340000007825,107.30761700000039
240,68.7177729999994,68.58984400000008,101.2822270000006,85.25634799999989,42.56396500000028,121.53857400000015,86.2822270000006,113.20507799999996,94.87158199999976,93.7177729999994,42.30761700000039,96.0258789999998,18.589844000000085,102.17968800000017
241,68.84619099999964,73.46142599999985,102.56396500000028,73.3334960000002,45.12841800000024,125.12841800000024,89.35888699999941,116.2822270000006,97.30761700000039,97.43603499999972,39.23095699999976,97.69238299999961,20.128418000000238,104.23095699999976
242,65.0,70.12841800000024,100.12841800000024,75.0,39.87158199999976,123.7177729999994,90.12841800000024,114.23095699999976,97.17968800000017,94.74365200000011,30.25634799999989,93.7177729999994,14.487304999999651,108.7177729999994
243,62.94873000000007,63.589844000000085,96.41015599999992,90.38476599999922,32.05126999999993,119.10253900000043,88.46142599999985,109.35888699999941,95.89746099999957,90.12841800000024,23.846190999999635,88.84619099999964,10.0,107.30761700000039
244,65.38476599999922,58.20507799999996,95.12841800000024,107.05126999999993,27.43603499999972,115.0,85.51269500000035,105.64111300000059,94.87158199999976,88.3334960000002,24.48730499999965,87.56396500000028,10.641113000000587,103.0771479999994
245,69.35888699999941,55.64111300000059,97.56396500000028,111.2822270000006,27.94873000000007,113.20507799999996,82.94873000000007,105.12841800000024,95.38476599999922,91.15380900000036,28.846190999999635,90.38476599999922,14.358886999999413,104.87158199999976
246,71.15380900000036,55.64111300000059,101.53857400000015,100.76904300000024,31.666503999999804,113.7177729999994,81.79492200000004,107.30761700000039,97.56396500000028,96.6665039999998,31.538574000000153,94.61523400000078,17.05126999999993,110.64111300000059
247,68.9741210000002,57.82031300000017,104.23095699999976,85.51269500000035,35.51269500000035,115.25634799999989,81.9228520000006,110.76904300000024,100.51269500000035,101.0258789999998,30.769043000000238,96.79492200000004,16.025878999999804,111.41015599999992
248,64.35888699999941,60.38476599999922,103.7177729999994,78.58984400000008,37.30761700000039,116.2822270000006,82.82031300000017,113.46142599999985,102.94873000000007,101.53857400000015,29.230956999999762,95.64111300000059,11.153809000000365,107.30761700000039
249,60.0,61.79492200000004,100.51269500000035,84.23095699999976,37.17968800000017,115.89746099999957,83.46142599999985,114.10253900000043,103.7177729999994,97.94873000000007,30.384765999999217,93.0771479999994,4.743652000000111,106.41015599999992
250,58.589844000000085,61.666503999999804,96.9228520000006,96.41015599999992,38.0771479999994,115.38476599999922,83.3334960000002,113.46142599999985,103.7177729999994,93.9741210000002,35.38476599999922,91.79492200000004,1.5385740000001533,109.35888699999941
251,61.410155999999915,61.410155999999915,95.64111300000059,104.87158199999976,41.666503999999804,116.9228520000006,82.94873000000007,113.46142599999985,104.35888699999941,93.3334960000002,42.43603499999972,93.7177729999994,5.0,107.94873000000007
252,66.41015599999992,62.05126999999993,97.69238299999961,103.3334960000002,46.153809000000365,119.87158199999976,81.6665039999998,114.10253900000043,105.38476599999922,96.53857400000015,47.17968800000017,96.9228520000006,13.974121000000196,101.41015599999992
253,69.48730499999965,64.10253900000043,101.41015599999992,93.46142599999985,47.30761700000039,120.89746099999957,78.7177729999994,113.7177729999994,105.25634799999989,99.87158199999976,45.897460999999566,98.3334960000002,22.30761700000039,99.35888699999941
254,68.58984400000008,68.46142599999985,103.9741210000002,83.9741210000002,43.7177729999994,117.94873000000007,74.74365200000011,111.2822270000006,102.56396500000028,99.74365200000011,39.48730499999965,96.0258789999998,24.48730499999965,105.64111300000059
255,66.2822270000006,75.12841800000024,104.61523400000078,83.9741210000002,39.87158199999976,114.35888699999941,72.56396500000028,108.3334960000002,98.84619099999964,96.53857400000015,33.46142599999985,92.69238299999961,20.51269500000035,110.64111300000059
256,66.0258789999998,80.64111300000059,105.38476599999922,94.87158199999976,41.153809000000365,114.74365200000011,74.87158199999976,107.69238299999961,96.9228520000006,94.23095699999976,34.102539000000434,92.05126999999993,15.384765999999217,107.94873000000007
257,68.9741210000002,79.74365200000011,108.3334960000002,108.58984400000008,49.102539000000434,120.64111300000059,80.89746099999957,110.38476599999922,98.84619099999964,96.15380900000036,42.56396500000028,96.41015599999992,13.846190999999635,103.9741210000002
258,73.58984400000008,71.79492200000004,112.56396500000028,114.35888699999941,59.74365200000011,128.46142599999985,86.9228520000006,115.25634799999989,103.84619099999964,101.79492200000004,54.35888699999941,103.46142599999985,16.922852000000603,105.51269500000035
259,78.0771479999994,61.79492200000004,115.51269500000035,108.0771479999994,66.79492200000004,133.3334960000002,88.58984400000008,120.38476599999922,109.35888699999941,107.43603499999972,62.69238299999961,109.48730499999965,22.30761700000039,107.82031300000017
260,80.25634799999989,56.666503999999804,114.74365200000011,94.74365200000011,66.0258789999998,132.3076170000004,84.23095699999976,123.46142599999985,111.9228520000006,108.46142599999985,62.82031300000017,111.53857400000015,25.384765999999217,105.0
261,78.0771479999994,58.974121000000196,110.25634799999989,83.46142599999985,57.94873000000007,125.12841800000024,75.25634799999989,122.30761700000039,109.10253900000043,102.94873000000007,53.974121000000196,109.23095699999976,23.333496000000196,101.9228520000006
262,71.53857400000015,65.12841800000024,103.84619099999964,80.64111300000059,47.05126999999993,115.64111300000059,65.76904300000024,116.79492200000004,101.9228520000006,93.0771479999994,40.12841800000024,104.61523400000078,16.538574000000153,105.51269500000035
263,64.10253900000043,69.74365200000011,98.58984400000008,86.6665039999998,40.38476599999922,109.48730499999965,60.38476599999922,110.0,94.74365200000011,84.23095699999976,28.589844000000085,101.41015599999992,9.743652000000111,111.0258789999998
264,60.64111300000059,69.87158199999976,96.41015599999992,96.41015599999992,41.153809000000365,109.61523400000078,61.153809000000365,106.0258789999998,91.41015599999992,81.2822270000006,26.153809000000365,102.05126999999993,7.051269999999931,109.23095699999976
265,61.79492200000004,65.51269500000035,97.30761700000039,102.05126999999993,47.05126999999993,113.20507799999996,65.51269500000035,106.41015599999992,92.69238299999961,83.9741210000002,32.56396500000028,105.64111300000059,8.077147999999397,102.94873000000007
266,63.7177729999994,58.974121000000196,98.7177729999994,98.84619099999964,52.17968800000017,114.87158199999976,68.7177729999994,109.35888699999941,96.15380900000036,87.69238299999961,42.05126999999993,109.35888699999941,8.717772999999397,102.05126999999993
267,63.333496000000196,55.12841800000024,98.7177729999994,89.48730499999965,53.974121000000196,112.56396500000028,68.3334960000002,112.82031300000017,99.35888699999941,89.35888699999941,48.20507799999996,111.6665039999998,6.794922000000042,106.79492200000004
268,61.9228520000006,57.94873000000007,98.58984400000008,81.79492200000004,54.35888699999941,109.48730499999965,65.89746099999957,116.0258789999998,101.79492200000004,89.87158199999976,49.61523400000078,113.84619099999964,5.641113000000587,107.94873000000007
269,62.82031300000017,67.05126999999993,100.89746099999957,81.9228520000006,55.897460999999566,109.23095699999976,65.64111300000059,118.9741210000002,103.9741210000002,92.30761700000039,48.589844000000085,117.30761700000039,9.487304999999651,103.9741210000002
270,67.17968800000017,75.76904300000024,105.76904300000024,89.61523400000078,58.846190999999635,112.30761700000039,68.84619099999964,121.0258789999998,106.0258789999998,97.56396500000028,47.94873000000007,121.79492200000004,18.333496000000196,103.20507799999996
271,72.69238299999961,77.43603499999972,110.38476599999922,98.84619099999964,61.2822270000006,116.15380900000036,73.58984400000008,121.53857400000015,106.6665039999998,103.0771479999994,49.48730499999965,124.23095699999976,28.077147999999397,107.43603499999972
272,76.53857400000015,71.9228520000006,111.53857400000015,102.82031300000017,62.56396500000028,118.9741210000002,77.17968800000017,121.0258789999998,105.76904300000024,105.64111300000059,53.0771479999994,123.58984400000008,34.61523400000078,108.46142599999985
273,77.30761700000039,65.76904300000024,109.48730499999965,97.17968800000017,63.333496000000196,120.64111300000059,78.0771479999994,120.64111300000059,104.87158199999976,104.35888699999941,57.56396500000028,121.0258789999998,36.53857400000015,103.46142599999985
274,74.74365200000011,64.87158199999976,106.41015599999992,83.58984400000008,63.7177729999994,120.89746099999957,76.15380900000036,120.76904300000024,105.38476599999922,101.0258789999998,61.2822270000006,118.84619099999964,34.23095699999976,101.41015599999992
275,70.25634799999989,69.10253900000043,104.87158199999976,70.76904300000024,62.05126999999993,119.48730499999965,71.79492200000004,120.0,106.6665039999998,98.0771479999994,62.17968800000017,117.30761700000039,28.717772999999397,106.9228520000006
276,65.64111300000059,72.94873000000007,105.0,69.35888699999941,57.94873000000007,116.6665039999998,65.76904300000024,117.30761700000039,106.15380900000036,96.2822270000006,60.12841800000024,115.38476599999922,21.153809000000365,111.15380900000036
277,62.56396500000028,71.15380900000036,105.12841800000024,82.30761700000039,52.56396500000028,112.94873000000007,59.61523400000078,113.0771479999994,102.56396500000028,94.61523400000078,55.897460999999566,111.9228520000006,12.82031300000017,106.53857400000015
278,60.76904300000024,63.589844000000085,103.3334960000002,100.76904300000024,48.0771479999994,108.58984400000008,55.0,108.3334960000002,97.30761700000039,92.30761700000039,51.2822270000006,107.43603499999972,5.256347999999889,99.61523400000078
279,60.12841800000024,55.897460999999566,100.38476599999922,110.12841800000024,46.53857400000015,104.87158199999976,52.94873000000007,104.74365200000011,93.9741210000002,91.15380900000036,49.102539000000434,104.61523400000078,1.0258789999998044,99.87158199999976
280,61.025878999999804,54.48730499999965,98.84619099999964,102.05126999999993,49.61523400000078,103.9741210000002,53.46142599999985,103.84619099999964,95.51269500000035,93.7177729999994,51.79492200000004,106.53857400000015,3.3334960000001956,104.48730499999965
281,63.974121000000196,61.2822270000006,101.41015599999992,81.79492200000004,56.53857400000015,107.56396500000028,55.897460999999566,106.15380900000036,101.6665039999998,100.38476599999922,58.846190999999635,114.10253900000043,12.692382999999609,105.12841800000024
282,67.69238299999961,70.76904300000024,107.17968800000017,64.35888699999941,63.846190999999635,113.58984400000008,58.333496000000196,110.38476599999922,108.9741210000002,108.20507799999996,66.6665039999998,124.23095699999976,25.897460999999566,103.46142599999985
283,70.38476599999922,75.76904300000024,112.94873000000007,62.82031300000017,67.56396500000028,117.94873000000007,59.35888699999941,113.84619099999964,113.46142599999985,113.46142599999985,70.64111300000059,131.0258789999998,36.2822270000006,106.9228520000006
284,70.76904300000024,73.58984400000008,114.87158199999976,78.58984400000008,66.79492200000004,118.7177729999994,57.94873000000007,114.87158199999976,113.3334960000002,114.61523400000078,69.74365200000011,131.0258789999998,38.974121000000196,112.30761700000039
285,68.9741210000002,67.82031300000017,112.17968800000017,100.12841800000024,63.846190999999635,116.79492200000004,54.87158199999976,113.7177729999994,110.38476599999922,112.82031300000017,66.15380900000036,125.38476599999922,33.20507799999996,110.38476599999922
286,65.76904300000024,63.974121000000196,107.05126999999993,111.53857400000015,60.897460999999566,114.48730499999965,51.410155999999915,111.53857400000015,107.69238299999961,109.87158199999976,62.56396500000028,118.46142599999985,21.666503999999804,102.17968800000017
287,61.79492200000004,64.87158199999976,102.82031300000017,105.12841800000024,58.846190999999635,112.94873000000007,48.7177729999994,108.9741210000002,107.30761700000039,107.17968800000017,60.0,114.61523400000078,9.615234000000783,98.84619099999964
288,58.846190999999635,68.7177729999994,101.9228520000006,87.94873000000007,58.589844000000085,113.0771479999994,47.56396500000028,107.17968800000017,109.10253900000043,106.0258789999998,58.589844000000085,115.0,2.3076170000003913,103.20507799999996
289,58.589844000000085,72.30761700000039,104.35888699999941,75.76904300000024,60.76904300000024,114.61523400000078,47.94873000000007,107.30761700000039,111.0258789999998,106.79492200000004,58.20507799999996,118.20507799999996,3.3334960000001956,106.0258789999998
290,61.2822270000006,72.05126999999993,108.58984400000008,79.74365200000011,64.74365200000011,116.15380900000036,48.846190999999635,109.35888699999941,111.53857400000015,108.9741210000002,58.589844000000085,121.15380900000036,11.025878999999804,103.84619099999964
291,64.61523400000078,67.82031300000017,111.53857400000015,96.6665039999998,67.30761700000039,115.76904300000024,48.20507799999996,111.41015599999992,110.38476599999922,110.76904300000024,59.48730499999965,121.6665039999998,19.871581999999762,104.35888699999941
292,66.2822270000006,63.7177729999994,111.15380900000036,112.30761700000039,66.15380900000036,112.94873000000007,45.38476599999922,111.2822270000006,108.84619099999964,111.6665039999998,60.51269500000035,120.0,24.871581999999762,111.15380900000036
293,66.0258789999998,64.87158199999976,107.82031300000017,113.9741210000002,62.56396500000028,109.61523400000078,41.53857400000015,109.35888699999941,108.9741210000002,112.17968800000017,61.79492200000004,118.7177729999994,25.51269500000035,115.12841800000024
294,65.38476599999922,71.9228520000006,105.0,101.79492200000004,59.35888699999941,107.82031300000017,38.20507799999996,107.17968800000017,110.64111300000059,112.69238299999961,62.94873000000007,119.74365200000011,24.102539000000434,110.0
295,66.0258789999998,79.48730499999965,105.64111300000059,88.20507799999996,58.846190999999635,107.94873000000007,37.17968800000017,106.2822270000006,112.43603499999972,113.3334960000002,63.46142599999985,122.94873000000007,22.56396500000028,103.3334960000002
296,69.35888699999941,81.9228520000006,110.25634799999989,86.53857400000015,62.05126999999993,109.48730499999965,39.102539000000434,107.30761700000039,113.0771479999994,114.48730499999965,63.7177729999994,127.17968800000017,22.17968800000017,104.10253900000043
297,76.15380900000036,80.25634799999989,116.41015599999992,98.20507799999996,68.0771479999994,112.82031300000017,43.20507799999996,110.38476599999922,113.46142599999985,117.17968800000017,66.15380900000036,131.2822270000006,24.230956999999762,108.3334960000002
298,84.35888699999941,79.23095699999976,121.15380900000036,110.25634799999989,74.48730499999965,117.30761700000039,47.56396500000028,115.0,114.35888699999941,120.76904300000024,71.53857400000015,134.61523400000078,28.717772999999397,108.0771479999994
299,88.9741210000002,81.15380900000036,121.79492200000004,108.20507799999996,76.6665039999998,120.38476599999922,48.974121000000196,118.7177729999994,115.12841800000024,122.56396500000028,77.30761700000039,135.89746099999957,32.30761700000039,105.76904300000024
300,85.89746099999957,83.58984400000008,118.0771479999994,90.89746099999957,72.43603499999972,119.74365200000011,46.153809000000365,118.84619099999964,114.61523400000078,119.74365200000011,79.10253900000043,134.3588869999994,31.794922000000042,108.3334960000002
301,77.43603499999972,82.56396500000028,112.56396500000028,72.43603499999972,64.74365200000011,116.15380900000036,40.64111300000059,115.38476599999922,112.82031300000017,112.82031300000017,75.51269500000035,130.76904300000024,28.205077999999958,112.30761700000039
302,69.74365200000011,77.69238299999961,109.23095699999976,69.10253900000043,59.61523400000078,112.82031300000017,36.153809000000365,111.41015599999992,111.41015599999992,106.41015599999992,69.87158199999976,128.0771479999994,26.025878999999804,109.35888699999941
303,68.20507799999996,71.53857400000015,110.0,84.23095699999976,59.74365200000011,111.9228520000006,34.48730499999965,108.9741210000002,111.6665039999998,105.38476599999922,65.89746099999957,127.69238299999961,28.333496000000196,101.79492200000004
304,71.79492200000004,67.69238299999961,112.94873000000007,106.2822270000006,62.69238299999961,112.05126999999993,35.12841800000024,107.94873000000007,112.82031300000017,109.23095699999976,64.48730499999965,128.84619099999964,33.20507799999996,100.12841800000024
305,75.64111300000059,69.23095699999976,113.9741210000002,119.61523400000078,65.0,111.9228520000006,36.153809000000365,107.17968800000017,113.46142599999985,113.7177729999994,64.10253900000043,128.84619099999964,36.79492200000004,105.51269500000035
306,76.41015599999992,76.79492200000004,111.2822270000006,116.9228520000006,65.76904300000024,111.53857400000015,36.153809000000365,106.2822270000006,112.94873000000007,115.12841800000024,63.846190999999635,126.41015599999992,37.43603499999972,108.20507799999996
307,73.46142599999985,85.89746099999957,107.05126999999993,103.0771479999994,66.2822270000006,111.0258789999998,35.12841800000024,105.76904300000024,111.53857400000015,112.94873000000007,63.589844000000085,122.69238299999961,35.12841800000024,105.12841800000024
308,68.58984400000008,89.48730499999965,104.48730499999965,89.61523400000078,66.53857400000015,110.0,33.46142599999985,104.61523400000078,108.9741210000002,108.0771479999994,63.333496000000196,119.35888699999941,30.384765999999217,103.9741210000002
309,64.61523400000078,83.7177729999994,104.87158199999976,85.89746099999957,65.76904300000024,107.82031300000017,31.282227000000603,101.9228520000006,105.51269500000035,102.05126999999993,63.589844000000085,117.56396500000028,24.102539000000434,107.82031300000017
310,63.589844000000085,72.56396500000028,106.9228520000006,92.30761700000039,63.974121000000196,105.89746099999957,29.48730499999965,98.46142599999985,102.05126999999993,96.79492200000004,64.48730499999965,117.56396500000028,18.717772999999397,109.61523400000078
311,65.51269500000035,63.7177729999994,108.9741210000002,101.0258789999998,62.43603499999972,106.15380900000036,29.102539000000434,95.38476599999922,100.0,94.10253900000043,66.0258789999998,118.46142599999985,17.05126999999993,105.51269500000035
312,67.82031300000017,63.20507799999996,109.35888699999941,102.17968800000017,62.17968800000017,108.7177729999994,30.128418000000238,93.7177729999994,99.87158199999976,94.48730499999965,66.9228520000006,118.84619099999964,19.615234000000783,102.69238299999961
313,67.69238299999961,70.89746099999957,107.69238299999961,92.94873000000007,63.46142599999985,111.53857400000015,31.538574000000153,93.20507799999996,101.15380900000036,97.17968800000017,66.53857400000015,117.56396500000028,24.358886999999413,106.53857400000015
314,65.38476599999922,81.53857400000015,104.23095699999976,80.51269500000035,66.41015599999992,113.0771479999994,32.17968800000017,93.46142599999985,102.82031300000017,99.87158199999976,65.25634799999989,115.25634799999989,27.94873000000007,110.12841800000024
315,62.82031300000017,87.69238299999961,100.64111300000059,75.25634799999989,70.0,112.69238299999961,31.410155999999915,93.9741210000002,104.10253900000043,101.15380900000036,64.23095699999976,113.46142599999985,28.333496000000196,106.9228520000006
316,61.53857400000015,84.74365200000011,98.46142599999985,81.15380900000036,72.17968800000017,110.12841800000024,29.358886999999413,93.84619099999964,104.61523400000078,100.0,63.846190999999635,112.69238299999961,25.25634799999989,102.43603499999972
317,62.30761700000039,75.0,98.7177729999994,91.53857400000015,70.76904300000024,106.0258789999998,26.666503999999804,92.82031300000017,104.74365200000011,97.43603499999972,63.46142599999985,113.46142599999985,20.769043000000238,104.48730499999965
318,65.12841800000024,66.41015599999992,101.41015599999992,96.6665039999998,67.05126999999993,103.0771479999994,24.615234000000783,92.05126999999993,104.87158199999976,95.76904300000024,63.589844000000085,115.38476599999922,18.461425999999847,109.23095699999976
319,68.20507799999996,65.89746099999957,105.0,93.20507799999996,63.589844000000085,103.46142599999985,23.846190999999635,92.69238299999961,105.25634799999989,96.41015599999992,64.61523400000078,117.94873000000007,20.128418000000238,107.82031300000017
320,68.20507799999996,72.43603499999972,106.41015599999992,85.89746099999957,61.9228520000006,106.15380900000036,23.205077999999958,93.84619099999964,104.87158199999976,98.0771479999994,65.25634799999989,119.10253900000043,22.69238299999961,103.0771479999994
321,62.94873000000007,79.10253900000043,102.82031300000017,81.15380900000036,61.79492200000004,107.82031300000017,21.153809000000365,93.46142599999985,102.82031300000017,97.94873000000007,62.94873000000007,116.2822270000006,21.794922000000042,103.84619099999964
322,54.87158199999976,80.12841800000024,95.25634799999989,81.41015599999992,62.69238299999961,106.79492200000004,18.205077999999958,91.2822270000006,98.9741210000002,95.0,56.9228520000006,109.87158199999976,17.30761700000039,108.9741210000002
323,50.0,75.38476599999922,87.82031300000017,85.12841800000024,64.87158199999976,105.0,16.538574000000153,89.48730499999965,95.12841800000024,91.2822270000006,50.12841800000024,103.58984400000008,14.615234000000783,108.7177729999994
324,52.05126999999993,68.9741210000002,85.0,88.7177729999994,67.69238299999961,104.74365200000011,17.43603499999972,89.87158199999976,93.3334960000002,89.48730499999965,46.666503999999804,100.76904300000024,18.333496000000196,102.17968800000017
325,58.7177729999994,65.0,87.94873000000007,90.25634799999989,68.9741210000002,105.89746099999957,20.0,91.53857400000015,93.9741210000002,90.38476599999922,48.46142599999985,101.9228520000006,26.666503999999804,98.9741210000002
326,64.10253900000043,65.76904300000024,93.3334960000002,89.87158199999976,67.82031300000017,107.05126999999993,21.538574000000153,91.9228520000006,95.38476599999922,91.79492200000004,53.589844000000085,104.23095699999976,32.82031300000017,102.69238299999961
327,64.48730499999965,71.41015599999992,96.53857400000015,89.48730499999965,65.89746099999957,107.05126999999993,20.51269500000035,89.87158199999976,95.64111300000059,91.0258789999998,58.333496000000196,104.74365200000011,31.025878999999804,105.64111300000059
328,60.25634799999989,79.10253900000043,95.25634799999989,90.12841800000024,65.12841800000024,106.0258789999998,17.30761700000039,86.0258789999998,94.48730499999965,86.9228520000006,59.74365200000011,102.69238299999961,20.897460999999566,104.10253900000043
329,54.74365200000011,84.61523400000078,90.89746099999957,90.12841800000024,66.41015599999992,104.23095699999976,14.230956999999762,82.17968800000017,93.20507799999996,82.05126999999993,57.17968800000017,99.87158199999976,7.948730000000069,104.61523400000078
330,52.94873000000007,85.89746099999957,87.69238299999961,87.82031300000017,69.23095699999976,103.3334960000002,13.589844000000085,80.89746099999957,93.7177729999994,80.64111300000059,53.589844000000085,99.35888699999941,0.6411130000005869,110.38476599999922
331,58.46142599999985,84.61523400000078,89.74365200000011,84.87158199999976,73.20507799999996,104.48730499999965,16.025878999999804,83.0771479999994,96.53857400000015,85.38476599999922,53.46142599999985,103.7177729999994,5.641113000000587,113.0771479999994
332,70.12841800000024,83.46142599999985,97.43603499999972,85.89746099999957,77.17968800000017,107.43603499999972,20.0,88.0771479999994,100.51269500000035,94.48730499999965,58.846190999999635,112.82031300000017,22.17968800000017,107.17968800000017
333,82.17968800000017,82.82031300000017,107.05126999999993,92.94873000000007,78.58984400000008,109.35888699999941,23.077147999999397,92.56396500000028,103.3334960000002,102.43603499999972,67.56396500000028,122.56396500000028,40.76904300000024,100.89746099999957
334,87.94873000000007,82.30761700000039,113.58984400000008,104.23095699999976,76.2822270000006,108.46142599999985,23.333496000000196,93.58984400000008,103.58984400000008,104.35888699999941,74.87158199999976,128.46142599999985,50.51269500000035,103.0771479999994
335,86.41015599999992,83.0771479999994,114.61523400000078,114.61523400000078,72.82031300000017,105.76904300000024,21.538574000000153,91.53857400000015,101.6665039999998,100.38476599999922,77.94873000000007,129.10253900000043,48.20507799999996,108.3334960000002
336,82.05126999999993,86.79492200000004,111.79492200000004,119.61523400000078,71.9228520000006,103.7177729999994,19.48730499999965,88.7177729999994,99.87158199999976,94.87158199999976,76.6665039999998,126.2822270000006,39.102539000000434,106.9228520000006
337,79.23095699999976,92.94873000000007,108.46142599999985,117.17968800000017,74.48730499999965,103.3334960000002,18.589844000000085,87.17968800000017,99.74365200000011,92.94873000000007,72.30761700000039,123.20507799999996,31.410155999999915,101.79492200000004
338,79.61523400000078,98.20507799999996,107.43603499999972,109.23095699999976,77.82031300000017,103.84619099999964,18.717772999999397,86.9228520000006,101.6665039999998,95.89746099999957,67.56396500000028,121.9228520000006,29.74365200000011,102.30761700000039
339,82.05126999999993,100.38476599999922,109.10253900000043,100.38476599999922,79.87158199999976,105.25634799999989,18.974121000000196,87.56396500000028,104.61523400000078,101.6665039999998,66.15380900000036,123.0771479999994,33.846190999999635,107.30761700000039
340,84.61523400000078,100.12841800000024,112.17968800000017,93.9741210000002,81.0258789999998,108.46142599999985,19.230956999999762,88.46142599999985,106.53857400000015,106.6665039999998,71.2822270000006,126.2822270000006,40.64111300000059,107.82031300000017
341,85.89746099999957,99.35888699999941,114.87158199999976,90.38476599999922,81.79492200000004,113.46142599999985,20.641113000000587,89.35888699999941,106.6665039999998,108.7177729999994,81.0258789999998,130.12841800000024,46.025878999999804,103.7177729999994
342,84.74365200000011,98.58984400000008,115.0,89.48730499999965,82.17968800000017,118.7177729999994,22.94873000000007,89.61523400000078,105.12841800000024,107.56396500000028,89.23095699999976,132.17968800000017,47.43603499999972,103.58984400000008
343,82.05126999999993,97.05126999999993,112.17968800000017,93.0771479999994,81.53857400000015,122.17968800000017,24.74365200000011,89.23095699999976,103.9741210000002,105.25634799999989,90.38476599999922,130.76904300000024,45.25634799999989,108.20507799999996
344,80.0,93.84619099999964,107.82031300000017,102.69238299999961,80.38476599999922,122.82031300000017,24.615234000000783,89.10253900000043,104.48730499999965,104.35888699999941,84.10253900000043,126.2822270000006,42.05126999999993,109.23095699999976
345,80.0,88.9741210000002,105.12841800000024,114.61523400000078,79.48730499999965,121.0258789999998,22.56396500000028,89.10253900000043,106.0258789999998,104.87158199999976,74.87158199999976,120.64111300000059,40.25634799999989,105.12841800000024
346,81.0258789999998,83.58984400000008,105.64111300000059,121.79492200000004,79.10253900000043,118.0771479999994,19.871581999999762,88.0771479999994,106.2822270000006,105.0,67.30761700000039,116.41015599999992,39.48730499999965,104.23095699999976
347,81.79492200000004,79.87158199999976,108.20507799999996,120.0,80.0,116.53857400000015,17.56396500000028,85.25634799999989,104.35888699999941,102.56396500000028,64.48730499999965,114.87158199999976,37.94873000000007,109.48730499999965
348,81.6665039999998,80.89746099999957,110.0,110.76904300000024,83.3334960000002,118.46142599999985,16.025878999999804,81.2822270000006,100.76904300000024,98.20507799999996,66.79492200000004,114.87158199999976,34.74365200000011,111.6665039999998
349,81.0258789999998,86.53857400000015,109.10253900000043,99.48730499999965,88.7177729999994,123.0771479999994,15.641113000000587,78.20507799999996,97.30761700000039,94.74365200000011,71.15380900000036,115.0,31.666503999999804,105.76904300000024
350,79.74365200000011,92.82031300000017,105.76904300000024,91.15380900000036,93.0771479999994,126.9228520000006,16.538574000000153,78.0771479999994,96.15380900000036,94.74365200000011,72.69238299999961,113.7177729999994,31.282227000000603,100.0
351,78.58984400000008,95.51269500000035,101.41015599999992,89.61523400000078,93.7177729999994,127.43603499999972,19.358886999999413,82.43603499999972,99.10253900000043,99.61523400000078,69.61523400000078,111.6665039999998,35.64111300000059,102.17968800000017
352,79.87158199999976,93.84619099999964,99.10253900000043,95.89746099999957,90.64111300000059,124.87158199999976,24.48730499999965,91.6665039999998,106.6665039999998,108.84619099999964,65.76904300000024,111.53857400000015,44.23095699999976,106.41015599999992
353,84.74365200000011,90.12841800000024,101.79492200000004,107.05126999999993,85.12841800000024,121.53857400000015,31.025878999999804,102.69238299999961,116.2822270000006,118.7177729999994,66.41015599999992,115.76904300000024,52.82031300000017,104.35888699999941
354,91.53857400000015,86.15380900000036,109.23095699999976,116.53857400000015,78.20507799999996,118.3334960000002,35.64111300000059,109.48730499999965,122.94873000000007,124.35888699999941,72.82031300000017,123.20507799999996,56.153809000000365,100.0
355,96.15380900000036,82.43603499999972,117.43603499999972,118.58984400000008,70.89746099999957,115.0,35.38476599999922,107.56396500000028,123.20507799999996,122.69238299999961,81.6665039999998,130.2563479999999,52.56396500000028,101.79492200000004
356,96.79492200000004,80.0,121.9228520000006,111.6665039999998,65.76904300000024,113.0771479999994,30.641113000000587,99.10253900000043,118.7177729999994,116.2822270000006,87.94873000000007,133.46142599999985,46.666503999999804,107.56396500000028
357,94.74365200000011,80.38476599999922,121.41015599999992,100.51269500000035,66.9228520000006,114.61523400000078,26.025878999999804,91.79492200000004,115.0,111.6665039999998,89.10253900000043,132.6923829999996,45.0,108.7177729999994
358,92.43603499999972,83.46142599999985,118.20507799999996,92.82031300000017,74.10253900000043,119.23095699999976,25.769043000000238,92.56396500000028,116.41015599999992,113.0771479999994,84.87158199999976,129.48730499999965,49.35888699999941,106.6665039999998
359,90.76904300000024,86.2822270000006,115.12841800000024,95.38476599999922,82.82031300000017,123.58984400000008,30.128418000000238,100.89746099999957,122.43603499999972,118.84619099999964,76.79492200000004,125.38476599999922,56.2822270000006,109.10253900000043
360,89.35888699999941,85.38476599999922,112.17968800000017,108.58984400000008,88.0771479999994,125.12841800000024,34.74365200000011,108.84619099999964,127.82031300000017,123.0771479999994,66.41015599999992,120.76904300000024,60.12841800000024,113.7177729999994
361,86.6665039999998,79.74365200000011,107.56396500000028,125.51269500000035,88.7177729999994,124.61523400000078,34.48730499999965,106.9228520000006,126.6665039999998,119.48730499999965,55.0,115.25634799999989,57.82031300000017,111.2822270000006
362,80.89746099999957,70.89746099999957,100.38476599999922,135.2563479999999,87.17968800000017,124.23095699999976,27.30761700000039,91.6665039999998,117.05126999999993,107.05126999999993,43.846190999999635,108.3334960000002,48.589844000000085,102.56396500000028
363,72.17968800000017,61.79492200000004,92.30761700000039,131.15380900000036,86.15380900000036,124.74365200000011,16.025878999999804,69.23095699999976,102.69238299999961,90.51269500000035,35.12841800000024,101.0258789999998,35.0,99.10253900000043
364,64.23095699999976,56.025878999999804,86.9228520000006,117.69238299999961,86.41015599999992,125.51269500000035,6.666503999999804,51.53857400000015,90.76904300000024,77.94873000000007,32.94873000000007,96.41015599999992,23.205077999999958,104.87158199999976
365,62.69238299999961,55.64111300000059,87.30761700000039,106.53857400000015,87.17968800000017,125.89746099999957,3.717772999999397,47.43603499999972,86.9228520000006,74.74365200000011,39.23095699999976,97.30761700000039,19.871581999999762,109.87158199999976
366,69.48730499999965,59.35888699999941,93.0771479999994,106.6665039999998,86.9228520000006,125.25634799999989,7.307617000000391,56.2822270000006,91.53857400000015,80.0,51.025878999999804,103.3334960000002,26.666503999999804,107.30761700000039
367,80.25634799999989,62.43603499999972,100.38476599999922,115.64111300000059,84.10253900000043,122.69238299999961,13.205077999999958,68.58984400000008,99.35888699999941,88.7177729999994,60.38476599999922,110.51269500000035,38.974121000000196,103.58984400000008
368,88.46142599999985,61.53857400000015,104.87158199999976,123.9741210000002,78.46142599999985,118.20507799999996,17.43603499999972,75.51269500000035,105.12841800000024,96.53857400000015,61.79492200000004,115.25634799999989,51.025878999999804,105.25634799999989
369,91.9228520000006,58.20507799999996,105.76904300000024,125.0,71.0258789999998,112.69238299999961,20.0,77.05126999999993,108.3334960000002,104.23095699999976,56.2822270000006,117.56396500000028,61.666503999999804,107.17968800000017
370,92.56396500000028,55.76904300000024,105.25634799999989,120.0,62.30761700000039,106.2822270000006,22.82031300000017,80.51269500000035,113.84619099999964,114.48730499999965,50.51269500000035,120.25634799999989,71.6665039999998,103.9741210000002
371,92.43603499999972,55.12841800000024,105.89746099999957,115.89746099999957,51.9228520000006,98.3334960000002,25.897460999999566,91.53857400000015,124.61523400000078,127.30761700000039,50.25634799999989,124.48730499999965,79.74365200000011,101.2822270000006
372,92.43603499999972,53.20507799999996,107.17968800000017,119.10253900000043,41.025878999999804,89.61523400000078,26.794922000000042,106.53857400000015,137.82031300000017,138.46142599999985,55.76904300000024,128.7177729999994,82.56396500000028,106.0258789999998
373,92.43603499999972,47.56396500000028,107.30761700000039,131.15380900000036,33.974121000000196,84.74365200000011,23.333496000000196,116.41015599999992,146.41015599999992,143.0771479999994,62.17968800000017,130.38476599999922,79.61523400000078,112.17968800000017
374,93.3334960000002,38.589844000000085,106.2822270000006,148.3334960000002,34.87158199999976,87.56396500000028,17.17968800000017,115.12841800000024,145.6411130000006,139.87158199999976,64.23095699999976,129.10253900000043,74.61523400000078,110.76904300000024
375,95.25634799999989,29.230956999999762,106.0258789999998,164.10253900000043,43.0771479999994,97.43603499999972,12.307617000000391,105.12841800000024,137.94873000000007,133.7177729999994,59.35888699999941,126.9228520000006,72.17968800000017,105.0
376,97.30761700000039,22.94873000000007,107.82031300000017,172.94873000000007,52.56396500000028,107.82031300000017,11.666503999999804,94.10253900000043,130.38476599999922,131.2822270000006,48.7177729999994,125.64111300000059,74.35888699999941,105.0
377,98.46142599999985,20.641113000000587,110.12841800000024,172.82031300000017,57.30761700000039,112.69238299999961,14.102539000000434,88.46142599999985,127.94873000000007,135.76904300000024,35.897460999999566,125.0,80.38476599999922,109.61523400000078
378,97.30761700000039,21.025878999999804,109.87158199999976,166.9228520000006,55.25634799999989,111.15380900000036,15.769043000000238,88.46142599999985,130.51269500000035,143.20507799999996,24.74365200000011,123.0771479999994,87.30761700000039,109.48730499999965
379,93.0771479999994,21.025878999999804,105.38476599999922,160.89746099999957,48.589844000000085,107.56396500000028,13.589844000000085,89.35888699999941,133.20507799999996,146.6665039999998,17.43603499999972,118.46142599999985,91.2822270000006,104.35888699999941
380,85.89746099999957,17.94873000000007,97.56396500000028,160.76904300000024,41.9228520000006,106.2822270000006,8.205077999999958,85.89746099999957,131.6665039999998,142.05126999999993,13.205077999999958,111.79492200000004,89.48730499999965,103.20507799999996
381,79.48730499999965,12.56396500000028,90.0,169.23095699999976,38.846190999999635,108.58984400000008,2.5639650000002803,78.0771479999994,125.51269500000035,132.82031300000017,10.512695000000349,106.41015599999992,83.20507799999996,108.3334960000002
382,78.46142599999985,8.333496000000196,87.17968800000017,184.10253900000043,40.0,111.79492200000004,0.12841800000023795,70.89746099999957,118.9741210000002,126.53857400000015,8.717772999999397,105.38476599999922,78.7177729999994,111.53857400000015
383,84.48730499999965,6.153809000000365,90.51269500000035,197.94873000000007,42.17968800000017,111.79492200000004,1.153809000000365,70.0,117.69238299999961,128.7177729999994,8.333496000000196,109.61523400000078,83.0771479999994,109.10253900000043
