,EEG.AF3,EEG.F7,EEG.F3,EEG.FC5,EEG.T7,EEG.P7,EEG.O1,EEG.O2,EEG.P8,EEG.T8,EEG.FC6,EEG.F4,EEG.F8,EEG.AF4
0,98.20507799999996,119.74365200000011,100.89746099999957,109.23095699999976,117.05126999999993,112.43603499999972,108.58984400000008,109.61523400000078,104.87158199999976,92.43603499999972,100.64111300000059,103.7177729999994,83.3334960000002,113.20507799999996
1,102.43603499999972,124.74365200000011,101.41015599999992,111.79492200000004,120.64111300000059,115.64111300000059,110.89746099999957,110.25634799999989,108.84619099999964,95.89746099999957,101.9228520000006,108.20507799999996,85.76904300000024,113.9741210000002
2,108.0771479999994,128.9741210000002,104.10253900000043,114.35888699999941,123.20507799999996,118.20507799999996,112.30761700000039,111.0258789999998,114.23095699999976,98.3334960000002,105.76904300000024,114.61523400000078,90.64111300000059,116.53857400000015
3,111.6665039999998,130.0,105.89746099999957,114.48730499999965,123.7177729999994,119.35888699999941,112.17968800000017,111.53857400000015,116.6665039999998,98.46142599999985,110.0,118.84619099999964,95.89746099999957,115.25634799999989
4,111.79492200000004,128.46142599999985,105.25634799999989,111.9228520000006,122.94873000000007,119.61523400000078,111.6665039999998,111.9228520000006,115.12841800000024,97.69238299999961,112.30761700000039,119.23095699999976,100.0,109.87158199999976
5,110.0,125.89746099999957,103.3334960000002,109.10253900000043,122.30761700000039,119.61523400000078,112.17968800000017,112.43603499999972,111.6665039999998,97.17968800000017,112.43603499999972,117.82031300000017,101.79492200000004,107.30761700000039
6,108.20507799999996,124.23095699999976,102.05126999999993,108.3334960000002,122.56396500000028,119.61523400000078,113.84619099999964,112.69238299999961,108.9741210000002,97.43603499999972,111.0258789999998,116.79492200000004,101.2822270000006,109.74365200000011
7,107.43603499999972,123.3334960000002,100.89746099999957,109.35888699999941,122.69238299999961,118.84619099999964,114.61523400000078,112.30761700000039,108.7177729999994,97.82031300000017,109.23095699999976,116.41015599999992,98.7177729999994,111.41015599999992
8,107.05126999999993,122.69238299999961,98.9741210000002,110.64111300000059,121.79492200000004,117.05126999999993,112.17968800000017,111.53857400000015,110.12841800000024,97.17968800000017,107.69238299999961,115.0,95.25634799999989,108.84619099999964
9,105.76904300000024,122.17968800000017,97.82031300000017,111.6665039999998,120.0,114.48730499999965,107.30761700000039,110.89746099999957,111.2822270000006,94.74365200000011,106.41015599999992,112.43603499999972,92.05126999999993,107.56396500000028
10,103.46142599999985,122.56396500000028,98.58984400000008,112.69238299999961,119.10253900000043,112.43603499999972,103.20507799999996,110.76904300000024,110.89746099999957,91.2822270000006,105.38476599999922,110.0,91.15380900000036,111.15380900000036
11,101.41015599999992,125.38476599999922,101.0258789999998,113.3334960000002,120.89746099999957,112.30761700000039,103.20507799999996,111.2822270000006,109.23095699999976,88.7177729999994,104.87158199999976,108.84619099999964,93.46142599999985,114.35888699999941
12,101.79492200000004,130.89746099999957,103.20507799999996,113.0771479999994,124.61523400000078,113.84619099999964,106.9228520000006,111.9228520000006,107.82031300000017,88.3334960000002,105.51269500000035,109.87158199999976,97.94873000000007,112.05126999999993
13,105.51269500000035,137.43603499999972,104.35888699999941,112.43603499999972,127.69238299999961,115.0,110.38476599999922,112.69238299999961,107.94873000000007,89.23095699999976,106.6665039999998,112.69238299999961,101.9228520000006,108.3334960000002
14,111.0258789999998,142.43603499999972,104.87158199999976,112.05126999999993,127.43603499999972,113.84619099999964,110.0,113.0771479999994,109.10253900000043,88.9741210000002,106.9228520000006,116.2822270000006,103.20507799999996,109.74365200000011
15,115.64111300000059,144.23095699999976,103.84619099999964,111.79492200000004,123.9741210000002,110.0,105.89746099999957,112.30761700000039,109.48730499999965,86.41015599999992,105.38476599999922,117.94873000000007,102.30761700000039,113.9741210000002
16,117.82031300000017,143.84619099999964,101.6665039999998,110.89746099999957,119.23095699999976,105.51269500000035,100.89746099999957,110.64111300000059,107.56396500000028,81.6665039999998,102.56396500000028,116.53857400000015,102.56396500000028,115.25634799999989
17,118.9741210000002,143.7177729999994,100.25634799999989,110.51269500000035,115.89746099999957,102.69238299999961,97.82031300000017,109.23095699999976,104.35888699999941,76.2822270000006,100.38476599999922,113.7177729999994,106.15380900000036,114.23095699999976
18,121.9228520000006,146.9228520000006,102.17968800000017,112.43603499999972,115.12841800000024,102.56396500000028,98.0771479999994,109.35888699999941,102.30761700000039,71.79492200000004,100.0,113.0771479999994,113.20507799999996,115.38476599999922
19,129.48730499999965,155.76904300000024,107.05126999999993,116.6665039999998,116.9228520000006,104.23095699999976,101.15380900000036,110.89746099999957,103.0771479999994,69.61523400000078,101.6665039999998,116.2822270000006,122.30761700000039,117.17968800000017
20,141.9228520000006,170.12841800000024,111.6665039999998,120.89746099999957,120.0,105.89746099999957,104.87158199999976,111.6665039999998,105.89746099999957,70.38476599999922,104.87158199999976,122.43603499999972,132.43603499999972,114.10253900000043
21,156.9228520000006,187.05126999999993,114.35888699999941,123.0771479999994,122.43603499999972,107.05126999999993,107.43603499999972,110.64111300000059,108.58984400000008,73.7177729999994,109.23095699999976,129.23095699999976,142.82031300000017,108.3334960000002
22,172.17968800000017,203.0771479999994,115.51269500000035,122.94873000000007,123.3334960000002,107.82031300000017,108.20507799999996,108.7177729999994,109.87158199999976,77.82031300000017,114.61523400000078,135.51269500000035,154.10253900000043,107.69238299999961
23,187.94873000000007,216.9228520000006,116.79492200000004,121.9228520000006,123.7177729999994,108.9741210000002,108.9741210000002,107.94873000000007,110.0,81.6665039999998,121.6665039999998,141.79492200000004,168.58984400000008,113.0771479999994
24,206.41015599999992,230.6411130000006,118.84619099999964,121.53857400000015,125.12841800000024,110.89746099999957,111.6665039999998,109.23095699999976,109.74365200000011,86.2822270000006,130.76904300000024,149.61523400000078,189.10253900000043,116.41015599999992
25,228.9741210000002,246.79492200000004,121.9228520000006,122.17968800000017,127.56396500000028,113.0771479999994,116.15380900000036,112.30761700000039,110.0,92.82031300000017,140.89746099999957,159.3588869999994,214.87158199999976,114.10253900000043
26,253.46142599999985,264.48730499999965,126.2822270000006,124.23095699999976,129.10253900000043,114.10253900000043,120.12841800000024,115.51269500000035,110.51269500000035,100.76904300000024,149.7436520000001,169.7436520000001,241.15380900000036,111.0258789999998
27,275.6411130000006,280.2563479999999,130.2563479999999,126.9228520000006,127.05126999999993,112.82031300000017,121.0258789999998,117.05126999999993,110.38476599999922,107.43603499999972,154.7436520000001,177.6923829999996,262.4360349999997,110.89746099999957
28,292.6923829999996,290.51269500000035,131.15380900000036,128.58984400000008,121.6665039999998,109.23095699999976,118.20507799999996,116.0258789999998,109.35888699999941,110.38476599999922,156.0258789999998,181.15380900000036,276.79492200000004,110.25634799999989
29,304.10253900000043,294.6152340000008,128.3334960000002,128.20507799999996,115.0,104.61523400000078,112.17968800000017,112.94873000000007,107.69238299999961,109.74365200000011,155.6411130000006,180.6411130000006,286.79492200000004,107.05126999999993
30,311.53857400000015,294.23095699999976,125.12841800000024,126.41015599999992,109.48730499999965,100.64111300000059,105.38476599999922,110.0,106.53857400000015,107.56396500000028,156.53857400000015,179.48730499999965,296.0258789999998,106.2822270000006
31,317.82031300000017,292.6923829999996,124.87158199999976,125.25634799999989,105.89746099999957,98.84619099999964,100.12841800000024,109.23095699999976,106.79492200000004,106.79492200000004,160.2563479999999,181.15380900000036,307.17968800000017,111.0258789999998
32,325.76904300000024,293.84619099999964,127.94873000000007,125.12841800000024,104.48730499999965,100.12841800000024,98.9741210000002,110.64111300000059,108.20507799999996,109.23095699999976,166.41015599999992,186.9228520000006,321.4101559999999,115.25634799999989
33,336.9228520000006,300.6411130000006,132.43603499999972,125.51269500000035,106.15380900000036,103.84619099999964,103.46142599999985,112.94873000000007,110.25634799999989,115.25634799999989,173.9741210000002,195.76904300000024,338.20507799999996,112.94873000000007
34,349.7436520000001,311.15380900000036,137.05126999999993,126.41015599999992,110.64111300000059,108.20507799999996,111.53857400000015,114.48730499999965,111.6665039999998,122.94873000000007,181.41015599999992,205.12841800000024,354.87158199999976,108.58984400000008
35,359.10253900000043,319.87158199999976,140.76904300000024,127.43603499999972,115.25634799999989,110.64111300000059,119.10253900000043,114.74365200000011,112.17968800000017,129.23095699999976,186.9228520000006,212.17968800000017,367.3076170000004,110.25634799999989
36,361.15380900000036,321.15380900000036,141.2822270000006,127.43603499999972,115.76904300000024,109.61523400000078,121.6665039999998,113.58984400000008,111.9228520000006,131.6665039999998,188.3334960000002,213.7177729999994,372.3076170000004,116.0258789999998
37,355.0,313.3334960000002,137.17968800000017,125.0,110.51269500000035,105.0,117.30761700000039,111.6665039999998,110.89746099999957,129.87158199999976,184.3588869999994,208.9741210000002,369.3588869999994,117.94873000000007
38,344.3588869999994,299.87158199999976,131.0258789999998,120.89746099999957,101.2822270000006,98.9741210000002,108.7177729999994,110.25634799999989,109.48730499999965,126.53857400000015,176.6665039999998,201.15380900000036,361.9228520000006,115.0
39,334.7436520000001,286.9228520000006,127.30761700000039,118.58984400000008,93.20507799999996,94.35888699999941,101.53857400000015,110.12841800000024,108.46142599999985,125.25634799999989,170.2563479999999,195.0,355.2563479999999,113.0771479999994
40,330.89746099999957,279.3588869999994,128.20507799999996,119.87158199999976,91.41015599999992,93.7177729999994,100.51269500000035,111.15380900000036,108.58984400000008,127.69238299999961,168.7177729999994,193.7177729999994,353.46142599999985,114.23095699999976
41,333.3334960000002,278.20507799999996,131.2822270000006,123.0771479999994,96.79492200000004,97.82031300000017,106.0258789999998,112.17968800000017,109.74365200000011,132.3076170000004,171.79492200000004,196.79492200000004,356.2822270000006,113.46142599999985
42,337.6923829999996,279.87158199999976,133.20507799999996,125.38476599999922,105.12841800000024,105.12841800000024,113.9741210000002,112.43603499999972,111.2822270000006,136.0258789999998,175.2563479999999,200.76904300000024,359.3588869999994,110.25634799999989
43,337.3076170000004,278.7177729999994,133.0771479999994,125.12841800000024,110.12841800000024,111.53857400000015,119.23095699999976,111.6665039999998,112.05126999999993,135.6411130000006,174.7436520000001,201.9228520000006,356.6665039999998,109.74365200000011
44,327.82031300000017,271.4101559999999,130.76904300000024,122.05126999999993,108.0771479999994,113.9741210000002,119.48730499999965,110.25634799999989,111.2822270000006,130.76904300000024,168.84619099999964,197.82031300000017,344.3588869999994,113.3334960000002
45,310.76904300000024,258.84619099999964,126.41015599999992,117.56396500000028,101.15380900000036,112.56396500000028,116.79492200000004,108.9741210000002,109.61523400000078,123.20507799999996,159.87158199999976,188.3334960000002,323.9741210000002,114.87158199999976
46,291.53857400000015,244.61523400000078,120.89746099999957,113.7177729999994,94.87158199999976,109.61523400000078,114.10253900000043,108.20507799999996,108.0771479999994,115.76904300000024,151.53857400000015,176.41015599999992,301.4101559999999,111.2822270000006
47,275.3847659999992,231.41015599999992,117.05126999999993,112.56396500000028,93.7177729999994,107.43603499999972,113.46142599999985,108.46142599999985,107.43603499999972,110.0,147.3076170000004,166.41015599999992,282.82031300000017,108.7177729999994
48,263.9741210000002,220.2563479999999,116.15380900000036,113.84619099999964,98.0771479999994,107.05126999999993,115.12841800000024,109.61523400000078,107.69238299999961,106.53857400000015,147.6923829999996,161.6665039999998,271.0258789999998,111.79492200000004
49,256.53857400000015,211.2822270000006,117.05126999999993,114.74365200000011,105.38476599999922,109.10253900000043,118.58984400000008,111.0258789999998,108.9741210000002,105.38476599999922,151.41015599999992,162.3076170000004,265.2563479999999,115.51269500000035
50,251.53857400000015,205.0,118.46142599999985,113.58984400000008,112.94873000000007,113.46142599999985,122.94873000000007,112.69238299999961,111.6665039999998,106.53857400000015,156.53857400000015,165.89746099999957,262.3076170000004,113.84619099999964
51,247.6923829999996,201.2822270000006,120.76904300000024,111.2822270000006,118.9741210000002,118.7177729999994,127.17968800000017,114.48730499999965,115.25634799999989,108.58984400000008,161.15380900000036,169.3588869999994,258.7177729999994,109.87158199999976
52,243.0771479999994,197.82031300000017,124.23095699999976,109.87158199999976,122.17968800000017,122.17968800000017,129.48730499999965,116.2822270000006,118.3334960000002,109.23095699999976,162.6923829999996,170.38476599999922,251.15380900000036,110.51269500000035
53,235.38476599999922,191.41015599999992,126.41015599999992,109.48730499999965,122.30761700000039,121.15380900000036,128.58984400000008,116.6665039999998,119.35888699999941,106.0258789999998,160.0,167.56396500000028,237.94873000000007,114.10253900000043
54,223.58984400000008,180.2563479999999,124.61523400000078,109.10253900000043,120.12841800000024,116.15380900000036,125.0,115.0,117.82031300000017,99.23095699999976,154.10253900000043,161.53857400000015,220.51269500000035,114.35888699999941
55,209.23095699999976,165.76904300000024,120.0,108.7177729999994,117.17968800000017,110.38476599999922,120.25634799999989,112.43603499999972,114.87158199999976,90.89746099999957,146.9228520000006,154.87158199999976,202.94873000000007,112.05126999999993
56,195.51269500000035,151.53857400000015,116.15380900000036,108.46142599999985,115.0,107.05126999999993,116.79492200000004,110.89746099999957,112.43603499999972,84.10253900000043,140.38476599999922,149.61523400000078,188.3334960000002,112.82031300000017
57,184.7436520000001,140.76904300000024,114.74365200000011,108.0771479999994,114.61523400000078,106.9228520000006,115.25634799999989,110.89746099999957,111.0258789999998,80.89746099999957,135.0,146.0258789999998,177.56396500000028,115.89746099999957
58,176.53857400000015,133.9741210000002,113.9741210000002,106.6665039999998,115.25634799999989,108.58984400000008,115.0,111.2822270000006,111.0258789999998,81.6665039999998,130.76904300000024,142.05126999999993,169.61523400000078,115.0
59,168.9741210000002,129.48730499999965,112.43603499999972,105.0,115.51269500000035,110.0,114.23095699999976,110.89746099999957,111.9228520000006,84.87158199999976,127.30761700000039,136.53857400000015,162.82031300000017,110.38476599999922
60,160.2563479999999,124.61523400000078,111.0258789999998,104.87158199999976,114.48730499999965,110.0,112.05126999999993,109.48730499999965,112.82031300000017,87.30761700000039,124.35888699999941,131.2822270000006,156.15380900000036,108.7177729999994
61,150.6411130000006,117.82031300000017,110.25634799999989,106.41015599999992,112.30761700000039,108.84619099999964,109.10253900000043,107.56396500000028,112.82031300000017,87.05126999999993,121.15380900000036,128.20507799999996,149.48730499999965,111.9228520000006
62,142.56396500000028,110.51269500000035,109.61523400000078,108.20507799999996,111.0258789999998,107.56396500000028,107.43603499999972,106.2822270000006,111.79492200000004,85.51269500000035,118.0771479999994,127.94873000000007,143.46142599999985,113.7177729999994
63,137.94873000000007,104.87158199999976,108.7177729999994,108.9741210000002,111.9228520000006,107.94873000000007,108.58984400000008,107.05126999999993,110.64111300000059,85.38476599999922,115.89746099999957,129.23095699999976,138.9741210000002,110.89746099999957
64,136.53857400000015,101.53857400000015,108.58984400000008,108.9741210000002,114.35888699999941,110.25634799999989,112.69238299999961,110.0,110.25634799999989,88.3334960000002,114.74365200000011,129.87158199999976,135.89746099999957,109.23095699999976
65,135.6411130000006,99.10253900000043,109.23095699999976,108.9741210000002,115.0,113.46142599999985,117.56396500000028,113.84619099999964,110.64111300000059,93.46142599999985,114.48730499999965,128.58984400000008,132.94873000000007,112.30761700000039
66,132.43603499999972,95.76904300000024,109.23095699999976,108.3334960000002,111.6665039999998,115.12841800000024,120.0,116.15380900000036,111.0258789999998,98.3334960000002,114.10253900000043,125.38476599999922,129.23095699999976,115.0
67,126.41015599999992,91.15380900000036,107.69238299999961,106.79492200000004,105.64111300000059,114.23095699999976,118.46142599999985,115.64111300000059,111.0258789999998,100.64111300000059,113.20507799999996,121.41015599999992,124.87158199999976,112.43603499999972
68,119.10253900000043,85.64111300000059,106.6665039999998,105.38476599999922,101.2822270000006,111.2822270000006,113.3334960000002,113.0771479999994,110.64111300000059,99.87158199999976,111.15380900000036,118.0771479999994,120.64111300000059,109.10253900000043
69,112.69238299999961,80.25634799999989,107.43603499999972,105.38476599999922,100.89746099999957,107.69238299999961,107.30761700000039,110.51269500000035,110.0,96.9228520000006,107.94873000000007,115.89746099999957,116.6665039999998,110.76904300000024
70,108.84619099999964,76.0258789999998,108.46142599999985,106.6665039999998,104.10253900000043,105.25634799999989,103.46142599999985,109.35888699999941,109.35888699999941,93.58984400000008,103.9741210000002,113.7177729999994,113.3334960000002,114.74365200000011
71,107.69238299999961,74.23095699999976,107.30761700000039,107.82031300000017,108.3334960000002,105.64111300000059,103.7177729999994,109.87158199999976,109.35888699999941,92.56396500000028,101.0258789999998,111.41015599999992,111.53857400000015,114.61523400000078
72,107.94873000000007,75.25634799999989,105.12841800000024,108.7177729999994,111.79492200000004,108.7177729999994,108.20507799999996,111.79492200000004,111.15380900000036,94.61523400000078,101.15380900000036,111.0258789999998,112.05126999999993,112.17968800000017
73,107.94873000000007,78.20507799999996,104.87158199999976,110.25634799999989,113.3334960000002,113.7177729999994,115.12841800000024,114.23095699999976,114.35888699999941,98.20507799999996,104.35888699999941,113.84619099999964,114.23095699999976,113.0771479999994
74,106.6665039999998,80.12841800000024,107.05126999999993,111.6665039999998,112.69238299999961,117.82031300000017,121.0258789999998,115.64111300000059,116.9228520000006,99.74365200000011,107.69238299999961,117.56396500000028,116.2822270000006,115.38476599999922
75,103.46142599999985,78.46142599999985,108.46142599999985,111.41015599999992,109.35888699999941,118.58984400000008,122.56396500000028,114.74365200000011,116.9228520000006,96.53857400000015,107.69238299999961,118.20507799999996,115.51269500000035,113.20507799999996
76,98.58984400000008,72.43603499999972,107.30761700000039,108.84619099999964,104.10253900000043,115.25634799999989,118.58984400000008,111.9228520000006,114.35888699999941,88.84619099999964,103.46142599999985,113.3334960000002,110.89746099999957,107.56396500000028
77,93.0771479999994,64.87158199999976,104.74365200000011,106.53857400000015,99.48730499999965,110.12841800000024,112.05126999999993,109.23095699999976,111.15380900000036,80.25634799999989,98.3334960000002,105.12841800000024,104.35888699999941,105.89746099999957
78,89.35888699999941,60.76904300000024,103.0771479999994,106.41015599999992,98.20507799999996,106.9228520000006,108.0771479999994,108.58984400000008,109.48730499999965,75.64111300000059,96.41015599999992,98.46142599999985,100.12841800000024,109.35888699999941
79,89.61523400000078,64.10253900000043,103.0771479999994,108.9741210000002,101.79492200000004,108.20507799999996,110.12841800000024,110.38476599999922,110.12841800000024,76.9228520000006,99.48730499999965,96.9228520000006,101.0258789999998,111.41015599999992
80,93.46142599999985,73.3334960000002,104.23095699999976,111.9228520000006,108.3334960000002,112.69238299999961,116.9228520000006,113.3334960000002,112.17968800000017,81.53857400000015,104.61523400000078,100.76904300000024,105.25634799999989,108.84619099999964
81,97.05126999999993,82.30761700000039,105.89746099999957,113.7177729999994,113.3334960000002,116.9228520000006,123.0771479999994,115.51269500000035,113.3334960000002,84.35888699999941,107.43603499999972,106.53857400000015,107.17968800000017,107.30761700000039
82,96.0258789999998,84.23095699999976,107.05126999999993,113.3334960000002,112.69238299999961,117.94873000000007,124.10253900000043,115.51269500000035,112.05126999999993,81.2822270000006,105.25634799999989,109.10253900000043,102.56396500000028,109.87158199999976
83,89.48730499999965,78.0771479999994,105.25634799999989,111.15380900000036,107.05126999999993,115.64111300000059,119.74365200000011,112.82031300000017,108.0771479999994,73.0771479999994,98.3334960000002,105.51269500000035,91.79492200000004,111.6665039999998
84,80.89746099999957,68.7177729999994,101.0258789999998,108.7177729999994,100.89746099999957,112.69238299999961,113.7177729999994,109.48730499999965,103.58984400000008,64.10253900000043,90.38476599999922,97.56396500000028,80.0,109.23095699999976
85,74.74365200000011,62.69238299999961,97.82031300000017,108.20507799999996,99.48730499999965,111.6665039999998,110.89746099999957,107.69238299999961,101.15380900000036,59.102539000000434,85.38476599999922,91.0258789999998,72.56396500000028,107.56396500000028
86,73.84619099999964,63.20507799999996,98.58984400000008,110.38476599999922,104.61523400000078,113.46142599999985,113.20507799999996,108.7177729999994,102.56396500000028,60.51269500000035,85.25634799999989,90.25634799999989,71.79492200000004,110.76904300000024
87,77.30761700000039,68.46142599999985,102.30761700000039,112.82031300000017,113.46142599999985,117.30761700000039,119.87158199999976,111.0258789999998,106.79492200000004,67.56396500000028,88.7177729999994,95.0,76.2822270000006,113.9741210000002
88,81.9228520000006,74.23095699999976,105.25634799999989,113.20507799999996,120.64111300000059,121.15380900000036,126.9228520000006,112.69238299999961,111.41015599999992,76.79492200000004,92.82031300000017,101.2822270000006,81.79492200000004,112.17968800000017
89,84.35888699999941,76.2822270000006,106.15380900000036,111.15380900000036,121.9228520000006,123.3334960000002,130.12841800000024,112.82031300000017,114.23095699999976,83.84619099999964,95.51269500000035,104.87158199999976,84.10253900000043,108.9741210000002
90,82.56396500000028,73.0771479999994,105.51269500000035,108.3334960000002,116.2822270000006,122.30761700000039,127.69238299999961,111.9228520000006,114.23095699999976,86.41015599999992,96.15380900000036,104.23095699999976,80.64111300000059,110.25634799999989
91,77.05126999999993,66.2822270000006,103.46142599999985,106.53857400000015,106.9228520000006,118.58984400000008,121.15380900000036,111.2822270000006,112.05126999999993,84.87158199999976,95.38476599999922,99.74365200000011,72.82031300000017,113.20507799999996
92,70.51269500000035,59.23095699999976,99.74365200000011,105.51269500000035,98.20507799999996,113.9741210000002,114.87158199999976,111.2822270000006,108.7177729999994,81.6665039999998,93.9741210000002,93.58984400000008,64.23095699999976,111.53857400000015
93,65.12841800000024,54.102539000000434,95.76904300000024,105.38476599999922,92.94873000000007,110.51269500000035,112.30761700000039,112.05126999999993,106.2822270000006,79.61523400000078,93.0771479999994,88.9741210000002,58.46142599999985,107.05126999999993
94,61.79492200000004,50.51269500000035,94.23095699999976,106.2822270000006,90.76904300000024,109.10253900000043,114.23095699999976,112.94873000000007,105.76904300000024,80.25634799999989,93.20507799999996,88.84619099999964,56.025878999999804,107.05126999999993
95,60.25634799999989,47.94873000000007,95.89746099999957,107.94873000000007,90.38476599999922,110.0,118.84619099999964,113.0771479999994,107.05126999999993,84.10253900000043,94.10253900000043,92.69238299999961,56.153809000000365,111.6665039999998
96,60.897460999999566,47.05126999999993,98.9741210000002,109.10253900000043,91.0258789999998,112.17968800000017,122.82031300000017,112.17968800000017,108.7177729999994,90.38476599999922,95.38476599999922,97.56396500000028,58.20507799999996,113.20507799999996
97,64.35888699999941,49.48730499999965,102.05126999999993,109.48730499999965,92.82031300000017,114.48730499999965,123.84619099999964,111.53857400000015,109.74365200000011,97.05126999999993,97.43603499999972,100.51269500000035,61.666503999999804,109.61523400000078
98,69.87158199999976,54.87158199999976,104.61523400000078,109.74365200000011,95.25634799999989,115.76904300000024,121.9228520000006,111.9228520000006,110.12841800000024,102.17968800000017,99.74365200000011,100.89746099999957,65.51269500000035,107.17968800000017
99,75.0,60.51269500000035,105.76904300000024,110.0,97.17968800000017,115.38476599999922,118.7177729999994,113.0771479999994,110.38476599999922,104.61523400000078,101.79492200000004,100.12841800000024,68.7177729999994,109.23095699999976
100,77.17968800000017,63.333496000000196,104.10253900000043,109.61523400000078,97.56396500000028,114.35888699999941,117.05126999999993,113.20507799999996,111.0258789999998,105.38476599999922,102.82031300000017,99.74365200000011,70.89746099999957,111.2822270000006
101,75.12841800000024,62.17968800000017,100.12841800000024,108.3334960000002,96.2822270000006,113.84619099999964,117.43603499999972,112.17968800000017,112.05126999999993,106.2822270000006,102.17968800000017,99.61523400000078,71.53857400000015,110.38476599999922
102,69.74365200000011,57.17968800000017,96.41015599999992,107.30761700000039,93.3334960000002,113.7177729999994,118.20507799999996,110.64111300000059,112.43603499999972,107.30761700000039,99.23095699999976,98.84619099999964,69.23095699999976,110.76904300000024
103,62.94873000000007,51.2822270000006,94.61523400000078,107.56396500000028,89.87158199999976,112.94873000000007,116.79492200000004,110.0,111.6665039999998,108.0771479999994,94.48730499999965,96.15380900000036,63.0771479999994,114.61523400000078
104,57.94873000000007,48.7177729999994,94.10253900000043,108.58984400000008,87.94873000000007,112.17968800000017,113.9741210000002,110.38476599999922,110.25634799999989,108.58984400000008,90.25634799999989,92.17968800000017,55.76904300000024,116.2822270000006
105,57.82031300000017,53.333496000000196,94.23095699999976,109.48730499999965,90.12841800000024,112.82031300000017,113.3334960000002,111.15380900000036,109.74365200000011,110.76904300000024,89.87158199999976,89.74365200000011,51.9228520000006,111.9228520000006
106,62.69238299999961,63.846190999999635,95.89746099999957,109.87158199999976,96.0258789999998,115.64111300000059,117.56396500000028,111.6665039999998,110.89746099999957,115.89746099999957,94.48730499999965,92.05126999999993,54.48730499999965,106.9228520000006
107,68.84619099999964,74.23095699999976,99.35888699999941,110.0,101.0258789999998,118.0771479999994,124.48730499999965,111.53857400000015,112.69238299999961,121.79492200000004,101.15380900000036,97.94873000000007,60.38476599999922,107.94873000000007
108,71.15380900000036,78.0771479999994,101.53857400000015,109.35888699999941,100.51269500000035,117.05126999999993,128.7177729999994,111.2822270000006,113.0771479999994,124.87158199999976,104.87158199999976,102.30761700000039,63.589844000000085,111.9228520000006
109,68.20507799999996,74.35888699999941,100.0,107.69238299999961,94.23095699999976,111.6665039999998,125.89746099999957,111.0258789999998,112.05126999999993,122.94873000000007,102.94873000000007,100.51269500000035,61.025878999999804,112.69238299999961
110,63.46142599999985,68.20507799999996,96.15380900000036,106.53857400000015,87.56396500000028,105.12841800000024,117.30761700000039,111.2822270000006,111.2822270000006,118.3334960000002,97.94873000000007,93.46142599999985,56.025878999999804,111.15380900000036
111,61.79492200000004,66.41015599999992,94.48730499999965,107.94873000000007,86.79492200000004,101.15380900000036,109.10253900000043,111.9228520000006,112.56396500000028,115.89746099999957,95.25634799999989,87.30761700000039,54.61523400000078,112.69238299999961
112,66.41015599999992,72.17968800000017,96.2822270000006,111.79492200000004,94.10253900000043,102.05126999999993,107.05126999999993,112.43603499999972,115.38476599999922,118.7177729999994,98.7177729999994,87.17968800000017,60.25634799999989,116.15380900000036
113,75.25634799999989,82.56396500000028,99.10253900000043,115.51269500000035,106.41015599999992,106.2822270000006,111.2822270000006,111.9228520000006,117.69238299999961,125.38476599999922,107.17968800000017,93.58984400000008,70.38476599999922,114.87158199999976
114,83.20507799999996,91.53857400000015,100.25634799999989,116.53857400000015,116.9228520000006,110.25634799999989,116.9228520000006,110.89746099999957,117.30761700000039,130.89746099999957,114.87158199999976,101.79492200000004,78.3334960000002,109.10253900000043
115,85.38476599999922,93.7177729999994,100.0,115.0,121.15380900000036,110.76904300000024,117.43603499999972,110.25634799999989,113.3334960000002,129.7436520000001,116.41015599999992,106.15380900000036,78.58984400000008,106.0258789999998
116,81.2822270000006,89.35888699999941,98.84619099999964,111.9228520000006,119.23095699999976,107.30761700000039,111.0258789999998,110.89746099999957,107.69238299999961,120.89746099999957,110.89746099999957,103.84619099999964,70.89746099999957,108.58984400000008
117,74.87158199999976,83.20507799999996,97.43603499999972,109.10253900000043,116.0258789999998,102.69238299999961,101.6665039999998,111.9228520000006,104.23095699999976,109.23095699999976,103.20507799999996,97.30761700000039,61.025878999999804,111.41015599999992
118,71.2822270000006,81.2822270000006,97.56396500000028,107.94873000000007,116.2822270000006,100.64111300000059,95.89746099999957,112.43603499999972,105.25634799999989,102.05126999999993,100.25634799999989,92.69238299999961,56.2822270000006,111.6665039999998
119,73.46142599999985,85.64111300000059,100.64111300000059,109.35888699999941,121.15380900000036,102.82031300000017,97.69238299999961,112.82031300000017,109.87158199999976,103.46142599999985,105.38476599999922,95.0,59.74365200000011,112.69238299999961
120,79.74365200000011,93.7177729999994,105.89746099999957,112.17968800000017,127.30761700000039,107.43603499999972,105.64111300000059,113.7177729999994,114.35888699999941,111.0258789999998,115.76904300000024,103.46142599999985,69.10253900000043,116.0258789999998
121,86.41015599999992,100.51269500000035,109.61523400000078,113.58984400000008,130.6411130000006,111.6665039999998,113.84619099999964,115.25634799999989,116.2822270000006,117.69238299999961,124.35888699999941,112.17968800000017,78.84619099999964,116.15380900000036
122,89.87158199999976,102.82031300000017,109.10253900000043,112.30761700000039,130.0,113.20507799999996,117.43603499999972,116.15380900000036,115.51269500000035,118.58984400000008,125.64111300000059,115.51269500000035,83.46142599999985,111.0258789999998
123,89.35888699999941,100.51269500000035,106.41015599999992,110.0,127.94873000000007,111.9228520000006,115.51269500000035,115.76904300000024,113.9741210000002,113.58984400000008,119.61523400000078,112.94873000000007,81.0258789999998,107.69238299999961
124,86.9228520000006,95.89746099999957,104.74365200000011,109.35888699999941,127.43603499999972,109.61523400000078,111.6665039999998,114.74365200000011,113.3334960000002,106.79492200000004,111.15380900000036,108.84619099999964,73.7177729999994,111.41015599999992
125,86.2822270000006,92.30761700000039,105.12841800000024,110.51269500000035,129.87158199999976,108.7177729999994,110.51269500000035,114.23095699999976,113.84619099999964,102.69238299999961,105.64111300000059,107.94873000000007,66.41015599999992,117.05126999999993
126,89.23095699999976,91.79492200000004,106.53857400000015,112.05126999999993,133.84619099999964,110.25634799999989,113.84619099999964,115.12841800000024,114.87158199999976,103.20507799999996,106.0258789999998,111.53857400000015,63.46142599999985,116.9228520000006
127,93.9741210000002,93.46142599999985,108.3334960000002,112.94873000000007,136.2822270000006,113.7177729999994,119.23095699999976,117.05126999999993,115.76904300000024,106.6665039999998,111.15380900000036,117.94873000000007,65.89746099999957,113.3334960000002
128,96.6665039999998,95.0,110.64111300000059,113.20507799999996,135.12841800000024,117.17968800000017,123.0771479999994,118.9741210000002,116.2822270000006,109.48730499999965,116.79492200000004,123.46142599999985,71.0258789999998,112.82031300000017
129,95.12841800000024,94.87158199999976,112.05126999999993,112.94873000000007,130.76904300000024,118.7177729999994,122.56396500000028,118.9741210000002,116.15380900000036,109.74365200000011,118.9741210000002,125.38476599999922,75.0,114.87158199999976
130,89.48730499999965,91.9228520000006,111.0258789999998,111.2822270000006,126.0258789999998,117.05126999999993,117.94873000000007,116.6665039999998,115.12841800000024,108.3334960000002,115.51269500000035,122.30761700000039,74.87158199999976,113.84619099999964
131,82.30761700000039,86.41015599999992,108.0771479999994,108.84619099999964,123.0771479999994,112.69238299999961,111.0258789999998,113.3334960000002,113.3334960000002,107.17968800000017,108.20507799999996,115.38476599999922,69.74365200000011,110.51269500000035
132,75.64111300000059,79.10253900000043,105.51269500000035,106.9228520000006,121.9228520000006,107.17968800000017,104.23095699999976,110.76904300000024,110.89746099999957,106.79492200000004,100.38476599999922,107.82031300000017,61.666503999999804,110.89746099999957
133,71.0258789999998,72.43603499999972,104.61523400000078,106.41015599999992,121.53857400000015,103.20507799999996,99.87158199999976,109.74365200000011,108.84619099999964,106.2822270000006,94.87158199999976,102.56396500000028,54.102539000000434,114.87158199999976
134,69.48730499999965,69.23095699999976,104.61523400000078,107.05126999999993,120.38476599999922,102.43603499999972,98.9741210000002,109.74365200000011,108.0771479999994,105.25634799999989,92.56396500000028,101.0258789999998,50.51269500000035,115.38476599999922
135,70.89746099999957,70.64111300000059,104.87158199999976,107.94873000000007,118.58984400000008,104.35888699999941,100.76904300000024,109.74365200000011,108.58984400000008,104.48730499999965,93.58984400000008,102.94873000000007,51.666503999999804,111.0258789999998
136,73.7177729999994,73.9741210000002,105.64111300000059,109.48730499999965,116.53857400000015,106.6665039999998,103.46142599999985,109.61523400000078,110.0,105.25634799999989,97.05126999999993,107.30761700000039,55.897460999999566,108.3334960000002
137,76.15380900000036,76.0258789999998,107.05126999999993,111.15380900000036,115.64111300000059,107.94873000000007,106.0258789999998,109.74365200000011,110.89746099999957,108.84619099999964,101.15380900000036,112.43603499999972,60.25634799999989,110.51269500000035
138,78.0771479999994,76.2822270000006,107.56396500000028,111.79492200000004,116.79492200000004,108.7177729999994,108.3334960000002,110.12841800000024,110.64111300000059,114.87158199999976,104.48730499999965,116.0258789999998,64.10253900000043,112.05126999999993
139,80.89746099999957,76.6665039999998,107.17968800000017,111.15380900000036,119.87158199999976,110.89746099999957,112.05126999999993,111.15380900000036,110.12841800000024,122.56396500000028,106.53857400000015,117.30761700000039,68.46142599999985,109.35888699999941
140,85.76904300000024,79.48730499999965,107.30761700000039,110.89746099999957,123.3334960000002,114.74365200000011,116.9228520000006,112.56396500000028,111.15380900000036,129.61523400000078,108.20507799999996,117.43603499999972,73.9741210000002,107.43603499999972
141,91.2822270000006,84.74365200000011,108.9741210000002,112.05126999999993,125.25634799999989,119.10253900000043,121.15380900000036,113.84619099999964,114.35888699999941,133.9741210000002,109.87158199999976,117.30761700000039,78.9741210000002,110.64111300000059
142,94.61523400000078,90.12841800000024,110.0,113.58984400000008,124.35888699999941,121.79492200000004,122.05126999999993,114.23095699999976,117.43603499999972,134.48730499999965,110.64111300000059,116.79492200000004,80.76904300000024,114.10253900000043
143,94.23095699999976,92.43603499999972,108.0771479999994,113.58984400000008,121.41015599999992,121.9228520000006,118.9741210000002,113.9741210000002,117.56396500000028,131.6665039999998,110.25634799999989,115.64111300000059,78.58984400000008,112.05126999999993
144,90.12841800000024,89.61523400000078,104.10253900000043,111.79492200000004,117.94873000000007,119.87158199999976,113.46142599999985,113.9741210000002,114.23095699999976,126.0258789999998,108.58984400000008,113.9741210000002,73.9741210000002,108.20507799999996
145,83.9741210000002,82.82031300000017,101.41015599999992,110.0,115.64111300000059,117.17968800000017,108.7177729999994,114.23095699999976,110.0,119.35888699999941,106.41015599999992,112.69238299999961,68.58984400000008,109.10253900000043
146,78.84619099999964,76.0258789999998,101.2822270000006,109.23095699999976,115.51269500000035,115.89746099999957,107.05126999999993,114.23095699999976,107.69238299999961,113.58984400000008,103.9741210000002,111.41015599999992,63.589844000000085,113.0771479999994
147,77.17968800000017,73.46142599999985,102.30761700000039,109.48730499999965,116.79492200000004,116.79492200000004,108.58984400000008,113.46142599999985,108.3334960000002,110.25634799999989,101.15380900000036,109.87158199999976,60.12841800000024,113.58984400000008
148,79.10253900000043,76.0258789999998,103.46142599999985,110.64111300000059,118.46142599999985,119.10253900000043,111.2822270000006,112.43603499999972,110.12841800000024,109.35888699999941,97.82031300000017,107.69238299999961,58.333496000000196,111.53857400000015
149,81.6665039999998,80.89746099999957,104.35888699999941,112.05126999999993,119.10253900000043,120.64111300000059,112.43603499999972,111.6665039999998,110.89746099999957,109.48730499999965,94.48730499999965,105.64111300000059,57.94873000000007,112.56396500000028
150,81.79492200000004,83.58984400000008,104.35888699999941,112.82031300000017,118.3334960000002,120.12841800000024,111.41015599999992,110.89746099999957,109.74365200000011,109.35888699999941,91.79492200000004,103.46142599999985,58.20507799999996,116.41015599999992
151,79.48730499999965,82.17968800000017,102.69238299999961,111.6665039999998,117.30761700000039,118.7177729999994,110.51269500000035,110.0,107.82031300000017,108.46142599999985,90.51269500000035,101.2822270000006,58.846190999999635,116.6665039999998
152,77.30761700000039,78.7177729999994,100.89746099999957,109.61523400000078,117.30761700000039,118.7177729999994,112.82031300000017,109.35888699999941,107.56396500000028,107.82031300000017,91.15380900000036,100.38476599999922,60.51269500000035,112.43603499999972
153,78.46142599999985,76.79492200000004,101.79492200000004,108.58984400000008,118.9741210000002,121.53857400000015,119.35888699999941,110.51269500000035,110.12841800000024,109.35888699999941,93.58984400000008,102.82031300000017,62.94873000000007,110.25634799999989
154,83.58984400000008,79.10253900000043,105.89746099999957,109.87158199999976,121.41015599999992,126.15380900000036,127.56396500000028,113.7177729999994,114.35888699999941,114.87158199999976,97.30761700000039,108.58984400000008,66.0258789999998,112.30761700000039
155,90.12841800000024,84.74365200000011,109.61523400000078,112.05126999999993,123.46142599999985,130.12841800000024,133.9741210000002,117.43603499999972,118.0771479999994,123.3334960000002,101.79492200000004,114.74365200000011,69.74365200000011,113.0771479999994
156,94.35888699999941,90.38476599999922,110.0,113.0771479999994,123.84619099999964,131.53857400000015,136.2822270000006,119.48730499999965,118.84619099999964,131.0258789999998,105.89746099999957,118.3334960000002,73.20507799999996,109.74365200000011
157,93.58984400000008,92.17968800000017,107.69238299999961,112.69238299999961,121.2822270000006,129.7436520000001,134.48730499999965,119.10253900000043,116.2822270000006,133.3334960000002,108.20507799999996,117.69238299999961,75.12841800000024,107.82031300000017
158,87.69238299999961,88.46142599999985,104.61523400000078,111.41015599999992,116.15380900000036,126.0258789999998,130.51269500000035,117.43603499999972,111.9228520000006,128.3334960000002,107.05126999999993,113.3334960000002,73.58984400000008,110.64111300000059
159,79.74365200000011,81.41015599999992,101.53857400000015,110.12841800000024,110.0,121.9228520000006,126.41015599999992,115.64111300000059,108.58984400000008,119.23095699999976,102.94873000000007,107.17968800000017,68.84619099999964,113.58984400000008
160,74.23095699999976,75.51269500000035,99.10253900000043,109.35888699999941,105.64111300000059,119.23095699999976,123.20507799999996,114.48730499999965,108.20507799999996,111.79492200000004,98.46142599999985,102.56396500000028,63.0771479999994,111.6665039999998
161,73.9741210000002,74.10253900000043,98.9741210000002,110.0,104.87158199999976,118.20507799999996,120.64111300000059,114.48730499999965,110.76904300000024,110.25634799999989,96.6665039999998,102.56396500000028,59.23095699999976,108.7177729999994
162,78.3334960000002,77.43603499999972,102.30761700000039,112.30761700000039,106.79492200000004,118.46142599999985,118.9741210000002,115.12841800000024,114.35888699999941,114.10253900000043,99.10253900000043,107.30761700000039,58.589844000000085,110.0
163,84.74365200000011,82.69238299999961,106.6665039999998,114.10253900000043,109.61523400000078,119.10253900000043,118.46142599999985,115.89746099999957,116.53857400000015,120.0,103.7177729999994,113.0771479999994,60.76904300000024,112.43603499999972
164,89.48730499999965,86.6665039999998,108.84619099999964,113.46142599999985,111.6665039999998,120.12841800000024,119.35888699999941,115.76904300000024,117.05126999999993,124.61523400000078,107.43603499999972,115.64111300000059,64.23095699999976,110.64111300000059
165,90.0,87.05126999999993,107.82031300000017,110.51269500000035,112.30761700000039,121.2822270000006,121.0258789999998,115.38476599999922,116.15380900000036,125.76904300000024,107.94873000000007,113.58984400000008,66.41015599999992,107.17968800000017
166,85.25634799999989,82.94873000000007,105.12841800000024,107.69238299999961,110.51269500000035,121.2822270000006,121.9228520000006,115.25634799999989,114.35888699999941,122.56396500000028,104.61523400000078,108.46142599999985,65.0,108.9741210000002
167,76.6665039999998,76.0258789999998,101.79492200000004,106.6665039999998,106.9228520000006,119.35888699999941,120.25634799999989,115.25634799999989,112.05126999999993,116.2822270000006,98.7177729999994,102.69238299999961,59.74365200000011,114.48730499999965
168,68.84619099999964,69.74365200000011,98.58984400000008,107.17968800000017,103.46142599999985,116.41015599999992,116.6665039999998,114.35888699999941,109.48730499999965,110.0,93.0771479999994,98.3334960000002,53.0771479999994,117.17968800000017
169,66.15380900000036,67.82031300000017,97.30761700000039,108.58984400000008,102.69238299999961,114.74365200000011,113.7177729999994,112.43603499999972,108.20507799999996,107.05126999999993,90.38476599999922,96.9228520000006,49.102539000000434,115.89746099999957
170,70.0,71.15380900000036,100.0,110.25634799999989,105.0,116.0258789999998,114.35888699999941,110.64111300000059,108.84619099999964,108.58984400000008,91.6665039999998,99.10253900000043,49.74365200000011,115.76904300000024
171,76.79492200000004,77.17968800000017,105.25634799999989,111.6665039999998,108.3334960000002,119.87158199999976,119.23095699999976,110.38476599999922,110.89746099999957,113.7177729999994,95.12841800000024,103.0771479999994,53.846190999999635,117.56396500000028
172,82.05126999999993,82.17968800000017,108.3334960000002,111.9228520000006,110.25634799999989,123.9741210000002,125.25634799999989,111.53857400000015,112.69238299999961,119.61523400000078,98.0771479999994,105.76904300000024,58.0771479999994,115.76904300000024
173,82.56396500000028,83.3334960000002,106.79492200000004,110.76904300000024,110.12841800000024,125.89746099999957,128.20507799999996,113.3334960000002,113.46142599999985,123.58984400000008,98.84619099999964,105.25634799999989,59.74365200000011,110.12841800000024
174,78.7177729999994,81.0258789999998,102.30761700000039,109.74365200000011,108.58984400000008,124.74365200000011,125.51269500000035,114.74365200000011,113.46142599999985,124.35888699999941,97.56396500000028,102.43603499999972,57.82031300000017,107.69238299999961
175,73.46142599999985,76.79492200000004,98.3334960000002,109.35888699999941,107.05126999999993,121.2822270000006,118.9741210000002,114.61523400000078,112.94873000000007,122.43603499999972,95.12841800000024,99.23095699999976,52.82031300000017,111.53857400000015
176,69.74365200000011,72.94873000000007,96.15380900000036,108.9741210000002,106.15380900000036,117.82031300000017,113.0771479999994,112.94873000000007,112.17968800000017,119.74365200000011,92.69238299999961,96.53857400000015,46.53857400000015,115.51269500000035
177,68.46142599999985,71.2822270000006,95.76904300000024,107.56396500000028,105.76904300000024,115.51269500000035,111.2822270000006,110.89746099999957,111.6665039999998,118.3334960000002,91.53857400000015,94.61523400000078,41.53857400000015,114.87158199999976
178,68.9741210000002,71.79492200000004,96.6665039999998,106.0258789999998,104.35888699999941,114.10253900000043,113.58984400000008,109.74365200000011,111.79492200000004,119.10253900000043,92.43603499999972,94.48730499999965,39.102539000000434,113.58984400000008
179,69.74365200000011,72.82031300000017,97.94873000000007,106.15380900000036,100.64111300000059,111.6665039999998,116.6665039999998,110.12841800000024,112.30761700000039,120.76904300000024,94.74365200000011,96.15380900000036,39.102539000000434,116.0258789999998
180,70.0,73.20507799999996,97.94873000000007,107.69238299999961,95.0,107.30761700000039,116.79492200000004,110.38476599999922,112.43603499999972,121.15380900000036,97.30761700000039,98.46142599999985,40.12841800000024,118.46142599999985
181,69.87158199999976,73.7177729999994,96.41015599999992,108.84619099999964,89.87158199999976,102.17968800000017,112.94873000000007,109.48730499999965,111.6665039999998,119.74365200000011,98.84619099999964,99.48730499999965,40.25634799999989,116.0258789999998
182,70.12841800000024,75.12841800000024,96.0258789999998,109.23095699999976,88.7177729999994,99.48730499999965,107.94873000000007,107.82031300000017,110.64111300000059,117.82031300000017,99.35888699999941,99.10253900000043,38.974121000000196,112.05126999999993
183,70.89746099999957,78.20507799999996,98.9741210000002,109.23095699999976,93.3334960000002,101.0258789999998,105.38476599999922,106.79492200000004,110.38476599999922,117.56396500000028,99.74365200000011,98.9741210000002,36.79492200000004,112.82031300000017
184,72.82031300000017,82.30761700000039,103.84619099999964,109.10253900000043,101.79492200000004,105.64111300000059,107.43603499999972,107.82031300000017,111.0258789999998,119.61523400000078,101.41015599999992,100.51269500000035,36.153809000000365,115.51269500000035
185,75.89746099999957,86.41015599999992,107.05126999999993,108.3334960000002,110.0,110.51269500000035,112.17968800000017,110.76904300000024,111.53857400000015,122.94873000000007,105.12841800000024,103.7177729999994,39.23095699999976,113.58984400000008
186,80.12841800000024,88.9741210000002,107.43603499999972,107.05126999999993,113.9741210000002,112.56396500000028,115.12841800000024,113.9741210000002,111.15380900000036,125.76904300000024,110.38476599999922,107.82031300000017,46.2822270000006,108.20507799999996
187,84.74365200000011,89.10253900000043,107.05126999999993,106.41015599999992,113.20507799999996,111.2822270000006,113.20507799999996,115.76904300000024,110.64111300000059,126.9228520000006,116.15380900000036,112.05126999999993,54.87158199999976,107.05126999999993
188,88.58984400000008,87.82031300000017,107.56396500000028,106.6665039999998,111.15380900000036,107.69238299999961,107.30761700000039,115.0,110.64111300000059,126.15380900000036,120.76904300000024,115.38476599999922,62.17968800000017,111.0258789999998
189,91.79492200000004,87.56396500000028,108.3334960000002,107.30761700000039,111.9228520000006,104.87158199999976,101.41015599999992,112.17968800000017,111.53857400000015,123.9741210000002,122.82031300000017,117.30761700000039,66.41015599999992,113.3334960000002
190,94.23095699999976,90.12841800000024,108.84619099999964,108.0771479999994,116.79492200000004,104.74365200000011,99.10253900000043,109.61523400000078,112.82031300000017,121.15380900000036,122.05126999999993,117.43603499999972,67.43603499999972,111.6665039999998
191,95.51269500000035,94.35888699999941,109.74365200000011,109.74365200000011,123.3334960000002,107.05126999999993,101.0258789999998,109.35888699999941,113.7177729999994,118.0771479999994,119.23095699999976,116.6665039999998,66.15380900000036,111.15380900000036
192,94.87158199999976,96.6665039999998,110.51269500000035,111.53857400000015,127.17968800000017,109.35888699999941,104.74365200000011,111.15380900000036,113.20507799999996,114.87158199999976,115.38476599999922,115.0,63.333496000000196,114.10253900000043
193,91.79492200000004,95.0,109.35888699999941,111.9228520000006,126.0258789999998,109.10253900000043,106.53857400000015,113.20507799999996,110.76904300000024,111.41015599999992,111.6665039999998,112.05126999999993,60.0,115.12841800000024
194,87.17968800000017,89.74365200000011,105.38476599999922,110.0,121.0258789999998,106.53857400000015,105.0,113.58984400000008,107.30761700000039,107.82031300000017,108.9741210000002,107.82031300000017,56.79492200000004,111.53857400000015
195,82.94873000000007,84.48730499999965,101.53857400000015,107.94873000000007,116.0258789999998,103.7177729999994,101.2822270000006,112.43603499999972,104.87158199999976,105.12841800000024,107.94873000000007,103.3334960000002,53.7177729999994,109.35888699999941
196,81.79492200000004,83.3334960000002,100.51269500000035,108.20507799999996,115.51269500000035,103.7177729999994,99.61523400000078,111.0258789999998,105.12841800000024,104.48730499999965,108.58984400000008,100.89746099999957,52.05126999999993,112.94873000000007
197,85.51269500000035,88.3334960000002,102.17968800000017,110.76904300000024,120.64111300000059,107.05126999999993,102.69238299999961,110.38476599999922,107.69238299999961,106.41015599999992,110.51269500000035,101.2822270000006,53.20507799999996,116.79492200000004
198,91.79492200000004,96.53857400000015,103.9741210000002,113.58984400000008,128.0771479999994,112.17968800000017,109.74365200000011,110.64111300000059,110.38476599999922,110.12841800000024,112.43603499999972,103.7177729999994,57.30761700000039,114.74365200000011
199,95.76904300000024,101.6665039999998,104.74365200000011,114.74365200000011,132.3076170000004,115.76904300000024,116.53857400000015,111.2822270000006,111.0258789999998,113.58984400000008,113.0771479999994,106.0258789999998,61.410155999999915,110.25634799999989
200,93.3334960000002,99.23095699999976,104.61523400000078,113.9741210000002,130.38476599999922,115.51269500000035,118.7177729999994,111.79492200000004,109.35888699999941,115.0,112.30761700000039,106.2822270000006,61.666503999999804,109.74365200000011
201,85.76904300000024,90.89746099999957,103.20507799999996,111.53857400000015,124.61523400000078,111.79492200000004,115.12841800000024,111.6665039999998,107.30761700000039,113.46142599999985,110.51269500000035,103.58984400000008,57.05126999999993,111.79492200000004
202,78.58984400000008,82.69238299999961,100.25634799999989,108.84619099999964,119.35888699999941,107.56396500000028,108.3334960000002,111.2822270000006,107.05126999999993,110.0,108.0771479999994,99.23095699999976,50.12841800000024,110.89746099999957
203,76.41015599999992,79.87158199999976,97.43603499999972,107.43603499999972,117.69238299999961,105.12841800000024,102.05126999999993,110.89746099999957,108.9741210000002,106.41015599999992,106.2822270000006,96.0258789999998,45.25634799999989,108.3334960000002
204,80.38476599999922,82.82031300000017,97.82031300000017,108.3334960000002,118.46142599999985,105.25634799999989,99.23095699999976,110.51269500000035,111.9228520000006,104.23095699999976,105.64111300000059,96.15380900000036,44.74365200000011,109.87158199999976
205,87.17968800000017,88.0771479999994,101.41015599999992,110.38476599999922,119.10253900000043,106.6665039999998,100.38476599999922,110.0,113.58984400000008,104.48730499999965,106.53857400000015,99.23095699999976,47.94873000000007,113.84619099999964
206,92.82031300000017,92.43603499999972,105.12841800000024,111.2822270000006,117.69238299999961,108.0771479999994,103.46142599999985,108.84619099999964,113.20507799999996,107.05126999999993,108.46142599999985,102.56396500000028,52.30761700000039,113.3334960000002
207,94.61523400000078,93.9741210000002,106.41015599999992,110.64111300000059,115.0,108.20507799999996,105.64111300000059,108.20507799999996,111.79492200000004,110.76904300000024,110.25634799999989,103.9741210000002,55.25634799999989,108.0771479999994
208,92.43603499999972,92.56396500000028,105.51269500000035,109.74365200000011,112.43603499999972,106.9228520000006,105.38476599999922,108.46142599999985,110.64111300000059,113.84619099999964,110.64111300000059,103.46142599999985,55.897460999999566,105.64111300000059
209,87.94873000000007,89.61523400000078,103.84619099999964,109.87158199999976,111.2822270000006,105.38476599999922,103.46142599999985,109.87158199999976,110.51269500000035,115.25634799999989,109.10253900000043,101.79492200000004,54.35888699999941,108.58984400000008
210,83.84619099999964,86.79492200000004,101.2822270000006,110.38476599999922,111.41015599999992,105.0,101.6665039999998,111.15380900000036,111.2822270000006,114.61523400000078,106.53857400000015,99.61523400000078,52.30761700000039,111.41015599999992
211,81.6665039999998,84.74365200000011,97.94873000000007,110.38476599999922,111.53857400000015,105.64111300000059,101.6665039999998,111.41015599999992,112.05126999999993,112.69238299999961,104.48730499999965,97.94873000000007,50.897460999999566,110.64111300000059
212,80.76904300000024,82.30761700000039,95.64111300000059,109.87158199999976,109.87158199999976,105.89746099999957,102.69238299999961,110.89746099999957,111.9228520000006,110.64111300000059,103.84619099999964,97.05126999999993,49.74365200000011,110.51269500000035
213,79.35888699999941,78.58984400000008,95.12841800000024,109.23095699999976,105.38476599999922,104.35888699999941,103.20507799999996,110.64111300000059,110.89746099999957,109.23095699999976,103.84619099999964,96.53857400000015,47.94873000000007,113.46142599999985
214,76.9228520000006,74.74365200000011,95.25634799999989,108.46142599999985,99.23095699999976,101.0258789999998,102.30761700000039,110.64111300000059,110.12841800000024,108.9741210000002,103.3334960000002,95.0,45.51269500000035,114.23095699999976
215,74.35888699999941,72.43603499999972,95.12841800000024,107.82031300000017,94.10253900000043,98.0771479999994,100.25634799999989,110.64111300000059,110.76904300000024,109.74365200000011,102.30761700000039,92.82031300000017,44.102539000000434,109.74365200000011
216,73.46142599999985,72.56396500000028,96.0258789999998,108.0771479999994,92.43603499999972,97.56396500000028,98.9741210000002,110.76904300000024,112.56396500000028,110.51269500000035,101.6665039999998,92.30761700000039,45.38476599999922,106.15380900000036
217,75.89746099999957,75.25634799999989,98.7177729999994,110.0,94.61523400000078,100.25634799999989,99.74365200000011,111.15380900000036,113.9741210000002,111.0258789999998,102.43603499999972,96.0258789999998,49.87158199999976,109.10253900000043
218,81.53857400000015,80.0,101.6665039999998,112.56396500000028,99.48730499999965,105.0,102.94873000000007,112.05126999999993,114.23095699999976,112.56396500000028,105.0,103.58984400000008,56.410155999999915,114.35888699999941
219,88.46142599999985,86.2822270000006,102.69238299999961,113.58984400000008,105.0,109.10253900000043,107.17968800000017,113.3334960000002,113.9741210000002,116.15380900000036,108.3334960000002,111.53857400000015,63.20507799999996,114.74365200000011
220,93.84619099999964,92.43603499999972,102.05126999999993,112.94873000000007,109.23095699999976,110.12841800000024,110.25634799999989,114.61523400000078,114.35888699999941,120.64111300000059,110.76904300000024,116.15380900000036,67.94873000000007,111.41015599999992
221,95.51269500000035,95.51269500000035,102.05126999999993,111.9228520000006,110.12841800000024,107.56396500000028,111.15380900000036,115.38476599999922,115.38476599999922,123.3334960000002,110.38476599999922,115.76904300000024,68.84619099999964,110.51269500000035
222,93.20507799999996,94.23095699999976,103.20507799999996,111.41015599999992,107.56396500000028,103.58984400000008,110.76904300000024,114.87158199999976,115.89746099999957,122.17968800000017,107.56396500000028,111.6665039999998,66.6665039999998,111.79492200000004
223,90.12841800000024,91.0258789999998,104.48730499999965,111.2822270000006,104.10253900000043,101.79492200000004,111.41015599999992,112.94873000000007,115.0,118.0771479999994,104.74365200000011,107.94873000000007,63.974121000000196,110.38476599999922
224,89.61523400000078,90.0,105.76904300000024,111.41015599999992,103.20507799999996,104.23095699999976,114.35888699999941,110.76904300000024,113.58984400000008,113.3334960000002,104.61523400000078,108.7177729999994,63.46142599999985,107.17968800000017
225,91.79492200000004,92.17968800000017,107.05126999999993,111.9228520000006,105.51269500000035,109.35888699999941,117.94873000000007,110.12841800000024,112.69238299999961,109.48730499999965,107.30761700000039,114.23095699999976,64.61523400000078,107.56396500000028
226,93.58984400000008,95.38476599999922,106.6665039999998,112.05126999999993,108.20507799999996,113.20507799999996,118.58984400000008,111.15380900000036,112.05126999999993,106.15380900000036,109.74365200000011,120.12841800000024,64.87158199999976,110.64111300000059
227,91.41015599999992,95.51269500000035,102.94873000000007,110.76904300000024,108.46142599999985,112.69238299999961,114.35888699999941,112.30761700000039,110.89746099999957,102.17968800000017,109.23095699999976,120.76904300000024,61.9228520000006,110.0
228,85.76904300000024,91.0258789999998,97.56396500000028,108.46142599999985,105.76904300000024,108.20507799999996,106.9228520000006,112.43603499999972,109.35888699999941,97.05126999999993,105.64111300000059,114.87158199999976,56.2822270000006,104.87158199999976
229,80.0,84.10253900000043,95.0,107.43603499999972,102.56396500000028,103.7177729999994,101.0258789999998,111.6665039999998,108.3334960000002,91.53857400000015,101.79492200000004,106.79492200000004,50.897460999999566,102.43603499999972
230,77.94873000000007,78.9741210000002,97.30761700000039,108.9741210000002,101.6665039999998,102.69238299999961,100.89746099999957,110.51269500000035,108.58984400000008,88.0771479999994,100.64111300000059,102.17968800000017,48.333496000000196,106.15380900000036
231,80.25634799999989,78.7177729999994,102.05126999999993,111.41015599999992,104.48730499999965,106.0258789999998,106.15380900000036,110.0,109.74365200000011,88.20507799999996,102.43603499999972,102.69238299999961,49.23095699999976,110.12841800000024
232,84.10253900000043,82.30761700000039,105.25634799999989,112.30761700000039,109.23095699999976,110.76904300000024,112.69238299999961,110.64111300000059,110.38476599999922,91.2822270000006,105.12841800000024,105.25634799999989,51.666503999999804,110.25634799999989
233,85.12841800000024,85.38476599999922,105.38476599999922,110.89746099999957,112.30761700000039,112.69238299999961,115.25634799999989,112.05126999999993,109.74365200000011,93.84619099999964,105.38476599999922,106.0258789999998,52.43603499999972,110.0
234,81.15380900000036,83.58984400000008,102.94873000000007,108.58984400000008,111.15380900000036,110.0,111.79492200000004,113.46142599999985,108.0771479999994,92.56396500000028,101.6665039999998,103.20507799999996,49.23095699999976,112.56396500000028
235,73.9741210000002,76.41015599999992,98.46142599999985,106.2822270000006,106.41015599999992,104.10253900000043,104.35888699999941,113.9741210000002,106.53857400000015,87.43603499999972,95.0,97.82031300000017,43.20507799999996,113.58984400000008
236,68.20507799999996,67.94873000000007,93.84619099999964,104.74365200000011,101.41015599999992,98.7177729999994,97.82031300000017,113.20507799999996,106.15380900000036,81.6665039999998,89.61523400000078,93.0771479999994,37.94873000000007,109.35888699999941
237,66.9228520000006,63.589844000000085,91.79492200000004,105.0,99.48730499999965,97.56396500000028,95.76904300000024,112.30761700000039,107.56396500000028,80.0,88.84619099999964,91.6665039999998,36.79492200000004,104.74365200000011
238,70.25634799999989,66.0258789999998,94.23095699999976,107.69238299999961,101.41015599999992,101.0258789999998,99.35888699999941,111.53857400000015,110.38476599999922,83.9741210000002,93.84619099999964,94.61523400000078,40.64111300000059,106.0258789999998
239,76.0258789999998,74.10253900000043,99.35888699999941,112.05126999999993,105.38476599999922,107.30761700000039,106.15380900000036,110.76904300000024,112.94873000000007,91.53857400000015,101.79492200000004,100.0,47.56396500000028,109.87158199999976
240,82.05126999999993,83.7177729999994,103.58984400000008,115.64111300000059,109.35888699999941,113.84619099999964,112.94873000000007,110.12841800000024,113.58984400000008,99.10253900000043,108.9741210000002,105.51269500000035,55.12841800000024,109.35888699999941
241,87.05126999999993,90.51269500000035,105.51269500000035,117.30761700000039,112.05126999999993,118.0771479999994,117.05126999999993,110.0,112.82031300000017,104.10253900000043,112.82031300000017,110.25634799999989,61.53857400000015,105.12841800000024
242,90.51269500000035,93.0771479999994,105.89746099999957,117.30761700000039,113.58984400000008,119.35888699999941,118.0771479999994,110.89746099999957,111.9228520000006,106.15380900000036,112.94873000000007,114.48730499999965,65.64111300000059,104.23095699999976
243,91.9228520000006,92.43603499999972,105.12841800000024,115.76904300000024,114.23095699999976,118.3334960000002,116.79492200000004,111.79492200000004,111.9228520000006,106.41015599999992,110.76904300000024,117.30761700000039,67.56396500000028,106.9228520000006
244,91.6665039999998,91.0258789999998,103.46142599999985,113.20507799999996,113.9741210000002,116.6665039999998,115.38476599999922,111.9228520000006,112.30761700000039,106.2822270000006,108.20507799999996,117.43603499999972,67.82031300000017,107.56396500000028
245,90.51269500000035,90.76904300000024,101.9228520000006,110.89746099999957,112.69238299999961,115.38476599999922,115.38476599999922,111.15380900000036,112.43603499999972,106.41015599999992,107.43603499999972,114.74365200000011,66.9228520000006,105.38476599999922
246,89.74365200000011,92.17968800000017,102.82031300000017,110.38476599999922,110.38476599999922,115.12841800000024,116.2822270000006,110.51269500000035,111.6665039999998,106.9228520000006,108.7177729999994,112.05126999999993,66.0258789999998,105.76904300000024
247,90.38476599999922,94.61523400000078,105.51269500000035,111.9228520000006,108.20507799999996,115.64111300000059,116.6665039999998,110.64111300000059,110.64111300000059,107.94873000000007,111.15380900000036,111.79492200000004,66.6665039999998,109.61523400000078
248,92.94873000000007,97.56396500000028,107.05126999999993,113.7177729999994,107.43603499999972,116.53857400000015,115.89746099999957,111.15380900000036,110.38476599999922,110.12841800000024,113.46142599999985,114.61523400000078,69.74365200000011,110.64111300000059
249,97.05126999999993,100.38476599999922,105.89746099999957,114.23095699999976,108.46142599999985,117.43603499999972,114.10253900000043,111.79492200000004,111.53857400000015,113.46142599999985,115.38476599999922,118.46142599999985,74.23095699999976,106.6665039999998
250,100.64111300000059,102.17968800000017,103.7177729999994,113.3334960000002,109.74365200000011,117.30761700000039,111.9228520000006,112.43603499999972,113.20507799999996,116.6665039999998,117.30761700000039,121.53857400000015,78.0771479999994,103.84619099999964
251,102.05126999999993,101.9228520000006,102.69238299999961,111.6665039999998,109.48730499999965,115.51269500000035,109.74365200000011,113.0771479999994,113.9741210000002,117.82031300000017,119.10253900000043,122.43603499999972,79.35888699999941,106.2822270000006
252,101.53857400000015,100.64111300000059,102.82031300000017,110.0,107.43603499999972,112.82031300000017,108.0771479999994,112.94873000000007,112.82031300000017,116.41015599999992,120.38476599999922,121.15380900000036,78.46142599999985,108.46142599999985
253,101.53857400000015,100.51269500000035,103.7177729999994,109.10253900000043,105.12841800000024,110.89746099999957,107.43603499999972,112.05126999999993,110.89746099999957,114.74365200000011,121.53857400000015,119.61523400000078,77.30761700000039,106.15380900000036
254,103.3334960000002,103.20507799999996,105.64111300000059,109.48730499999965,104.35888699999941,111.15380900000036,107.82031300000017,111.2822270000006,109.74365200000011,115.25634799999989,123.3334960000002,120.76904300000024,77.30761700000039,103.7177729999994
255,106.6665039999998,107.30761700000039,108.7177729999994,111.2822270000006,105.64111300000059,112.94873000000007,108.58984400000008,111.53857400000015,110.64111300000059,118.58984400000008,126.0258789999998,124.87158199999976,78.3334960000002,106.2822270000006
256,110.38476599999922,110.51269500000035,111.41015599999992,112.43603499999972,108.0771479999994,115.0,109.61523400000078,112.43603499999972,112.56396500000028,122.82031300000017,128.46142599999985,129.7436520000001,79.35888699999941,110.12841800000024
257,113.7177729999994,111.6665039999998,112.30761700000039,112.05126999999993,110.51269500000035,115.89746099999957,110.25634799999989,112.82031300000017,113.7177729999994,125.51269500000035,129.61523400000078,132.6923829999996,80.51269500000035,108.58984400000008
258,115.64111300000059,110.89746099999957,111.9228520000006,110.64111300000059,111.41015599999992,115.12841800000024,109.87158199999976,112.69238299999961,113.46142599999985,124.87158199999976,128.9741210000002,133.20507799999996,81.41015599999992,103.9741210000002
259,115.0,108.7177729999994,111.79492200000004,110.0,109.74365200000011,112.56396500000028,107.30761700000039,112.17968800000017,111.41015599999992,121.0258789999998,126.41015599999992,131.9228520000006,81.15380900000036,103.20507799999996
260,111.79492200000004,105.64111300000059,111.15380900000036,110.25634799999989,105.89746099999957,108.58984400000008,102.30761700000039,111.79492200000004,108.46142599999985,115.51269500000035,122.56396500000028,129.7436520000001,79.23095699999976,106.6665039999998
261,108.0771479999994,103.0771479999994,109.10253900000043,110.51269500000035,102.17968800000017,105.64111300000059,97.69238299999961,111.6665039999998,105.76904300000024,111.15380900000036,119.10253900000043,127.17968800000017,76.9228520000006,108.0771479999994
262,106.53857400000015,102.56396500000028,107.17968800000017,110.76904300000024,101.41015599999992,106.15380900000036,97.05126999999993,111.41015599999992,105.12841800000024,109.61523400000078,117.69238299999961,126.0258789999998,75.89746099999957,106.6665039999998
263,108.20507799999996,103.9741210000002,107.30761700000039,111.9228520000006,103.84619099999964,110.38476599999922,101.41015599999992,111.41015599999992,106.9228520000006,110.38476599999922,118.58984400000008,127.05126999999993,76.15380900000036,107.17968800000017
264,110.89746099999957,104.74365200000011,109.10253900000043,113.46142599999985,107.94873000000007,115.51269500000035,107.69238299999961,111.79492200000004,109.61523400000078,111.41015599999992,120.12841800000024,128.58984400000008,76.15380900000036,110.12841800000024
265,112.17968800000017,103.20507799999996,109.87158199999976,113.9741210000002,110.89746099999957,117.82031300000017,111.41015599999992,112.17968800000017,111.15380900000036,110.76904300000024,119.74365200000011,127.82031300000017,74.35888699999941,110.0
266,110.76904300000024,99.74365200000011,108.3334960000002,112.82031300000017,110.89746099999957,115.89746099999957,109.87158199999976,112.30761700000039,110.38476599999922,107.94873000000007,116.6665039999998,123.84619099999964,71.0258789999998,106.15380900000036
267,107.94873000000007,96.6665039999998,106.6665039999998,111.53857400000015,108.3334960000002,111.6665039999998,104.74365200000011,112.30761700000039,108.20507799999996,104.10253900000043,112.17968800000017,118.9741210000002,67.56396500000028,105.0
268,105.89746099999957,96.15380900000036,106.79492200000004,111.6665039999998,105.25634799999989,107.94873000000007,101.2822270000006,112.05126999999993,106.41015599999992,101.2822270000006,109.35888699999941,116.53857400000015,66.15380900000036,108.7177729999994
269,105.76904300000024,98.3334960000002,107.56396500000028,112.69238299999961,104.35888699999941,106.9228520000006,102.56396500000028,111.2822270000006,106.15380900000036,101.0258789999998,109.48730499999965,117.17968800000017,67.30761700000039,111.15380900000036
270,106.15380900000036,101.15380900000036,106.79492200000004,113.46142599999985,105.64111300000059,108.58984400000008,106.9228520000006,109.87158199999976,107.43603499999972,102.94873000000007,111.79492200000004,118.0771479999994,69.23095699999976,108.46142599999985
271,104.23095699999976,101.79492200000004,104.23095699999976,113.58984400000008,106.9228520000006,110.64111300000059,109.48730499999965,108.0771479999994,109.23095699999976,105.0,113.20507799999996,116.41015599999992,68.84619099999964,106.0258789999998
272,99.10253900000043,98.20507799999996,101.41015599999992,113.0771479999994,105.12841800000024,111.0258789999998,107.05126999999993,106.9228520000006,110.12841800000024,104.10253900000043,111.2822270000006,111.6665039999998,63.589844000000085,109.10253900000043
273,92.94873000000007,92.43603499999972,99.23095699999976,111.9228520000006,100.64111300000059,109.35888699999941,101.9228520000006,106.9228520000006,109.48730499999965,100.25634799999989,106.0258789999998,105.89746099999957,55.51269500000035,113.3334960000002
274,90.0,89.23095699999976,98.46142599999985,110.38476599999922,96.53857400000015,107.82031300000017,98.84619099999964,108.20507799999996,107.56396500000028,96.15380900000036,100.51269500000035,102.56396500000028,50.0,112.30761700000039
275,92.69238299999961,91.6665039999998,99.87158199999976,109.23095699999976,96.53857400000015,108.46142599999985,100.89746099999957,109.61523400000078,105.51269500000035,95.64111300000059,98.20507799999996,104.48730499999965,51.153809000000365,108.58984400000008
276,99.10253900000043,98.3334960000002,102.94873000000007,109.74365200000011,100.76904300000024,111.15380900000036,107.43603499999972,110.51269500000035,104.35888699999941,99.48730499999965,100.89746099999957,110.76904300000024,57.56396500000028,108.58984400000008
277,105.0,104.23095699999976,105.0,110.76904300000024,105.38476599999922,113.84619099999964,113.9741210000002,110.12841800000024,104.23095699999976,105.51269500000035,107.05126999999993,116.79492200000004,64.23095699999976,111.2822270000006
278,106.15380900000036,105.38476599999922,103.46142599999985,110.64111300000059,106.6665039999998,113.9741210000002,116.15380900000036,109.10253900000043,104.87158199999976,109.87158199999976,113.0771479999994,118.3334960000002,66.79492200000004,111.41015599999992
279,103.20507799999996,101.9228520000006,100.25634799999989,109.35888699999941,103.7177729999994,111.0258789999998,112.82031300000017,108.7177729999994,106.15380900000036,110.64111300000059,115.89746099999957,115.38476599999922,65.0,109.23095699999976
280,99.87158199999976,97.43603499999972,99.35888699999941,108.46142599999985,99.23095699999976,107.43603499999972,107.69238299999961,109.87158199999976,107.82031300000017,109.10253900000043,115.76904300000024,111.79492200000004,62.43603499999972,109.74365200000011
281,100.0,96.41015599999992,102.05126999999993,109.23095699999976,96.9228520000006,106.2822270000006,106.0258789999998,111.79492200000004,109.61523400000078,108.0771479999994,114.35888699999941,111.2822270000006,63.46142599999985,112.17968800000017
282,104.10253900000043,100.25634799999989,105.64111300000059,111.0258789999998,99.10253900000043,109.23095699999976,109.74365200000011,112.82031300000017,111.15380900000036,109.23095699999976,113.7177729999994,113.84619099999964,68.9741210000002,110.89746099999957
283,109.23095699999976,105.51269500000035,107.17968800000017,112.05126999999993,104.48730499999965,113.9741210000002,116.0258789999998,112.69238299999961,112.17968800000017,111.9228520000006,114.35888699999941,117.05126999999993,76.0258789999998,106.15380900000036
284,111.9228520000006,107.94873000000007,106.9228520000006,111.9228520000006,109.10253900000043,117.17968800000017,120.25634799999989,112.17968800000017,112.56396500000028,113.58984400000008,115.25634799999989,118.58984400000008,80.25634799999989,105.64111300000059
285,111.0258789999998,106.15380900000036,106.41015599999992,111.0258789999998,109.74365200000011,116.79492200000004,119.87158199999976,112.05126999999993,112.17968800000017,112.69238299999961,115.38476599999922,118.0771479999994,80.0,111.15380900000036
286,108.7177729999994,103.0771479999994,105.76904300000024,110.12841800000024,106.9228520000006,114.35888699999941,116.53857400000015,112.30761700000039,111.2822270000006,110.25634799999989,115.0,116.41015599999992,77.43603499999972,115.51269500000035
287,107.82031300000017,102.56396500000028,105.25634799999989,110.12841800000024,104.10253900000043,112.56396500000028,113.46142599999985,112.56396500000028,110.76904300000024,108.7177729999994,115.64111300000059,115.12841800000024,75.89746099999957,113.58984400000008
288,109.35888699999941,105.89746099999957,105.38476599999922,111.53857400000015,104.74365200000011,113.46142599999985,113.3334960000002,112.56396500000028,111.2822270000006,110.0,118.20507799999996,115.25634799999989,76.79492200000004,110.12841800000024
289,111.9228520000006,110.76904300000024,106.2822270000006,113.84619099999964,108.84619099999964,116.15380900000036,116.15380900000036,112.56396500000028,112.05126999999993,113.0771479999994,121.15380900000036,116.15380900000036,78.7177729999994,110.38476599999922
290,113.46142599999985,113.84619099999964,106.2822270000006,115.0,112.94873000000007,118.7177729999994,119.74365200000011,112.56396500000028,112.43603499999972,115.38476599999922,122.05126999999993,116.15380900000036,79.10253900000043,111.41015599999992
291,112.56396500000028,112.94873000000007,104.61523400000078,114.10253900000043,113.7177729999994,119.35888699999941,121.79492200000004,112.30761700000039,112.43603499999972,115.25634799999989,119.23095699999976,114.74365200000011,76.53857400000015,109.35888699999941
292,109.35888699999941,107.94873000000007,102.69238299999961,112.17968800000017,109.48730499999965,117.05126999999993,120.89746099999957,112.17968800000017,112.43603499999972,113.0771479999994,113.9741210000002,112.43603499999972,71.53857400000015,107.56396500000028
293,104.23095699999976,100.76904300000024,102.05126999999993,110.64111300000059,102.05126999999993,112.43603499999972,117.94873000000007,112.05126999999993,112.05126999999993,109.87158199999976,108.46142599999985,110.25634799999989,65.51269500000035,110.0
294,98.7177729999994,94.87158199999976,102.43603499999972,109.74365200000011,95.25634799999989,107.43603499999972,114.61523400000078,111.53857400000015,111.6665039999998,107.30761700000039,104.61523400000078,107.82031300000017,61.025878999999804,112.82031300000017
295,95.0,92.82031300000017,101.9228520000006,108.84619099999964,93.0771479999994,104.74365200000011,112.69238299999961,110.64111300000059,112.05126999999993,106.2822270000006,103.20507799999996,105.76904300000024,59.61523400000078,109.87158199999976
296,95.0,94.61523400000078,100.64111300000059,108.7177729999994,96.41015599999992,105.0,112.82031300000017,110.38476599999922,113.20507799999996,106.53857400000015,103.7177729999994,104.87158199999976,61.153809000000365,104.10253900000043
297,97.56396500000028,97.56396500000028,100.0,110.0,102.05126999999993,107.05126999999993,114.10253900000043,111.15380900000036,114.48730499999965,107.56396500000028,104.61523400000078,106.0258789999998,63.333496000000196,103.20507799999996
298,100.51269500000035,99.23095699999976,100.0,112.17968800000017,106.41015599999992,109.10253900000043,115.38476599999922,112.30761700000039,114.48730499999965,109.23095699999976,104.87158199999976,108.20507799999996,63.974121000000196,107.05126999999993
299,102.30761700000039,100.12841800000024,100.0,113.9741210000002,108.0771479999994,111.0258789999998,116.0258789999998,112.43603499999972,113.58984400000008,112.17968800000017,105.38476599999922,110.38476599999922,63.46142599999985,108.3334960000002
300,102.82031300000017,101.9228520000006,100.64111300000059,114.23095699999976,108.0771479999994,113.58984400000008,116.53857400000015,111.53857400000015,113.20507799999996,116.53857400000015,107.30761700000039,112.82031300000017,63.46142599999985,105.25634799999989
301,102.82031300000017,105.38476599999922,103.20507799999996,113.7177729999994,108.46142599999985,116.53857400000015,117.56396500000028,110.89746099999957,114.48730499999965,120.51269500000035,110.38476599999922,116.0258789999998,64.61523400000078,103.9741210000002
302,102.43603499999972,108.84619099999964,107.05126999999993,112.69238299999961,110.12841800000024,118.20507799999996,119.48730499999965,111.15380900000036,116.53857400000015,122.17968800000017,112.82031300000017,119.35888699999941,65.38476599999922,106.6665039999998
303,101.6665039999998,110.51269500000035,109.10253900000043,111.0258789999998,112.17968800000017,117.43603499999972,121.15380900000036,112.43603499999972,117.82031300000017,120.76904300000024,112.56396500000028,120.38476599999922,63.974121000000196,108.58984400000008
304,100.12841800000024,109.35888699999941,107.43603499999972,109.10253900000043,112.56396500000028,114.48730499999965,121.79492200000004,113.84619099999964,116.79492200000004,116.79492200000004,109.61523400000078,117.69238299999961,60.12841800000024,107.17968800000017
305,97.30761700000039,105.89746099999957,104.23095699999976,107.94873000000007,110.12841800000024,111.0258789999998,120.51269500000035,114.48730499999965,113.58984400000008,111.79492200000004,105.25634799999989,112.17968800000017,54.74365200000011,107.30761700000039
306,93.58984400000008,101.6665039999998,101.9228520000006,108.20507799999996,105.12841800000024,108.7177729999994,118.0771479999994,114.10253900000043,109.74365200000011,107.30761700000039,101.15380900000036,106.41015599999992,49.87158199999976,110.89746099999957
307,90.12841800000024,98.58984400000008,100.89746099999957,108.84619099999964,100.25634799999989,108.20507799999996,115.51269500000035,112.56396500000028,106.6665039999998,105.0,98.58984400000008,102.17968800000017,47.17968800000017,112.17968800000017
308,88.58984400000008,97.94873000000007,100.12841800000024,108.58984400000008,97.69238299999961,108.58984400000008,113.84619099999964,110.51269500000035,105.38476599999922,104.48730499999965,97.82031300000017,100.12841800000024,47.30761700000039,107.94873000000007
309,88.58984400000008,98.46142599999985,99.87158199999976,107.94873000000007,97.43603499999972,108.46142599999985,112.82031300000017,108.9741210000002,105.64111300000059,104.10253900000043,98.20507799999996,100.12841800000024,48.974121000000196,104.10253900000043
310,89.35888699999941,98.84619099999964,100.51269500000035,107.82031300000017,97.82031300000017,107.17968800000017,112.05126999999993,108.3334960000002,106.79492200000004,102.56396500000028,98.9741210000002,101.2822270000006,49.74365200000011,106.41015599999992
311,90.25634799999989,98.84619099999964,101.2822270000006,108.20507799999996,98.20507799999996,106.15380900000036,112.17968800000017,108.3334960000002,107.94873000000007,100.89746099999957,100.51269500000035,102.69238299999961,49.61523400000078,110.89746099999957
312,92.30761700000039,99.87158199999976,101.53857400000015,107.94873000000007,99.10253900000043,107.69238299999961,113.9741210000002,108.3334960000002,108.9741210000002,101.0258789999998,103.0771479999994,104.10253900000043,50.12841800000024,110.76904300000024
313,95.38476599999922,102.17968800000017,102.56396500000028,107.30761700000039,101.53857400000015,112.05126999999993,117.56396500000028,108.9741210000002,110.12841800000024,103.9741210000002,106.41015599999992,105.64111300000059,52.82031300000017,107.69238299999961
314,98.3334960000002,104.35888699999941,104.61523400000078,107.05126999999993,105.0,117.05126999999993,121.2822270000006,110.51269500000035,111.53857400000015,107.56396500000028,108.46142599999985,107.30761700000039,56.666503999999804,107.94873000000007
315,99.23095699999976,104.74365200000011,105.51269500000035,107.56396500000028,108.0771479999994,120.12841800000024,123.0771479999994,111.9228520000006,112.82031300000017,108.46142599999985,107.56396500000028,107.94873000000007,59.102539000000434,110.51269500000035
316,98.0771479999994,102.82031300000017,102.43603499999972,108.20507799999996,109.10253900000043,119.61523400000078,121.9228520000006,112.30761700000039,112.82031300000017,104.87158199999976,103.7177729999994,106.79492200000004,58.333496000000196,110.25634799999989
317,96.2822270000006,100.25634799999989,97.17968800000017,108.58984400000008,108.46142599999985,116.9228520000006,118.3334960000002,111.15380900000036,111.41015599999992,98.58984400000008,100.12841800000024,104.87158199999976,54.74365200000011,107.30761700000039
318,95.25634799999989,98.58984400000008,94.23095699999976,109.87158199999976,107.05126999999993,114.23095699999976,114.61523400000078,109.48730499999965,110.25634799999989,92.94873000000007,99.35888699999941,104.23095699999976,51.153809000000365,107.94873000000007
319,95.25634799999989,98.46142599999985,96.0258789999998,112.05126999999993,105.25634799999989,113.20507799999996,113.20507799999996,108.0771479999994,110.51269500000035,90.38476599999922,101.79492200000004,104.87158199999976,49.35888699999941,112.69238299999961
320,94.87158199999976,98.58984400000008,99.61523400000078,113.3334960000002,102.43603499999972,113.58984400000008,114.61523400000078,107.30761700000039,111.41015599999992,90.38476599999922,104.35888699999941,104.61523400000078,49.23095699999976,115.25634799999989
321,92.43603499999972,97.05126999999993,101.2822270000006,112.43603499999972,97.56396500000028,113.3334960000002,116.6665039999998,106.79492200000004,111.2822270000006,90.25634799999989,103.84619099999964,101.9228520000006,48.7177729999994,113.58984400000008
322,87.82031300000017,93.46142599999985,100.64111300000059,110.12841800000024,91.53857400000015,111.53857400000015,117.30761700000039,106.6665039999998,109.74365200000011,87.69238299999961,99.48730499999965,97.94873000000007,46.025878999999804,112.30761700000039
323,82.56396500000028,89.48730499999965,98.9741210000002,108.3334960000002,87.56396500000028,109.10253900000043,115.89746099999957,106.9228520000006,107.30761700000039,82.82031300000017,93.9741210000002,95.51269500000035,41.666503999999804,113.58984400000008
324,80.0,88.0771479999994,97.69238299999961,107.69238299999961,88.58984400000008,108.20507799999996,113.58984400000008,107.43603499999972,105.38476599999922,77.82031300000017,90.51269500000035,95.89746099999957,38.20507799999996,113.3334960000002
325,81.79492200000004,89.74365200000011,97.05126999999993,108.20507799999996,94.35888699999941,109.87158199999976,112.43603499999972,107.69238299999961,104.48730499999965,76.0258789999998,91.15380900000036,98.3334960000002,38.0771479999994,109.87158199999976
326,86.79492200000004,92.82031300000017,98.20507799999996,109.87158199999976,101.79492200000004,113.7177729999994,113.7177729999994,108.20507799999996,104.87158199999976,79.23095699999976,95.12841800000024,101.2822270000006,42.17968800000017,108.84619099999964
327,91.6665039999998,95.38476599999922,100.51269500000035,112.17968800000017,106.79492200000004,117.82031300000017,117.30761700000039,108.9741210000002,106.6665039999998,85.89746099999957,99.61523400000078,103.3334960000002,48.974121000000196,113.3334960000002
328,93.58984400000008,96.53857400000015,101.53857400000015,113.3334960000002,107.30761700000039,120.25634799999989,121.15380900000036,109.48730499999965,108.9741210000002,92.94873000000007,101.53857400000015,103.46142599999985,55.897460999999566,117.69238299999961
329,91.53857400000015,96.2822270000006,99.74365200000011,112.30761700000039,103.58984400000008,120.12841800000024,122.69238299999961,109.35888699999941,111.2822270000006,97.05126999999993,99.48730499999965,101.15380900000036,60.12841800000024,116.15380900000036
330,86.79492200000004,94.23095699999976,96.53857400000015,109.74365200000011,97.56396500000028,117.30761700000039,120.0,108.58984400000008,112.17968800000017,97.17968800000017,94.61523400000078,97.05126999999993,59.74365200000011,112.82031300000017
331,80.76904300000024,89.48730499999965,93.84619099999964,107.43603499999972,90.76904300000024,111.79492200000004,113.7177729999994,107.69238299999961,110.89746099999957,93.7177729999994,89.74365200000011,92.43603499999972,54.61523400000078,114.10253900000043
332,75.0,83.0771479999994,92.17968800000017,105.89746099999957,85.0,105.0,107.43603499999972,107.05126999999993,107.82031300000017,89.10253900000043,87.17968800000017,88.84619099999964,47.56396500000028,118.3334960000002
333,71.79492200000004,78.3334960000002,90.89746099999957,104.87158199999976,82.05126999999993,100.12841800000024,105.38476599999922,106.79492200000004,104.74365200000011,86.41015599999992,87.82031300000017,87.30761700000039,42.94873000000007,119.10253900000043
334,72.17968800000017,77.94873000000007,91.15380900000036,104.87158199999976,82.94873000000007,99.74365200000011,109.10253900000043,107.30761700000039,103.84619099999964,87.30761700000039,91.41015599999992,89.35888699999941,43.589844000000085,116.9228520000006
335,75.89746099999957,82.05126999999993,94.74365200000011,106.41015599999992,86.53857400000015,103.7177729999994,115.51269500000035,108.84619099999964,106.2822270000006,91.53857400000015,96.9228520000006,94.48730499999965,48.974121000000196,117.17968800000017
336,81.15380900000036,87.82031300000017,100.51269500000035,109.10253900000043,91.15380900000036,108.9741210000002,119.61523400000078,110.89746099999957,110.76904300000024,96.9228520000006,102.05126999999993,100.0,55.64111300000059,119.74365200000011
337,86.53857400000015,92.56396500000028,105.0,111.15380900000036,94.87158199999976,111.9228520000006,118.7177729999994,112.30761700000039,114.61523400000078,101.41015599999992,105.0,102.69238299999961,60.51269500000035,119.10253900000043
338,91.15380900000036,95.25634799999989,106.15380900000036,111.41015599999992,96.9228520000006,111.79492200000004,114.23095699999976,112.17968800000017,115.64111300000059,104.87158199999976,105.51269500000035,102.43603499999972,63.20507799999996,114.87158199999976
339,94.48730499999965,96.53857400000015,105.12841800000024,111.0258789999998,97.17968800000017,110.38476599999922,110.12841800000024,110.76904300000024,113.84619099999964,107.82031300000017,105.51269500000035,101.79492200000004,65.38476599999922,113.46142599999985
340,96.41015599999992,98.0771479999994,103.9741210000002,110.76904300000024,96.9228520000006,110.25634799999989,109.23095699999976,108.84619099999964,110.89746099999957,111.41015599999992,106.79492200000004,103.7177729999994,68.46142599999985,115.89746099999957
341,97.17968800000017,100.51269500000035,102.94873000000007,110.38476599999922,97.30761700000039,112.17968800000017,111.15380900000036,107.56396500000028,108.7177729999994,115.25634799999989,109.61523400000078,107.82031300000017,72.56396500000028,116.0258789999998
342,97.17968800000017,102.82031300000017,102.05126999999993,109.61523400000078,98.58984400000008,114.23095699999976,113.3334960000002,107.43603499999972,108.58984400000008,117.43603499999972,112.17968800000017,111.2822270000006,75.76904300000024,112.05126999999993
343,95.51269500000035,102.56396500000028,101.53857400000015,109.23095699999976,98.84619099999964,113.20507799999996,112.94873000000007,108.7177729999994,109.74365200000011,116.15380900000036,112.30761700000039,111.41015599999992,75.12841800000024,109.87158199999976
344,92.43603499999972,98.7177729999994,101.53857400000015,109.61523400000078,96.53857400000015,108.0771479999994,110.0,110.38476599999922,110.64111300000059,111.6665039999998,109.74365200000011,107.94873000000007,70.38476599999922,113.3334960000002
345,89.74365200000011,93.9741210000002,101.2822270000006,110.0,92.82031300000017,102.17968800000017,107.82031300000017,111.2822270000006,110.64111300000059,108.0771479999994,106.79492200000004,103.46142599999985,65.51269500000035,116.6665039999998
346,90.25634799999989,93.0771479999994,101.2822270000006,110.0,91.41015599999992,100.51269500000035,109.74365200000011,111.0258789999998,110.38476599999922,109.23095699999976,106.41015599999992,101.6665039999998,65.38476599999922,114.48730499999965
347,94.10253900000043,97.43603499999972,102.69238299999961,109.87158199999976,95.0,105.25634799999989,115.64111300000059,110.0,111.2822270000006,115.0,109.48730499999965,104.61523400000078,70.89746099999957,111.0258789999998
348,98.58984400000008,102.69238299999961,105.25634799999989,110.12841800000024,101.6665039999998,112.94873000000007,121.53857400000015,109.61523400000078,113.0771479999994,120.89746099999957,113.3334960000002,110.0,77.43603499999972,112.17968800000017
349,100.25634799999989,103.58984400000008,105.89746099999957,110.38476599999922,107.43603499999972,117.94873000000007,123.84619099999964,110.25634799999989,114.61523400000078,122.05126999999993,113.84619099999964,112.94873000000007,80.51269500000035,115.76904300000024
350,98.7177729999994,99.61523400000078,102.94873000000007,109.74365200000011,109.87158199999976,117.82031300000017,121.9228520000006,111.41015599999992,114.87158199999976,117.82031300000017,110.25634799999989,110.89746099999957,78.7177729999994,116.2822270000006
351,95.25634799999989,94.48730499999965,99.10253900000043,108.9741210000002,109.61523400000078,113.9741210000002,118.3334960000002,112.43603499999972,113.58984400000008,111.15380900000036,105.76904300000024,106.15380900000036,74.74365200000011,114.61523400000078
352,92.30761700000039,92.94873000000007,97.69238299999961,109.10253900000043,108.3334960000002,109.74365200000011,115.38476599999922,112.94873000000007,111.41015599999992,105.76904300000024,104.23095699999976,103.0771479999994,71.41015599999992,116.0258789999998
353,90.76904300000024,95.38476599999922,99.10253900000043,109.87158199999976,106.53857400000015,107.30761700000039,113.3334960000002,112.30761700000039,109.23095699999976,103.58984400000008,106.53857400000015,103.46142599999985,70.25634799999989,118.46142599999985
354,90.38476599999922,98.9741210000002,100.12841800000024,109.61523400000078,104.74365200000011,106.2822270000006,111.2822270000006,110.38476599999922,107.82031300000017,103.7177729999994,110.12841800000024,105.0,70.25634799999989,116.2822270000006
355,90.12841800000024,100.38476599999922,99.35888699999941,107.94873000000007,103.7177729999994,105.89746099999957,109.48730499999965,108.7177729999994,107.69238299999961,104.48730499999965,111.79492200000004,105.25634799999989,69.87158199999976,110.76904300000024
356,89.87158199999976,99.10253900000043,98.3334960000002,106.41015599999992,105.25634799999989,105.25634799999989,109.61523400000078,108.58984400000008,109.23095699999976,105.0,111.15380900000036,104.48730499999965,69.10253900000043,109.23095699999976
357,90.12841800000024,97.56396500000028,98.7177729999994,106.6665039999998,109.23095699999976,105.38476599999922,113.0771479999994,110.12841800000024,111.41015599999992,105.89746099999957,109.74365200000011,103.9741210000002,69.61523400000078,113.7177729999994
358,91.79492200000004,98.3334960000002,100.38476599999922,108.46142599999985,113.7177729999994,106.9228520000006,118.46142599999985,112.05126999999993,113.0771479999994,108.46142599999985,109.74365200000011,104.87158199999976,72.82031300000017,117.17968800000017
359,94.48730499999965,101.0258789999998,102.56396500000028,110.12841800000024,115.51269500000035,108.9741210000002,122.43603499999972,112.82031300000017,113.46142599999985,112.05126999999993,111.41015599999992,107.17968800000017,77.69238299999961,116.15380900000036
360,96.53857400000015,102.56396500000028,104.23095699999976,110.64111300000059,112.17968800000017,109.35888699999941,121.9228520000006,112.69238299999961,112.43603499999972,114.35888699999941,112.69238299999961,109.48730499999965,80.25634799999989,115.25634799999989
361,95.76904300000024,99.61523400000078,104.61523400000078,109.48730499999965,104.35888699999941,106.2822270000006,116.53857400000015,111.9228520000006,110.25634799999989,113.3334960000002,110.51269500000035,110.0,77.82031300000017,117.56396500000028
362,92.05126999999993,92.43603499999972,102.43603499999972,107.05126999999993,95.51269500000035,100.89746099999957,109.35888699999941,110.89746099999957,108.20507799999996,109.74365200000011,104.87158199999976,107.82031300000017,71.0258789999998,118.7177729999994
363,87.82031300000017,85.25634799999989,99.23095699999976,104.23095699999976,90.0,96.9228520000006,105.0,110.25634799999989,107.30761700000039,107.30761700000039,99.35888699999941,104.48730499999965,64.87158199999976,116.0258789999998
364,86.2822270000006,82.82031300000017,98.20507799999996,103.20507799999996,90.51269500000035,97.56396500000028,106.53857400000015,110.12841800000024,107.94873000000007,109.48730499999965,98.3334960000002,103.46142599999985,63.974121000000196,114.23095699999976
365,88.7177729999994,86.15380900000036,101.6665039999998,104.87158199999976,96.53857400000015,103.20507799999996,113.46142599999985,110.89746099999957,109.23095699999976,116.0258789999998,103.20507799999996,106.53857400000015,68.84619099999964,117.17968800000017
366,93.9741210000002,92.69238299999961,107.30761700000039,107.94873000000007,104.48730499999965,110.64111300000059,122.05126999999993,111.53857400000015,110.12841800000024,124.23095699999976,110.76904300000024,112.43603499999972,76.2822270000006,120.0
367,99.23095699999976,98.20507799999996,111.15380900000036,110.51269500000035,110.0,115.89746099999957,128.20507799999996,111.53857400000015,110.51269500000035,130.51269500000035,116.6665039999998,117.82031300000017,82.30761700000039,116.6665039999998
368,102.30761700000039,100.25634799999989,112.17968800000017,111.9228520000006,111.0258789999998,116.6665039999998,129.61523400000078,111.2822270000006,111.53857400000015,133.0771479999994,117.56396500000028,120.12841800000024,84.61523400000078,110.89746099999957
369,102.30761700000039,99.10253900000043,111.53857400000015,112.56396500000028,108.20507799999996,113.9741210000002,126.6665039999998,111.2822270000006,113.46142599999985,132.17968800000017,113.7177729999994,119.61523400000078,83.58984400000008,110.38476599999922
370,99.61523400000078,96.6665039999998,109.74365200000011,112.56396500000028,103.84619099999964,110.51269500000035,121.15380900000036,111.41015599999992,115.25634799999989,129.10253900000043,107.69238299999961,117.17968800000017,81.0258789999998,114.35888699999941
371,95.51269500000035,94.23095699999976,106.53857400000015,111.41015599999992,99.87158199999976,108.20507799999996,115.38476599999922,111.41015599999992,115.38476599999922,125.25634799999989,102.56396500000028,113.9741210000002,77.94873000000007,115.76904300000024
372,91.15380900000036,91.15380900000036,103.0771479999994,109.61523400000078,96.79492200000004,107.17968800000017,111.53857400000015,111.0258789999998,113.46142599999985,121.9228520000006,100.25634799999989,111.15380900000036,74.61523400000078,113.3334960000002
373,87.05126999999993,86.41015599999992,101.53857400000015,108.58984400000008,93.46142599999985,106.53857400000015,110.64111300000059,110.76904300000024,110.51269500000035,119.74365200000011,100.64111300000059,109.74365200000011,70.51269500000035,112.56396500000028
374,83.84619099999964,80.76904300000024,102.43603499999972,108.84619099999964,89.48730499999965,105.12841800000024,111.79492200000004,110.51269500000035,108.0771479999994,118.7177729999994,102.30761700000039,109.87158199999976,65.51269500000035,114.23095699999976
375,82.05126999999993,77.05126999999993,103.7177729999994,109.35888699999941,85.76904300000024,102.43603499999972,112.56396500000028,109.74365200000011,106.79492200000004,118.7177729999994,103.20507799999996,110.76904300000024,62.05126999999993,113.9741210000002
376,83.46142599999985,78.58984400000008,104.23095699999976,109.87158199999976,84.61523400000078,99.48730499999965,110.76904300000024,108.84619099999964,106.41015599999992,119.61523400000078,103.46142599999985,111.9228520000006,63.0771479999994,111.9228520000006
377,88.9741210000002,86.0258789999998,104.87158199999976,111.2822270000006,87.69238299999961,98.0771479999994,107.05126999999993,108.20507799999996,106.41015599999992,121.53857400000015,104.35888699999941,113.58984400000008,70.25634799999989,113.46142599999985
378,97.17968800000017,96.2822270000006,106.6665039999998,113.7177729999994,94.61523400000078,99.87158199999976,104.35888699999941,108.3334960000002,106.9228520000006,124.48730499999965,106.53857400000015,115.38476599999922,80.25634799999989,119.10253900000043
379,104.74365200000011,103.84619099999964,108.46142599999985,115.51269500000035,102.56396500000028,104.74365200000011,106.0258789999998,108.9741210000002,108.20507799999996,127.69238299999961,108.9741210000002,116.79492200000004,87.30761700000039,121.15380900000036
380,107.69238299999961,104.35888699999941,108.9741210000002,115.25634799999989,106.9228520000006,110.51269500000035,112.43603499999972,109.74365200000011,110.76904300000024,130.0,109.74365200000011,117.56396500000028,85.89746099999957,116.6665039999998
381,103.9741210000002,97.17968800000017,108.58984400000008,113.20507799999996,104.87158199999976,114.48730499999965,120.12841800000024,110.64111300000059,113.20507799999996,129.23095699999976,108.20507799999996,117.94873000000007,76.15380900000036,112.43603499999972
382,94.87158199999976,85.76904300000024,108.0771479999994,110.25634799999989,97.56396500000028,114.74365200000011,124.10253900000043,111.2822270000006,113.84619099999964,124.48730499999965,105.64111300000059,117.69238299999961,63.333496000000196,114.23095699999976
383,84.87158199999976,75.76904300000024,106.9228520000006,107.30761700000039,89.87158199999976,112.05126999999993,122.30761700000039,111.53857400000015,112.69238299999961,117.17968800000017,104.23095699999976,115.38476599999922,55.897460999999566,117.69238299999961
