,EEG.AF3,EEG.F7,EEG.F3,EEG.FC5,EEG.T7,EEG.P7,EEG.O1,EEG.O2,EEG.P8,EEG.T8,EEG.FC6,EEG.F4,EEG.F8,EEG.AF4
0,87.94873000000007,31.794922000000042,106.2822270000006,113.7177729999994,107.43603499999972,112.05126999999993,111.6665039999998,107.94873000000007,106.41015599999992,103.84619099999964,102.69238299999961,124.23095699999976,-134.10253899999998,108.0771479999994
1,115.89746099999957,29.358886999999413,105.64111300000059,113.58984400000008,108.0771479999994,114.48730499999965,110.12841800000024,108.9741210000002,110.0,105.51269500000035,104.74365200000011,127.82031300000017,-128.97436500000003,104.48730499999965
2,148.84619099999964,21.153809000000365,105.38476599999922,111.9228520000006,105.76904300000024,114.35888699999941,107.69238299999961,109.87158199999976,111.79492200000004,107.30761700000039,105.38476599999922,130.2563479999999,-124.35888699999987,107.05126999999993
3,177.17968800000017,11.282227000000603,104.87158199999976,109.74365200000011,101.79492200000004,112.17968800000017,105.51269500000035,109.61523400000078,110.89746099999957,108.3334960000002,104.61523400000078,130.6411130000006,-121.79492200000004,112.69238299999961
4,197.3076170000004,3.846190999999635,103.58984400000008,108.7177729999994,98.58984400000008,109.74365200000011,105.64111300000059,108.46142599999985,108.84619099999964,108.20507799999996,103.0771479999994,128.84619099999964,-121.53857400000015,114.10253900000043
5,212.17968800000017,0.769043000000238,101.6665039999998,109.87158199999976,97.30761700000039,108.7177729999994,108.58984400000008,107.82031300000017,107.56396500000028,107.30761700000039,101.53857400000015,126.15380900000036,-122.43579099999943,112.17968800000017
6,227.05126999999993,0.512695000000349,100.25634799999989,112.43603499999972,97.30761700000039,109.48730499999965,113.3334960000002,108.3334960000002,108.58984400000008,106.15380900000036,100.64111300000059,123.58984400000008,-122.17944299999999,112.43603499999972
7,247.3076170000004,2.0512699999999313,100.25634799999989,115.12841800000024,97.43603499999972,111.79492200000004,117.82031300000017,110.12841800000024,111.6665039999998,106.2822270000006,101.6665039999998,122.56396500000028,-117.69238299999961,114.74365200000011
8,276.4101559999999,5.769043000000238,102.56396500000028,117.69238299999961,98.58984400000008,115.12841800000024,120.76904300000024,113.3334960000002,115.51269500000035,109.23095699999976,105.76904300000024,124.23095699999976,-107.30761700000039,113.9741210000002
9,313.3334960000002,11.666503999999804,107.17968800000017,120.0,101.41015599999992,118.46142599999985,122.69238299999961,117.05126999999993,117.94873000000007,114.87158199999976,112.05126999999993,129.7436520000001,-93.46142599999985,110.38476599999922
10,352.4360349999997,17.69238299999961,112.05126999999993,122.05126999999993,104.61523400000078,120.25634799999989,123.9741210000002,119.87158199999976,117.69238299999961,120.76904300000024,117.30761700000039,137.6923829999996,-81.92309599999999,109.48730499999965
11,387.17968800000017,20.128418000000238,115.0,123.58984400000008,105.51269500000035,119.87158199999976,124.48730499999965,120.0,115.76904300000024,123.84619099999964,118.0771479999994,144.7436520000001,-77.43579099999943,112.05126999999993
12,413.20507799999996,16.922852000000603,114.23095699999976,124.48730499999965,102.69238299999961,118.0771479999994,124.87158199999976,118.20507799999996,114.23095699999976,123.3334960000002,114.23095699999976,147.6923829999996,-78.97436500000003,112.43603499999972
13,428.5898440000001,8.205077999999958,110.64111300000059,124.74365200000011,97.43603499999972,116.15380900000036,125.38476599999922,116.15380900000036,114.10253900000043,120.89746099999957,108.20507799999996,145.2563479999999,-81.79492200000004,109.10253900000043
14,431.6665039999998,-2.0512699999999313,106.0258789999998,124.35888699999941,92.43603499999972,114.10253900000043,125.38476599999922,115.38476599999922,114.74365200000011,118.9741210000002,102.69238299999961,138.46142599999985,-81.66674799999964,107.94873000000007
15,424.10253900000043,-8.333252000000357,101.9228520000006,123.46142599999985,89.87158199999976,112.43603499999972,124.23095699999976,115.0,114.48730499999965,118.0771479999994,98.84619099999964,130.2563479999999,-78.20507799999996,110.76904300000024
16,414.10253900000043,-6.41015600000037,99.35888699999941,122.30761700000039,90.64111300000059,112.17968800000017,122.56396500000028,114.35888699999941,113.20507799999996,116.9228520000006,96.6665039999998,124.23095699999976,-74.23071300000038,112.17968800000017
17,414.10253900000043,2.6923829999996087,99.48730499999965,121.79492200000004,93.46142599999985,113.46142599999985,121.2822270000006,113.46142599999985,111.41015599999992,114.23095699999976,95.64111300000059,123.20507799999996,-71.02563499999997,108.3334960000002
18,432.4360349999997,12.56396500000028,102.43603499999972,122.69238299999961,95.51269500000035,114.74365200000011,120.25634799999989,112.94873000000007,109.48730499999965,110.64111300000059,95.51269500000035,127.94873000000007,-66.66674799999964,104.48730499999965
19,466.79492200000004,16.410155999999915,107.05126999999993,124.87158199999976,94.74365200000011,114.61523400000078,118.3334960000002,112.94873000000007,108.20507799999996,108.7177729999994,96.79492200000004,136.15380900000036,-58.07690400000001,106.2822270000006
20,504.3588869999994,14.102539000000434,110.89746099999957,128.0771479999994,92.17968800000017,112.94873000000007,115.0,112.94873000000007,107.94873000000007,110.38476599999922,99.61523400000078,144.23095699999976,-44.48706099999981,110.12841800000024
21,527.3076170000004,11.410155999999915,111.79492200000004,131.41015599999992,90.51269500000035,111.15380900000036,111.2822270000006,112.56396500000028,108.58984400000008,114.23095699999976,102.56396500000028,148.84619099999964,-30.512939000000188,110.64111300000059
22,524.3588869999994,13.974121000000196,109.10253900000043,133.46142599999985,91.2822270000006,110.12841800000024,108.7177729999994,111.41015599999992,109.23095699999976,116.6665039999998,102.56396500000028,148.0771479999994,-23.71801800000003,109.87158199999976
23,499.23095699999976,21.025878999999804,103.7177729999994,133.3334960000002,93.7177729999994,109.61523400000078,108.58984400000008,110.12841800000024,109.23095699999976,114.74365200000011,98.20507799999996,142.56396500000028,-27.179442999999992,112.56396500000028
24,469.87158199999976,26.794922000000042,98.7177729999994,132.05126999999993,95.38476599999922,109.48730499999965,110.64111300000059,109.74365200000011,108.84619099999964,109.87158199999976,92.17968800000017,135.76904300000024,-34.61547900000005,116.0258789999998
25,456.2822270000006,27.30761700000039,97.30761700000039,131.6665039999998,95.64111300000059,110.12841800000024,113.7177729999994,111.15380900000036,109.10253900000043,107.05126999999993,89.74365200000011,132.6923829999996,-35.51293900000019,114.23095699999976
26,465.6411130000006,24.358886999999413,100.64111300000059,133.7177729999994,95.51269500000035,112.05126999999993,115.51269500000035,113.20507799999996,110.12841800000024,109.74365200000011,94.48730499999965,136.0258789999998,-23.846190999999635,108.58984400000008
27,489.48730499999965,22.94873000000007,106.9228520000006,137.6923829999996,95.76904300000024,113.84619099999964,114.61523400000078,113.7177729999994,110.51269500000035,116.2822270000006,103.84619099999964,143.46142599999985,-3.077147999999397,106.41015599999992
28,510.3847659999992,27.82031300000017,111.6665039999998,141.15380900000036,96.9228520000006,114.48730499999965,111.15380900000036,111.79492200000004,109.74365200000011,121.6665039999998,111.9228520000006,149.23095699999976,16.666503999999804,108.84619099999964
29,514.7436520000001,38.589844000000085,111.9228520000006,142.05126999999993,98.84619099999964,113.9741210000002,107.69238299999961,108.58984400000008,108.0771479999994,121.53857400000015,113.7177729999994,148.84619099999964,26.410155999999915,109.87158199999976
30,500.51269500000035,49.74365200000011,107.69238299999961,139.48730499999965,100.38476599999922,113.46142599999985,106.41015599999992,106.0258789999998,107.17968800000017,115.89746099999957,108.46142599999985,141.6665039999998,24.48730499999965,107.82031300000017
31,478.84619099999964,54.74365200000011,101.41015599999992,134.61523400000078,99.74365200000011,112.69238299999961,107.56396500000028,105.76904300000024,107.30761700000039,108.20507799999996,99.74365200000011,131.6665039999998,17.69238299999961,107.56396500000028
32,468.0771479999994,52.30761700000039,96.6665039999998,130.12841800000024,96.6665039999998,111.6665039999998,109.48730499999965,107.56396500000028,107.56396500000028,102.94873000000007,93.0771479999994,125.12841800000024,17.05126999999993,110.12841800000024
33,480.2563479999999,49.102539000000434,96.0258789999998,129.10253900000043,92.82031300000017,110.76904300000024,110.25634799999989,110.25634799999989,106.9228520000006,102.56396500000028,92.82031300000017,127.17968800000017,31.794922000000042,110.12841800000024
34,510.51269500000035,54.102539000000434,100.51269500000035,132.82031300000017,90.76904300000024,110.76904300000024,109.74365200000011,112.30761700000039,105.51269500000035,105.76904300000024,99.23095699999976,137.82031300000017,61.2822270000006,105.25634799999989
35,538.0771479999994,70.12841800000024,107.69238299999961,139.87158199999976,91.41015599999992,111.2822270000006,108.9741210000002,112.05126999999993,103.84619099999964,109.23095699999976,107.69238299999961,150.89746099999957,94.23095699999976,102.30761700000039
36,541.6665039999998,90.38476599999922,113.3334960000002,145.89746099999957,93.84619099999964,111.6665039999998,109.35888699999941,109.87158199999976,102.82031300000017,111.15380900000036,112.17968800000017,158.0771479999994,116.53857400000015,106.0258789999998
37,516.9228520000006,103.7177729999994,114.48730499999965,147.6923829999996,97.05126999999993,112.43603499999972,111.2822270000006,108.3334960000002,103.20507799999996,112.30761700000039,110.12841800000024,155.38476599999922,122.82031300000017,111.0258789999998
38,479.48730499999965,104.48730499999965,111.41015599999992,144.48730499999965,100.12841800000024,114.61523400000078,114.48730499999965,109.23095699999976,105.64111300000059,114.23095699999976,103.9741210000002,145.89746099999957,120.64111300000059,111.41015599999992
39,453.0771479999994,96.6665039999998,107.05126999999993,139.23095699999976,102.30761700000039,117.56396500000028,116.6665039999998,112.17968800000017,108.84619099999964,116.41015599999992,98.20507799999996,137.17968800000017,123.46142599999985,109.48730499999965
40,451.53857400000015,91.41015599999992,103.84619099999964,136.0258789999998,102.56396500000028,118.84619099999964,116.53857400000015,114.48730499999965,109.87158199999976,116.53857400000015,96.6665039999998,135.51269500000035,141.41015599999992,110.89746099999957
41,471.53857400000015,98.7177729999994,103.0771479999994,137.17968800000017,100.76904300000024,116.9228520000006,114.10253900000043,113.7177729999994,107.17968800000017,113.58984400000008,99.48730499999965,140.89746099999957,175.6411130000006,113.3334960000002
42,497.6923829999996,118.9741210000002,104.48730499999965,142.43603499999972,98.20507799999996,112.43603499999972,111.15380900000036,110.0,102.17968800000017,109.61523400000078,104.61523400000078,149.48730499999965,218.20507799999996,111.15380900000036
43,513.9741210000002,143.7177729999994,106.15380900000036,148.58984400000008,96.0258789999998,107.69238299999961,109.10253900000043,105.12841800000024,98.0771479999994,107.56396500000028,108.46142599999985,155.6411130000006,257.6923829999996,106.6665039999998
44,511.9228520000006,162.6923829999996,106.41015599999992,151.41015599999992,94.87158199999976,104.87158199999976,108.46142599999985,101.41015599999992,96.6665039999998,108.3334960000002,108.84619099999964,156.41015599999992,285.89746099999957,106.2822270000006
45,494.87158199999976,172.82031300000017,104.61523400000078,150.38476599999922,94.74365200000011,105.25634799999989,108.7177729999994,100.76904300000024,98.20507799999996,110.51269500000035,106.2822270000006,151.9228520000006,304.3588869999994,109.87158199999976
46,476.15380900000036,178.9741210000002,102.82031300000017,147.82031300000017,96.15380900000036,108.3334960000002,109.74365200000011,103.58984400000008,101.15380900000036,112.17968800000017,103.9741210000002,146.41015599999992,322.94873000000007,110.89746099999957
47,471.0258789999998,187.3076170000004,103.46142599999985,147.3076170000004,98.0771479999994,111.9228520000006,110.89746099999957,108.7177729999994,103.20507799999996,112.30761700000039,105.38476599999922,144.7436520000001,352.5639650000003,108.20507799999996
48,485.6411130000006,200.12841800000024,106.9228520000006,149.7436520000001,98.9741210000002,112.69238299999961,111.41015599999992,112.43603499999972,102.30761700000039,110.89746099999957,110.12841800000024,149.23095699999976,395.89746099999957,107.17968800000017
49,509.48730499999965,214.23095699999976,110.25634799999989,153.0771479999994,98.3334960000002,109.74365200000011,110.38476599999922,111.6665039999998,97.94873000000007,108.20507799999996,114.61523400000078,156.0258789999998,445.0,109.87158199999976
50,522.4360349999997,224.61523400000078,109.87158199999976,154.61523400000078,97.05126999999993,105.51269500000035,108.20507799999996,106.53857400000015,92.43603499999972,104.48730499999965,114.87158199999976,158.46142599999985,488.0771479999994,110.76904300000024
51,510.2563479999999,228.20507799999996,104.23095699999976,152.56396500000028,96.0258789999998,102.82031300000017,106.53857400000015,100.51269500000035,89.35888699999941,100.64111300000059,110.0,151.6665039999998,517.9487300000001,107.94873000000007
52,475.6411130000006,225.0,95.76904300000024,147.17968800000017,95.0,102.17968800000017,106.53857400000015,97.30761700000039,90.51269500000035,97.30761700000039,101.79492200000004,137.43603499999972,536.1538090000004,106.9228520000006
53,436.79492200000004,218.58984400000008,88.20507799999996,140.76904300000024,93.0771479999994,102.17968800000017,107.56396500000028,97.69238299999961,94.61523400000078,95.12841800000024,94.61523400000078,123.3334960000002,551.1538090000004,110.64111300000059
54,415.76904300000024,213.9741210000002,85.0,136.2822270000006,89.87158199999976,101.6665039999998,108.0771479999994,100.38476599999922,98.7177729999994,94.61523400000078,92.94873000000007,117.94873000000007,571.9228520000006,113.7177729999994
55,425.12841800000024,214.87158199999976,87.56396500000028,135.76904300000024,86.53857400000015,100.25634799999989,106.79492200000004,103.3334960000002,100.12841800000024,96.0258789999998,98.3334960000002,125.25634799999989,601.4101559999999,111.79492200000004
56,459.87158199999976,221.41015599999992,94.61523400000078,138.9741210000002,84.35888699999941,98.46142599999985,103.3334960000002,104.87158199999976,98.7177729999994,99.10253900000043,108.46142599999985,141.6665039999998,634.6152340000008,109.23095699999976
57,500.2563479999999,229.7436520000001,102.30761700000039,143.20507799999996,84.87158199999976,97.30761700000039,99.23095699999976,104.74365200000011,96.2822270000006,103.20507799999996,118.58984400000008,157.82031300000017,661.2822270000006,111.41015599999992
58,523.5898440000001,235.51269500000035,106.79492200000004,146.41015599999992,88.84619099999964,98.0771479999994,97.17968800000017,104.10253900000043,95.89746099999957,107.94873000000007,124.87158199999976,165.0,672.9487300000001,115.0
59,518.4614259999998,236.0258789999998,106.53857400000015,147.3076170000004,95.12841800000024,101.0258789999998,99.35888699999941,105.0,99.61523400000078,112.43603499999972,126.0258789999998,160.2563479999999,667.6923829999996,113.84619099999964
60,490.0,230.89746099999957,103.20507799999996,146.15380900000036,100.51269500000035,104.87158199999976,105.25634799999989,108.0771479999994,105.89746099999957,115.12841800000024,122.82031300000017,148.20507799999996,650.8974609999996,110.0
61,455.12841800000024,222.94873000000007,99.61523400000078,143.3334960000002,101.9228520000006,107.82031300000017,111.79492200000004,112.17968800000017,111.15380900000036,115.12841800000024,117.69238299999961,137.43603499999972,632.5639650000003,108.9741210000002
62,430.76904300000024,217.17968800000017,98.3334960000002,140.38476599999922,100.25634799999989,109.48730499999965,115.89746099999957,115.51269500000035,112.30761700000039,113.7177729999994,114.10253900000043,134.61523400000078,622.4360349999997,110.38476599999922
63,423.7177729999994,218.46142599999985,100.25634799999989,139.3588869999994,98.84619099999964,111.0258789999998,116.79492200000004,117.05126999999993,110.0,113.3334960000002,114.74365200000011,140.76904300000024,624.3588869999994,108.84619099999964
64,429.7436520000001,226.79492200000004,104.74365200000011,141.41015599999992,100.0,113.46142599999985,115.25634799999989,116.9228520000006,107.05126999999993,116.0258789999998,119.74365200000011,150.89746099999957,634.1025390000004,105.38476599999922
65,439.3588869999994,235.6411130000006,110.0,144.23095699999976,102.56396500000028,115.51269500000035,112.69238299999961,115.64111300000059,106.15380900000036,120.38476599999922,125.76904300000024,158.20507799999996,642.8203130000002,105.89746099999957
66,445.2563479999999,236.53857400000015,112.94873000000007,144.3588869999994,103.9741210000002,115.38476599999922,110.51269500000035,114.23095699999976,107.43603499999972,123.46142599999985,128.84619099999964,158.46142599999985,643.7177729999994,110.12841800000024
67,443.5898440000001,226.9228520000006,112.17968800000017,140.2563479999999,103.46142599999985,112.94873000000007,109.61523400000078,113.58984400000008,109.10253900000043,122.82031300000017,127.05126999999993,152.43603499999972,635.6411130000006,111.53857400000015
68,433.20507799999996,211.6665039999998,108.3334960000002,133.7177729999994,101.79492200000004,110.12841800000024,109.87158199999976,113.3334960000002,109.10253900000043,118.3334960000002,121.2822270000006,144.10253900000043,622.8203130000002,108.58984400000008
69,415.3847659999992,198.84619099999964,103.9741210000002,128.0771479999994,99.87158199999976,108.0771479999994,110.12841800000024,112.43603499999972,106.41015599999992,112.17968800000017,114.74365200000011,137.43603499999972,609.4873049999997,107.17968800000017
70,395.2563479999999,194.23095699999976,101.41015599999992,125.76904300000024,98.58984400000008,106.9228520000006,109.48730499999965,110.12841800000024,102.30761700000039,107.05126999999993,111.15380900000036,135.12841800000024,599.6152340000008,110.0
71,381.15380900000036,198.3334960000002,101.9228520000006,127.69238299999961,98.9741210000002,106.79492200000004,108.46142599999985,107.30761700000039,99.61523400000078,105.64111300000059,113.0771479999994,137.3076170000004,595.0,111.79492200000004
72,378.9741210000002,206.9228520000006,105.38476599999922,132.3076170000004,101.6665039999998,107.69238299999961,107.94873000000007,105.51269500000035,99.74365200000011,108.3334960000002,119.74365200000011,142.82031300000017,594.6152340000008,109.35888699999941
73,386.4101559999999,212.82031300000017,109.87158199999976,136.53857400000015,105.89746099999957,109.10253900000043,108.3334960000002,105.64111300000059,102.30761700000039,113.3334960000002,127.05126999999993,148.3334960000002,593.5898440000001,107.43603499999972
74,394.7436520000001,210.89746099999957,112.43603499999972,137.43603499999972,108.9741210000002,110.12841800000024,109.35888699999941,107.17968800000017,104.87158199999976,117.17968800000017,130.51269500000035,150.6411130000006,586.1538090000004,110.25634799999989
75,396.53857400000015,201.41015599999992,111.6665039999998,134.87158199999976,109.48730499999965,110.12841800000024,110.64111300000059,108.9741210000002,106.15380900000036,118.58984400000008,128.7177729999994,148.84619099999964,571.0258789999998,113.20507799999996
76,389.87158199999976,189.7436520000001,108.7177729999994,130.89746099999957,107.43603499999972,110.12841800000024,111.53857400000015,110.25634799999989,106.6665039999998,118.20507799999996,124.10253900000043,145.0,551.1538090000004,110.89746099999957
77,376.4101559999999,180.0,105.76904300000024,127.69238299999961,104.10253900000043,110.38476599999922,111.6665039999998,110.38476599999922,106.9228520000006,117.56396500000028,120.38476599999922,142.17968800000017,529.8715819999998,107.05126999999993
78,359.7436520000001,172.56396500000028,104.23095699999976,125.51269500000035,100.51269500000035,110.89746099999957,111.0258789999998,110.0,107.56396500000028,116.9228520000006,119.74365200000011,141.2822270000006,508.46142599999985,107.69238299999961
79,344.10253900000043,165.89746099999957,103.84619099999964,123.84619099999964,98.20507799999996,111.41015599999992,110.38476599999922,110.12841800000024,107.94873000000007,115.76904300000024,120.89746099999957,141.15380900000036,485.51269500000035,111.41015599999992
80,333.0771479999994,159.48730499999965,103.9741210000002,122.82031300000017,98.46142599999985,111.6665039999998,110.64111300000059,110.89746099999957,107.82031300000017,113.84619099999964,121.6665039999998,140.12841800000024,460.6411130000006,111.9228520000006
81,327.5639650000003,153.46142599999985,104.48730499999965,122.69238299999961,100.51269500000035,111.0258789999998,111.79492200000004,111.9228520000006,107.56396500000028,111.2822270000006,120.51269500000035,137.56396500000028,434.3588869999994,110.25634799999989
82,324.48730499999965,146.79492200000004,104.74365200000011,123.0771479999994,102.05126999999993,108.58984400000008,112.43603499999972,111.79492200000004,107.05126999999993,108.7177729999994,117.94873000000007,133.9741210000002,408.0771479999994,111.79492200000004
83,320.0,139.23095699999976,104.74365200000011,123.20507799999996,101.6665039999998,105.25634799999989,111.53857400000015,110.25634799999989,107.17968800000017,107.05126999999993,116.0258789999998,131.15380900000036,383.84619099999964,115.51269500000035
84,312.17968800000017,131.53857400000015,105.12841800000024,122.17968800000017,100.89746099999957,103.84619099999964,109.74365200000011,108.84619099999964,108.58984400000008,106.9228520000006,116.53857400000015,130.51269500000035,362.82031300000017,114.74365200000011
85,300.89746099999957,124.61523400000078,106.2822270000006,120.0,101.41015599999992,106.41015599999992,108.9741210000002,109.48730499999965,111.53857400000015,109.10253900000043,119.74365200000011,132.56396500000028,344.23095699999976,109.10253900000043
86,286.79492200000004,118.0771479999994,108.3334960000002,116.9228520000006,103.9741210000002,112.05126999999993,110.38476599999922,112.17968800000017,114.48730499999965,112.82031300000017,123.3334960000002,135.38476599999922,324.3588869999994,105.64111300000059
87,271.0258789999998,110.76904300000024,109.48730499999965,113.84619099999964,106.79492200000004,116.9228520000006,113.3334960000002,114.87158199999976,116.15380900000036,116.41015599999992,125.38476599999922,136.6665039999998,300.3847659999992,106.9228520000006
88,255.51269500000035,102.94873000000007,109.61523400000078,112.17968800000017,108.0771479999994,118.58984400000008,116.41015599999992,116.2822270000006,116.9228520000006,119.23095699999976,125.89746099999957,135.38476599999922,273.7177729999994,107.56396500000028
89,240.38476599999922,95.25634799999989,109.48730499999965,112.30761700000039,107.17968800000017,116.9228520000006,119.10253900000043,116.6665039999998,118.0771479999994,121.2822270000006,126.6665039999998,133.0771479999994,248.7177729999994,104.87158199999976
90,224.10253900000043,88.0771479999994,110.38476599999922,113.0771479999994,104.61523400000078,113.46142599999985,121.2822270000006,117.43603499999972,120.12841800000024,123.0771479999994,128.9741210000002,132.17968800000017,228.46142599999985,103.7177729999994
91,204.61523400000078,81.53857400000015,112.05126999999993,113.0771479999994,101.79492200000004,110.76904300000024,122.43603499999972,119.10253900000043,121.9228520000006,124.23095699999976,131.6665039999998,132.94873000000007,211.79492200000004,107.05126999999993
92,181.79492200000004,76.2822270000006,113.58984400000008,111.15380900000036,100.38476599999922,110.25634799999989,122.05126999999993,120.89746099999957,122.30761700000039,123.9741210000002,132.82031300000017,133.84619099999964,194.7436520000001,109.74365200000011
93,158.0771479999994,73.3334960000002,114.10253900000043,107.69238299999961,101.2822270000006,111.79492200000004,119.61523400000078,121.0258789999998,120.89746099999957,121.53857400000015,131.6665039999998,133.3334960000002,174.23095699999976,107.30761700000039
94,134.7436520000001,72.56396500000028,113.7177729999994,103.3334960000002,103.46142599999985,112.82031300000017,115.64111300000059,118.3334960000002,118.3334960000002,116.9228520000006,128.7177729999994,130.76904300000024,150.0,104.48730499999965
95,112.56396500000028,73.84619099999964,112.94873000000007,99.10253900000043,105.0,111.2822270000006,111.41015599999992,113.0771479999994,115.25634799999989,111.41015599999992,125.51269500000035,127.05126999999993,125.25634799999989,106.53857400000015
96,93.20507799999996,77.69238299999961,112.56396500000028,96.6665039999998,105.64111300000059,108.46142599999985,109.61523400000078,107.69238299999961,112.56396500000028,107.69238299999961,124.23095699999976,124.35888699999941,105.0,110.38476599999922
97,79.48730499999965,84.61523400000078,113.3334960000002,96.6665039999998,106.2822270000006,107.56396500000028,112.30761700000039,104.87158199999976,111.9228520000006,108.20507799999996,126.41015599999992,124.23095699999976,91.41015599999992,109.74365200000011
98,72.69238299999961,93.20507799999996,115.25634799999989,98.20507799999996,107.30761700000039,109.48730499999965,118.3334960000002,105.38476599999922,113.7177729999994,112.17968800000017,131.15380900000036,126.53857400000015,82.56396500000028,106.15380900000036
99,69.48730499999965,100.38476599999922,116.79492200000004,98.7177729999994,107.82031300000017,112.43603499999972,123.46142599999985,107.82031300000017,116.2822270000006,116.9228520000006,135.38476599999922,128.9741210000002,73.0771479999994,106.0258789999998
100,63.846190999999635,103.46142599999985,115.89746099999957,96.41015599999992,107.17968800000017,113.20507799999996,123.84619099999964,109.74365200000011,117.82031300000017,118.9741210000002,135.89746099999957,128.84619099999964,59.23095699999976,108.7177729999994
101,50.25634799999989,102.17968800000017,112.30761700000039,91.79492200000004,105.25634799999989,110.89746099999957,119.23095699999976,110.12841800000024,117.30761700000039,117.05126999999993,132.3076170000004,125.51269500000035,41.666503999999804,108.84619099999964
102,27.43603499999972,98.20507799999996,107.82031300000017,86.9228520000006,103.0771479999994,107.17968800000017,112.94873000000007,109.35888699999941,115.76904300000024,112.30761700000039,126.41015599999992,120.0,23.717772999999397,106.41015599999992
103,-0.512695000000349,94.48730499999965,104.48730499999965,83.58984400000008,100.76904300000024,104.48730499999965,109.10253900000043,107.82031300000017,114.23095699999976,107.56396500000028,120.64111300000059,114.61523400000078,8.077147999999397,107.05126999999993
104,-26.538574000000153,93.20507799999996,103.20507799999996,82.56396500000028,99.10253900000043,104.61523400000078,110.0,106.15380900000036,113.58984400000008,105.64111300000059,117.05126999999993,110.89746099999957,-4.61547900000005,110.89746099999957
105,-43.71801800000003,95.89746099999957,103.7177729999994,83.20507799999996,99.61523400000078,107.82031300000017,114.87158199999976,105.38476599999922,113.9741210000002,107.43603499999972,116.6665039999998,108.9741210000002,-14.743652000000111,111.41015599999992
106,-49.74365200000011,100.76904300000024,104.87158199999976,85.0,103.46142599999985,112.56396500000028,120.51269500000035,106.41015599999992,115.38476599999922,111.79492200000004,118.84619099999964,108.20507799999996,-23.205077999999958,107.30761700000039
107,-48.71801800000003,104.61523400000078,106.0258789999998,86.41015599999992,109.74365200000011,115.76904300000024,123.58984400000008,108.9741210000002,117.30761700000039,115.38476599999922,121.53857400000015,108.0771479999994,-31.923095999999987,105.51269500000035
108,-46.79492200000004,105.64111300000059,106.6665039999998,86.2822270000006,115.51269500000035,116.53857400000015,123.20507799999996,112.94873000000007,119.10253900000043,116.15380900000036,122.82031300000017,107.94873000000007,-41.153809000000365,109.35888699999941
109,-47.564209000000574,105.51269500000035,107.17968800000017,85.12841800000024,118.46142599999985,115.89746099999957,121.41015599999992,117.05126999999993,120.76904300000024,114.35888699999941,122.30761700000039,108.20507799999996,-50.38452099999995,112.82031300000017
110,-50.51293900000019,107.17968800000017,108.46142599999985,84.48730499999965,117.94873000000007,116.0258789999998,121.2822270000006,119.87158199999976,122.05126999999993,112.43603499999972,120.64111300000059,108.84619099999964,-58.58984399999963,110.51269500000035
111,-53.71801800000003,111.53857400000015,110.25634799999989,84.87158199999976,114.87158199999976,117.17968800000017,123.3334960000002,119.74365200000011,122.56396500000028,111.41015599999992,118.20507799999996,108.9741210000002,-67.05127000000039,106.79492200000004
112,-56.153809000000365,116.2822270000006,111.53857400000015,85.25634799999989,110.51269500000035,117.43603499999972,125.89746099999957,116.0258789999998,121.6665039999998,110.38476599999922,114.35888699999941,107.56396500000028,-77.05127000000039,107.17968800000017
113,-58.20507799999996,118.9741210000002,110.76904300000024,84.48730499999965,106.2822270000006,115.64111300000059,126.41015599999992,110.25634799999989,119.35888699999941,107.82031300000017,108.84619099999964,103.58984400000008,-88.71801800000003,108.9741210000002
114,-60.89746100000002,118.84619099999964,107.94873000000007,82.69238299999961,103.0771479999994,112.05126999999993,123.46142599999985,105.0,116.41015599999992,103.58984400000008,103.3334960000002,98.46142599999985,-99.8718259999996,107.69238299999961
115,-64.61547900000005,116.41015599999992,104.87158199999976,81.0258789999998,101.0258789999998,108.20507799999996,118.3334960000002,102.69238299999961,113.3334960000002,99.61523400000078,99.48730499999965,94.48730499999965,-109.35888699999987,105.64111300000059
116,-68.33325200000036,113.46142599999985,102.94873000000007,80.89746099999957,99.48730499999965,105.12841800000024,112.94873000000007,102.69238299999961,110.64111300000059,97.43603499999972,98.20507799999996,93.20507799999996,-115.89746100000002,107.82031300000017
117,-69.35888699999987,112.43603499999972,102.94873000000007,82.82031300000017,98.7177729999994,103.7177729999994,110.12841800000024,103.46142599999985,109.35888699999941,98.0771479999994,99.35888699999941,94.10253900000043,-119.10253899999998,111.79492200000004
118,-66.02563499999997,115.38476599999922,104.35888699999941,86.0258789999998,99.61523400000078,103.9741210000002,111.2822270000006,104.35888699999941,110.12841800000024,100.51269500000035,102.05126999999993,95.64111300000059,-119.61547900000005,111.41015599999992
119,-60.89746100000002,120.76904300000024,106.0258789999998,88.20507799999996,101.9228520000006,105.25634799999989,115.38476599999922,105.38476599999922,112.17968800000017,102.69238299999961,104.10253900000043,96.15380900000036,-119.8718259999996,107.30761700000039
120,-58.974365000000034,124.48730499999965,106.2822270000006,87.17968800000017,103.84619099999964,105.76904300000024,118.84619099999964,106.2822270000006,113.3334960000002,102.43603499999972,103.3334960000002,95.0,-123.46142599999985,106.53857400000015
121,-63.71801800000003,122.69238299999961,104.10253900000043,82.94873000000007,103.7177729999994,104.87158199999976,118.46142599999985,106.15380900000036,112.05126999999993,98.9741210000002,99.35888699999941,92.30761700000039,-131.41015600000037,109.74365200000011
122,-72.43579099999943,115.89746099999957,100.25634799999989,77.94873000000007,101.0258789999998,103.46142599999985,114.23095699999976,104.48730499999965,109.10253900000043,93.9741210000002,94.74365200000011,89.61523400000078,-140.0,110.89746099999957
123,-79.8718259999996,108.0771479999994,96.15380900000036,74.87158199999976,96.79492200000004,102.94873000000007,109.48730499999965,101.79492200000004,106.6665039999998,90.51269500000035,93.0771479999994,88.84619099999964,-144.23071300000038,108.3334960000002
124,-82.30761700000039,102.82031300000017,93.84619099999964,74.74365200000011,92.30761700000039,103.9741210000002,107.56396500000028,99.35888699999941,106.15380900000036,90.76904300000024,95.89746099999957,90.38476599999922,-141.53857400000015,107.69238299999961
125,-79.23071300000038,101.9228520000006,94.23095699999976,77.30761700000039,89.10253900000043,106.0258789999998,109.74365200000011,98.84619099999964,107.69238299999961,94.74365200000011,102.05126999999993,93.3334960000002,-133.71801800000003,110.76904300000024
126,-72.05127000000039,105.51269500000035,97.30761700000039,81.0258789999998,89.74365200000011,108.7177729999994,113.58984400000008,101.15380900000036,111.15380900000036,101.15380900000036,109.48730499999965,96.79492200000004,-124.23071300000038,111.79492200000004
127,-63.58984399999963,112.30761700000039,102.94873000000007,84.48730499999965,94.61523400000078,111.79492200000004,116.0258789999998,105.76904300000024,116.0258789999998,108.7177729999994,115.76904300000024,100.51269500000035,-116.53857400000015,108.0771479999994
128,-56.79492200000004,119.35888699999941,109.48730499999965,86.79492200000004,101.41015599999992,113.9741210000002,115.38476599999922,110.25634799999989,120.64111300000059,116.0258789999998,119.61523400000078,104.23095699999976,-112.69238299999961,105.38476599999922
129,-54.10253899999998,123.46142599999985,114.23095699999976,88.20507799999996,106.0258789999998,113.84619099999964,112.69238299999961,111.6665039999998,122.69238299999961,121.0258789999998,120.0,106.9228520000006,-113.20507799999996,108.46142599999985
130,-55.1281740000004,124.23095699999976,114.74365200000011,89.74365200000011,106.2822270000006,112.30761700000039,110.89746099999957,109.61523400000078,121.79492200000004,122.30761700000039,117.82031300000017,107.05126999999993,-116.53857400000015,112.82031300000017
131,-57.82055700000001,123.58984400000008,111.53857400000015,92.05126999999993,103.3334960000002,111.15380900000036,111.79492200000004,106.79492200000004,119.10253900000043,119.87158199999976,114.87158199999976,104.10253900000043,-120.51293900000019,112.94873000000007
132,-60.51293900000019,123.46142599999985,107.82031300000017,93.7177729999994,100.25634799999989,111.9228520000006,115.25634799999989,106.53857400000015,116.6665039999998,115.76904300000024,112.43603499999972,99.48730499999965,-123.58984399999963,111.15380900000036
133,-62.051270000000386,124.10253900000043,106.9228520000006,93.84619099999964,98.84619099999964,114.61523400000078,119.10253900000043,109.35888699999941,115.76904300000024,112.82031300000017,111.41015599999992,96.0258789999998,-125.1281740000004,112.05126999999993
134,-61.79492200000004,124.61523400000078,109.61523400000078,92.43603499999972,99.35888699999941,118.3334960000002,121.6665039999998,113.0771479999994,116.6665039999998,113.0771479999994,112.30761700000039,95.76904300000024,-124.23071300000038,113.3334960000002
135,-58.846190999999635,124.61523400000078,114.61523400000078,91.2822270000006,100.89746099999957,121.41015599999992,122.30761700000039,115.25634799999989,118.84619099999964,116.6665039999998,115.12841800000024,99.48730499999965,-120.38452099999995,110.51269500000035
136,-53.846190999999635,124.35888699999941,119.35888699999941,91.53857400000015,101.53857400000015,122.05126999999993,121.9228520000006,114.48730499999965,120.76904300000024,121.0258789999998,119.10253900000043,105.12841800000024,-114.61547900000005,106.0258789999998
137,-49.35888699999987,123.84619099999964,121.15380900000036,92.94873000000007,100.64111300000059,119.35888699999941,121.0258789999998,112.05126999999993,120.25634799999989,122.43603499999972,121.79492200000004,110.0,-110.38452099999995,106.53857400000015
138,-47.435790999999426,123.9741210000002,119.61523400000078,94.48730499999965,99.61523400000078,115.51269500000035,120.25634799999989,110.25634799999989,117.30761700000039,120.38476599999922,121.9228520000006,112.05126999999993,-110.64111300000013,110.76904300000024
139,-47.435790999999426,125.51269500000035,116.6665039999998,95.64111300000059,100.76904300000024,114.10253900000043,120.38476599999922,111.2822270000006,114.61523400000078,117.05126999999993,120.25634799999989,111.53857400000015,-114.48706099999981,111.2822270000006
140,-47.051270000000386,128.58984400000008,115.0,96.0258789999998,104.74365200000011,117.17968800000017,122.17968800000017,115.0,115.25634799999989,115.64111300000059,118.58984400000008,110.76904300000024,-118.97436500000003,106.79492200000004
141,-45.0,131.53857400000015,115.89746099999957,96.0258789999998,108.7177729999994,122.82031300000017,125.12841800000024,118.9741210000002,119.87158199999976,117.43603499999972,118.20507799999996,110.89746099999957,-121.02563499999997,103.58984400000008
142,-42.30761700000039,132.56396500000028,118.58984400000008,96.15380900000036,109.61523400000078,127.43603499999972,127.56396500000028,120.64111300000059,125.25634799999989,121.2822270000006,119.61523400000078,111.53857400000015,-120.1281740000004,104.74365200000011
143,-40.38452099999995,131.6665039999998,121.0258789999998,96.9228520000006,107.43603499999972,128.7177729999994,127.94873000000007,119.48730499999965,127.94873000000007,124.48730499999965,121.79492200000004,111.53857400000015,-117.82055700000001,105.51269500000035
144,-40.38452099999995,129.61523400000078,122.17968800000017,97.69238299999961,104.23095699999976,127.05126999999993,125.51269500000035,116.9228520000006,125.76904300000024,125.12841800000024,122.94873000000007,110.76904300000024,-116.15380900000036,103.58984400000008
145,-42.17944299999999,127.43603499999972,121.53857400000015,97.43603499999972,102.30761700000039,123.58984400000008,121.79492200000004,114.48730499999965,120.12841800000024,122.43603499999972,121.0258789999998,109.74365200000011,-117.05127000000039,103.84619099999964
146,-44.61547900000005,125.64111300000059,119.23095699999976,95.64111300000059,102.69238299999961,119.87158199999976,118.9741210000002,112.30761700000039,114.35888699999941,117.56396500000028,116.2822270000006,108.84619099999964,-120.38452099999995,108.7177729999994
147,-46.025634999999966,124.35888699999941,116.15380900000036,93.20507799999996,104.35888699999941,117.30761700000039,118.58984400000008,110.0,111.6665039999998,112.82031300000017,110.89746099999957,107.94873000000007,-123.71801800000003,112.43603499999972
148,-46.41015600000037,123.46142599999985,113.3334960000002,91.6665039999998,105.51269500000035,116.6665039999998,119.87158199999976,107.56396500000028,112.69238299999961,109.87158199999976,107.56396500000028,106.41015599999992,-125.1281740000004,110.51269500000035
149,-47.82055700000001,121.79492200000004,111.41015599999992,91.41015599999992,104.10253900000043,116.15380900000036,120.38476599999922,105.12841800000024,114.61523400000078,108.3334960000002,106.53857400000015,103.7177729999994,-124.8718259999996,107.17968800000017
150,-52.17944299999999,118.58984400000008,109.87158199999976,92.05126999999993,100.0,113.46142599999985,117.69238299999961,102.30761700000039,114.10253900000043,107.05126999999993,106.41015599999992,99.74365200000011,-125.1281740000004,107.94873000000007
151,-58.20507799999996,114.87158199999976,107.56396500000028,92.05126999999993,95.64111300000059,109.23095699999976,112.69238299999961,99.10253900000043,110.51269500000035,105.76904300000024,105.51269500000035,95.89746099999957,-127.05127000000039,110.0
152,-62.564209000000574,112.43603499999972,104.61523400000078,91.41015599999992,93.9741210000002,105.89746099999957,108.3334960000002,96.2822270000006,106.41015599999992,105.12841800000024,103.58984400000008,93.7177729999994,-129.7436520000001,108.46142599999985
153,-62.564209000000574,111.6665039999998,102.17968800000017,90.12841800000024,95.89746099999957,105.76904300000024,107.05126999999993,95.0,104.87158199999976,105.76904300000024,101.79492200000004,93.7177729999994,-131.66674799999964,105.51269500000035
154,-59.23071300000038,111.79492200000004,101.41015599999992,89.10253900000043,99.35888699999941,108.0771479999994,108.46142599999985,95.89746099999957,107.17968800000017,107.56396500000028,100.89746099999957,94.74365200000011,-131.66674799999964,107.43603499999972
155,-55.1281740000004,112.30761700000039,101.9228520000006,89.35888699999941,102.30761700000039,111.0258789999998,110.51269500000035,98.9741210000002,111.6665039999998,109.87158199999976,102.17968800000017,94.87158199999976,-129.7436520000001,112.43603499999972
156,-52.435790999999426,113.58984400000008,103.3334960000002,91.53857400000015,103.7177729999994,113.58984400000008,111.79492200000004,103.20507799999996,115.64111300000059,111.41015599999992,105.64111300000059,93.9741210000002,-126.28198199999997,113.20507799999996
157,-51.92309599999999,115.38476599999922,104.35888699999941,94.61523400000078,103.84619099999964,115.0,112.17968800000017,106.2822270000006,117.30761700000039,111.6665039999998,109.87158199999976,93.0771479999994,-122.43579099999943,109.48730499999965
158,-52.69238299999961,116.41015599999992,104.35888699999941,96.79492200000004,102.69238299999961,115.0,111.53857400000015,106.6665039999998,116.15380900000036,110.38476599999922,112.30761700000039,93.20507799999996,-120.64111300000013,107.69238299999961
159,-53.46142599999985,116.41015599999992,102.56396500000028,96.53857400000015,101.0258789999998,113.9741210000002,110.38476599999922,105.0,113.3334960000002,108.3334960000002,111.2822270000006,93.84619099999964,-121.66674799999964,109.87158199999976
160,-52.69238299999961,116.53857400000015,100.0,94.87158199999976,100.51269500000035,113.58984400000008,109.23095699999976,103.7177729999994,111.41015599999992,107.30761700000039,107.82031300000017,94.10253900000043,-124.23071300000038,110.51269500000035
161,-50.38452099999995,117.82031300000017,98.46142599999985,93.7177729999994,102.05126999999993,114.74365200000011,108.7177729999994,104.48730499999965,112.17968800000017,108.46142599999985,104.35888699999941,93.0771479999994,-126.28198199999997,107.82031300000017
162,-47.82055700000001,118.9741210000002,98.84619099999964,94.23095699999976,104.23095699999976,116.6665039999998,108.84619099999964,106.53857400000015,115.0,110.89746099999957,102.69238299999961,90.89746099999957,-126.66674799999964,106.9228520000006
163,-46.28198199999997,118.0771479999994,100.25634799999989,95.51269500000035,104.35888699999941,118.3334960000002,110.25634799999989,107.94873000000007,117.94873000000007,112.69238299999961,102.30761700000039,88.9741210000002,-125.76928699999962,109.87158199999976
164,-45.38452099999995,115.64111300000059,101.0258789999998,96.9228520000006,102.30761700000039,119.87158199999976,113.20507799999996,108.0771479999994,119.10253900000043,112.94873000000007,102.56396500000028,88.7177729999994,-123.46142599999985,111.15380900000036
165,-44.10253899999998,113.46142599999985,101.15380900000036,98.0771479999994,100.51269500000035,121.53857400000015,117.17968800000017,107.56396500000028,118.3334960000002,112.05126999999993,103.46142599999985,90.89746099999957,-119.35888699999987,107.69238299999961
166,-42.435790999999426,113.0771479999994,101.2822270000006,98.9741210000002,100.89746099999957,122.82031300000017,119.48730499999965,107.56396500000028,116.6665039999998,111.6665039999998,105.25634799999989,94.48730499999965,-113.58984399999963,104.74365200000011
167,-41.41015600000037,114.48730499999965,102.17968800000017,99.61523400000078,103.20507799999996,122.56396500000028,118.0771479999994,107.56396500000028,115.25634799999989,112.43603499999972,107.82031300000017,97.43603499999972,-108.07690400000001,107.43603499999972
168,-41.53857400000015,116.15380900000036,103.58984400000008,99.74365200000011,106.15380900000036,120.25634799999989,113.46142599999985,107.17968800000017,114.87158199999976,113.84619099999964,110.38476599999922,98.0771479999994,-104.35888699999987,111.2822270000006
169,-42.435790999999426,116.41015599999992,104.48730499999965,99.87158199999976,108.46142599999985,116.41015599999992,108.46142599999985,106.0258789999998,115.38476599999922,114.87158199999976,112.30761700000039,96.9228520000006,-103.46142599999985,110.38476599999922
170,-43.846190999999635,113.84619099999964,103.9741210000002,99.61523400000078,109.23095699999976,112.17968800000017,105.76904300000024,104.35888699999941,115.25634799999989,114.10253900000043,112.05126999999993,94.87158199999976,-105.38452099999995,107.56396500000028
171,-45.64111300000013,108.20507799999996,101.0258789999998,98.20507799999996,107.43603499999972,108.58984400000008,105.51269500000035,102.17968800000017,113.3334960000002,110.89746099999957,108.9741210000002,92.56396500000028,-109.74365200000011,108.7177729999994
172,-47.69238299999961,101.6665039999998,96.2822270000006,95.76904300000024,104.35888699999941,107.05126999999993,106.41015599999992,100.0,109.87158199999976,106.41015599999992,103.58984400000008,90.0,-114.74365200000011,112.56396500000028
173,-48.46142599999985,97.56396500000028,92.05126999999993,93.7177729999994,102.05126999999993,108.7177729999994,107.69238299999961,99.10253900000043,106.79492200000004,102.94873000000007,98.20507799999996,87.56396500000028,-117.56420900000057,112.43603499999972
174,-47.435790999999426,97.05126999999993,90.51269500000035,93.58984400000008,102.17968800000017,112.30761700000039,108.9741210000002,100.0,105.51269500000035,102.05126999999993,95.0,86.15380900000036,-117.05127000000039,108.84619099999964
175,-45.76928699999962,98.3334960000002,91.6665039999998,94.74365200000011,103.0771479999994,115.12841800000024,110.0,101.2822270000006,105.76904300000024,103.46142599999985,94.10253900000043,85.25634799999989,-115.1281740000004,108.20507799999996
176,-45.0,98.84619099999964,93.3334960000002,95.76904300000024,102.69238299999961,115.25634799999989,110.38476599999922,101.53857400000015,106.15380900000036,105.0,93.9741210000002,84.10253900000043,-114.35888699999987,111.6665039999998
177,-45.1281740000004,97.56396500000028,93.9741210000002,95.51269500000035,100.38476599999922,112.94873000000007,110.0,100.76904300000024,106.15380900000036,105.76904300000024,93.9741210000002,82.43603499999972,-114.74365200000011,113.3334960000002
178,-45.1281740000004,95.51269500000035,93.46142599999985,94.61523400000078,97.82031300000017,110.25634799999989,109.87158199999976,99.87158199999976,105.76904300000024,106.0258789999998,94.10253900000043,81.0258789999998,-114.10253899999998,111.2822270000006
179,-44.10253899999998,93.84619099999964,92.82031300000017,93.7177729999994,96.0258789999998,108.46142599999985,110.38476599999922,99.23095699999976,105.51269500000035,106.15380900000036,94.74365200000011,80.51269500000035,-111.02563499999997,110.51269500000035
180,-41.92309599999999,93.20507799999996,92.43603499999972,93.3334960000002,95.64111300000059,108.46142599999985,112.17968800000017,98.7177729999994,104.87158199999976,106.15380900000036,96.53857400000015,80.76904300000024,-106.02563499999997,112.82031300000017
181,-38.33325200000036,93.7177729999994,92.56396500000028,93.84619099999964,97.05126999999993,110.0,115.25634799999989,98.20507799999996,104.23095699999976,105.76904300000024,99.35888699999941,81.53857400000015,-101.15380900000036,113.84619099999964
182,-33.71801800000003,95.64111300000059,93.84619099999964,95.38476599999922,100.51269500000035,112.69238299999961,119.23095699999976,98.84619099999964,103.46142599999985,105.89746099999957,102.43603499999972,83.3334960000002,-97.94872999999961,110.89746099999957
183,-29.230713000000378,98.0771479999994,96.15380900000036,97.30761700000039,105.0,115.25634799999989,122.69238299999961,101.15380900000036,102.56396500000028,107.43603499999972,104.48730499999965,86.53857400000015,-97.05127000000039,108.84619099999964
184,-26.538574000000153,99.48730499999965,98.9741210000002,99.10253900000043,108.9741210000002,116.2822270000006,124.48730499999965,104.35888699999941,102.05126999999993,111.0258789999998,104.61523400000078,90.12841800000024,-97.30761700000039,111.2822270000006
185,-25.641113000000132,99.35888699999941,101.2822270000006,100.38476599999922,111.2822270000006,115.89746099999957,124.74365200000011,107.69238299999961,103.3334960000002,116.0258789999998,104.10253900000043,93.20507799999996,-96.41015600000037,113.58984400000008
186,-25.38452099999995,97.94873000000007,102.82031300000017,100.64111300000059,112.43603499999972,115.64111300000059,124.87158199999976,110.89746099999957,106.9228520000006,120.76904300000024,105.25634799999989,95.12841800000024,-93.07690400000001,111.53857400000015
187,-25.25634799999989,95.89746099999957,103.84619099999964,99.61523400000078,112.82031300000017,116.15380900000036,125.76904300000024,113.3334960000002,111.41015599999992,123.20507799999996,108.84619099999964,96.2822270000006,-88.58984399999963,108.84619099999964
188,-25.769286999999622,94.10253900000043,104.23095699999976,97.17968800000017,112.43603499999972,116.6665039999998,126.2822270000006,114.35888699999941,114.48730499999965,121.9228520000006,112.94873000000007,96.6665039999998,-86.02563499999997,110.64111300000059
189,-26.794922000000042,93.3334960000002,103.3334960000002,94.74365200000011,110.64111300000059,116.0258789999998,125.0,113.58984400000008,115.0,117.94873000000007,115.38476599999922,96.2822270000006,-86.92309599999999,113.84619099999964
190,-27.051270000000386,93.9741210000002,101.79492200000004,93.7177729999994,107.17968800000017,113.7177729999994,122.05126999999993,111.53857400000015,113.84619099999964,113.46142599999985,114.87158199999976,95.25634799999989,-90.0,111.9228520000006
191,-26.41015600000037,94.48730499999965,100.51269500000035,94.48730499999965,101.9228520000006,110.25634799999989,118.84619099999964,108.9741210000002,112.69238299999961,111.2822270000006,111.9228520000006,93.9741210000002,-92.82055700000001,106.79492200000004
192,-26.153809000000365,92.94873000000007,100.51269500000035,96.0258789999998,95.64111300000059,105.89746099999957,116.53857400000015,106.6665039999998,111.9228520000006,111.53857400000015,107.56396500000028,92.43603499999972,-94.23071300000038,105.38476599999922
193,-26.923095999999987,89.23095699999976,101.15380900000036,96.6665039999998,91.0258789999998,102.05126999999993,115.38476599999922,105.64111300000059,111.15380900000036,112.82031300000017,103.9741210000002,90.89746099999957,-94.23071300000038,108.20507799999996
194,-27.564209000000574,86.0258789999998,101.9228520000006,96.41015599999992,91.2822270000006,101.0258789999998,115.25634799999989,106.15380900000036,110.12841800000024,113.7177729999994,102.82031300000017,90.12841800000024,-92.69238299999961,109.87158199999976
195,-26.666747999999643,85.38476599999922,102.56396500000028,95.89746099999957,96.79492200000004,103.84619099999964,115.89746099999957,107.30761700000039,109.35888699999941,113.7177729999994,104.48730499999965,91.15380900000036,-89.8718259999996,109.10253900000043
196,-23.846190999999635,87.05126999999993,103.3334960000002,95.89746099999957,104.10253900000043,108.84619099999964,116.9228520000006,108.0771479999994,109.48730499999965,113.46142599999985,107.30761700000039,93.7177729999994,-86.41015600000037,110.38476599999922
197,-20.25634799999989,89.10253900000043,103.9741210000002,96.41015599999992,108.20507799999996,113.0771479999994,117.82031300000017,107.94873000000007,111.0258789999998,114.23095699999976,110.0,96.15380900000036,-82.56420900000057,113.9741210000002
198,-17.435790999999426,90.0,103.7177729999994,96.9228520000006,106.9228520000006,114.61523400000078,118.84619099999964,107.94873000000007,113.3334960000002,116.9228520000006,111.9228520000006,97.30761700000039,-78.58984399999963,114.10253900000043
199,-17.051270000000386,89.87158199999976,102.30761700000039,96.41015599999992,102.30761700000039,113.84619099999964,119.48730499999965,108.7177729999994,115.12841800000024,120.51269500000035,113.46142599999985,96.2822270000006,-75.25634799999989,110.0
200,-19.8718259999996,88.7177729999994,99.74365200000011,94.87158199999976,98.3334960000002,111.53857400000015,119.23095699999976,109.10253900000043,115.0,122.94873000000007,114.10253900000043,93.9741210000002,-74.10253899999998,108.0771479999994
201,-24.230713000000378,87.30761700000039,97.05126999999993,93.0771479999994,98.0771479999994,108.84619099999964,118.3334960000002,108.46142599999985,113.58984400000008,122.43603499999972,113.58984400000008,92.30761700000039,-75.1281740000004,111.41015599999992
202,-25.89746100000002,86.79492200000004,96.53857400000015,93.20507799999996,102.17968800000017,107.17968800000017,118.3334960000002,107.69238299999961,113.20507799999996,120.38476599999922,112.82031300000017,93.0771479999994,-75.76928699999962,114.10253900000043
203,-21.666747999999643,88.58984400000008,99.61523400000078,96.2822270000006,108.0771479999994,108.0771479999994,120.89746099999957,108.3334960000002,116.0258789999998,120.0,113.84619099999964,97.30761700000039,-72.94872999999961,111.41015599999992
204,-13.205077999999958,92.05126999999993,105.12841800000024,101.2822270000006,111.6665039999998,110.89746099999957,125.76904300000024,110.89746099999957,121.6665039999998,123.3334960000002,116.79492200000004,103.46142599999985,-66.41015600000037,107.94873000000007
205,-6.025634999999966,94.61523400000078,109.61523400000078,105.12841800000024,110.12841800000024,112.82031300000017,129.7436520000001,114.35888699999941,126.79492200000004,129.23095699999976,120.12841800000024,108.7177729999994,-58.974365000000034,109.35888699999941
206,-3.846190999999635,94.61523400000078,110.64111300000059,105.38476599999922,104.48730499999965,112.05126999999993,130.2563479999999,116.6665039999998,128.20507799999996,134.48730499999965,122.30761700000039,110.89746099999957,-53.71801800000003,112.43603499999972
207,-6.281981999999971,92.43603499999972,108.58984400000008,102.56396500000028,99.23095699999976,108.84619099999964,127.30761700000039,116.53857400000015,125.38476599999922,136.53857400000015,123.20507799999996,110.12841800000024,-51.153809000000365,111.53857400000015
208,-10.0,89.87158199999976,105.76904300000024,99.48730499999965,98.0771479999994,104.48730499999965,122.94873000000007,113.84619099999964,120.25634799999989,134.10253900000043,123.3334960000002,108.58984400000008,-50.76928699999962,108.9741210000002
209,-11.538574000000153,88.0771479999994,104.10253900000043,98.20507799999996,100.89746099999957,101.15380900000036,119.74365200000011,109.74365200000011,115.64111300000059,128.9741210000002,123.46142599999985,108.58984400000008,-51.28198199999997,110.25634799999989
210,-9.230713000000378,87.94873000000007,104.74365200000011,99.35888699999941,105.51269500000035,100.51269500000035,119.48730499999965,106.6665039999998,113.58984400000008,124.48730499999965,124.10253900000043,110.64111300000059,-50.89746100000002,113.7177729999994
211,-3.3334960000001956,89.87158199999976,107.43603499999972,102.56396500000028,109.74365200000011,103.3334960000002,121.15380900000036,106.15380900000036,115.12841800000024,123.46142599999985,125.64111300000059,113.7177729999994,-48.58984399999963,113.0771479999994
212,3.846190999999635,93.0771479999994,111.0258789999998,106.53857400000015,111.6665039999998,107.05126999999993,122.17968800000017,107.94873000000007,119.23095699999976,125.76904300000024,127.30761700000039,116.2822270000006,-44.48706099999981,108.7177729999994
213,8.717772999999397,95.38476599999922,113.3334960000002,109.23095699999976,111.0258789999998,108.3334960000002,120.25634799999989,109.61523400000078,122.43603499999972,128.3334960000002,127.69238299999961,116.6665039999998,-41.53857400000015,107.43603499999972
214,9.487304999999651,95.38476599999922,113.0771479999994,109.61523400000078,109.35888699999941,105.64111300000059,115.89746099999957,109.10253900000043,122.17968800000017,128.0771479999994,125.89746099999957,114.48730499999965,-41.41015600000037,110.51269500000035
215,8.077147999999397,94.35888699999941,110.89746099999957,108.0771479999994,109.23095699999976,101.2822270000006,111.53857400000015,106.9228520000006,118.9741210000002,125.64111300000059,123.0771479999994,111.15380900000036,-43.33325200000036,111.6665039999998
216,7.56396500000028,94.23095699999976,108.84619099999964,106.15380900000036,110.76904300000024,98.46142599999985,109.74365200000011,105.38476599999922,115.89746099999957,123.20507799999996,120.76904300000024,108.7177729999994,-44.8718259999996,109.23095699999976
217,9.102539000000434,95.0,107.69238299999961,104.48730499999965,110.76904300000024,98.0771479999994,110.25634799999989,105.89746099999957,114.87158199999976,122.69238299999961,119.10253900000043,107.82031300000017,-44.74365200000011,108.20507799999996
218,10.897460999999566,95.0,106.53857400000015,102.82031300000017,106.9228520000006,99.10253900000043,111.53857400000015,107.56396500000028,115.64111300000059,123.84619099999964,117.30761700000039,107.56396500000028,-43.974365000000034,111.15380900000036
219,11.794922000000042,93.3334960000002,105.0,101.53857400000015,100.76904300000024,100.76904300000024,112.17968800000017,108.46142599999985,117.17968800000017,124.61523400000078,115.38476599999922,107.17968800000017,-43.46142599999985,112.17968800000017
220,11.538574000000153,91.0258789999998,103.84619099999964,101.6665039999998,97.05126999999993,102.69238299999961,112.56396500000028,107.82031300000017,118.3334960000002,123.84619099999964,113.9741210000002,106.53857400000015,-43.46142599999985,108.20507799999996
221,10.897460999999566,89.23095699999976,104.61523400000078,103.3334960000002,99.35888699999941,104.48730499999965,113.9741210000002,106.0258789999998,118.0771479999994,122.05126999999993,114.23095699999976,106.2822270000006,-43.46142599999985,104.35888699999941
222,10.0,88.84619099999964,107.05126999999993,105.12841800000024,106.6665039999998,105.76904300000024,117.05126999999993,104.48730499999965,116.53857400000015,120.38476599999922,115.64111300000059,106.0258789999998,-43.33325200000036,106.2822270000006
223,8.589844000000085,89.23095699999976,109.10253900000043,105.51269500000035,114.61523400000078,106.79492200000004,120.89746099999957,104.10253900000043,115.0,119.74365200000011,116.6665039999998,105.0,-42.30761700000039,110.25634799999989
224,6.538574000000153,89.35888699999941,108.7177729999994,103.58984400000008,118.46142599999985,107.30761700000039,123.46142599999985,105.0,114.35888699999941,119.74365200000011,116.15380900000036,102.43603499999972,-40.25634799999989,110.64111300000059
225,3.717772999999397,87.82031300000017,105.76904300000024,100.0,116.2822270000006,106.53857400000015,122.94873000000007,105.89746099999957,114.35888699999941,118.58984400000008,113.7177729999994,98.84619099999964,-38.20507799999996,109.23095699999976
226,0.512695000000349,84.48730499999965,101.41015599999992,95.76904300000024,109.61523400000078,103.7177729999994,118.9741210000002,104.87158199999976,113.3334960000002,115.12841800000024,110.0,95.12841800000024,-37.948729999999614,110.89746099999957
227,-1.6665039999998044,81.0258789999998,97.05126999999993,93.0771479999994,102.30761700000039,99.87158199999976,113.3334960000002,101.15380900000036,110.25634799999989,110.0,106.0258789999998,92.05126999999993,-40.1281740000004,113.58984400000008
228,-1.6665039999998044,79.61523400000078,94.10253900000043,92.94873000000007,97.82031300000017,97.30761700000039,108.9741210000002,96.0258789999998,106.53857400000015,105.89746099999957,103.20507799999996,90.38476599999922,-42.948729999999614,112.43603499999972
229,0.6411130000005869,80.25634799999989,94.10253900000043,94.61523400000078,96.9228520000006,97.30761700000039,107.30761700000039,92.43603499999972,103.9741210000002,104.87158199999976,102.17968800000017,90.51269500000035,-44.61547900000005,109.48730499999965
230,4.743652000000111,81.41015599999992,97.17968800000017,96.0258789999998,98.20507799999996,98.84619099999964,108.20507799999996,92.30761700000039,104.10253900000043,106.9228520000006,102.94873000000007,91.9228520000006,-44.10253899999998,110.51269500000035
231,9.230956999999762,82.30761700000039,101.9228520000006,96.15380900000036,101.15380900000036,100.89746099999957,110.38476599999922,95.76904300000024,107.05126999999993,110.51269500000035,105.25634799999989,93.9741210000002,-41.025634999999966,114.87158199999976
232,13.461425999999847,83.84619099999964,105.64111300000059,95.89746099999957,105.51269500000035,103.20507799999996,112.69238299999961,101.41015599999992,111.9228520000006,113.9741210000002,108.46142599999985,96.53857400000015,-36.025634999999966,115.51269500000035
233,16.153809000000365,86.0258789999998,107.17968800000017,96.79492200000004,110.64111300000059,105.51269500000035,115.0,106.41015599999992,116.41015599999992,116.15380900000036,111.15380900000036,99.74365200000011,-30.89746100000002,111.15380900000036
234,15.512695000000349,87.56396500000028,105.76904300000024,97.69238299999961,113.58984400000008,106.41015599999992,116.15380900000036,108.20507799999996,117.69238299999961,116.15380900000036,111.41015599999992,101.79492200000004,-28.461425999999847,108.3334960000002
235,11.153809000000365,86.79492200000004,102.30761700000039,97.05126999999993,112.05126999999993,105.51269500000035,115.51269500000035,106.2822270000006,115.0,113.7177729999994,108.58984400000008,100.76904300000024,-29.74365200000011,110.0
236,5.256347999999889,83.7177729999994,98.20507799999996,94.87158199999976,106.9228520000006,103.3334960000002,113.0771479999994,102.56396500000028,110.51269500000035,110.0,104.23095699999976,96.6665039999998,-33.07690400000001,111.15380900000036
237,1.2822270000006029,80.25634799999989,95.64111300000059,93.20507799999996,102.30761700000039,101.9228520000006,110.51269500000035,100.0,107.30761700000039,107.17968800000017,101.0258789999998,91.9228520000006,-35.25634799999989,108.84619099999964
238,1.4101559999999154,77.82031300000017,95.51269500000035,93.84619099999964,101.9228520000006,101.53857400000015,109.35888699999941,100.76904300000024,107.05126999999993,106.9228520000006,101.15380900000036,90.25634799999989,-34.48706099999981,107.94873000000007
239,5.0,77.43603499999972,97.82031300000017,96.9228520000006,106.2822270000006,101.9228520000006,110.38476599999922,103.9741210000002,109.61523400000078,109.48730499999965,104.48730499999965,92.94873000000007,-31.794922000000042,111.0258789999998
240,10.512695000000349,79.10253900000043,101.41015599999992,101.0258789999998,112.56396500000028,102.43603499999972,113.46142599999985,107.56396500000028,112.94873000000007,113.58984400000008,108.84619099999964,98.0771479999994,-28.076904000000013,113.3334960000002
241,15.897460999999566,81.9228520000006,105.12841800000024,103.84619099999964,116.15380900000036,102.94873000000007,116.79492200000004,109.35888699999941,114.87158199999976,116.79492200000004,111.9228520000006,101.79492200000004,-24.8718259999996,110.89746099999957
242,19.230956999999762,84.23095699999976,107.82031300000017,103.84619099999964,114.23095699999976,103.46142599999985,118.84619099999964,108.20507799999996,114.10253900000043,117.30761700000039,112.05126999999993,101.79492200000004,-23.076904000000013,108.0771479999994
243,19.358886999999413,85.25634799999989,108.7177729999994,101.53857400000015,107.69238299999961,103.46142599999985,118.58984400000008,105.0,111.15380900000036,114.74365200000011,109.61523400000078,98.46142599999985,-23.461425999999847,110.25634799999989
244,17.43603499999972,85.51269500000035,107.43603499999972,98.9741210000002,101.2822270000006,103.46142599999985,116.6665039999998,102.56396500000028,107.94873000000007,110.64111300000059,106.2822270000006,94.48730499999965,-25.1281740000004,113.84619099999964
245,15.641113000000587,86.15380900000036,104.74365200000011,98.46142599999985,100.0,103.9741210000002,115.51269500000035,102.69238299999961,106.41015599999992,107.43603499999972,104.35888699999941,92.94873000000007,-25.89746100000002,112.30761700000039
246,14.615234000000783,86.2822270000006,101.53857400000015,99.87158199999976,104.10253900000043,104.87158199999976,116.0258789999998,105.12841800000024,107.30761700000039,106.41015599999992,103.9741210000002,94.35888699999941,-25.25634799999989,107.94873000000007
247,13.461425999999847,84.10253900000043,98.46142599999985,101.15380900000036,109.48730499999965,104.87158199999976,117.43603499999972,107.17968800000017,109.23095699999976,106.6665039999998,103.7177729999994,96.79492200000004,-24.230713000000378,107.43603499999972
248,12.051269999999931,79.87158199999976,96.15380900000036,100.64111300000059,112.69238299999961,103.58984400000008,118.58984400000008,107.05126999999993,110.25634799999989,106.53857400000015,103.0771479999994,97.82031300000017,-23.461425999999847,110.0
249,12.307617000000391,77.05126999999993,95.38476599999922,99.35888699999941,113.58984400000008,102.69238299999961,119.10253900000043,105.25634799999989,110.38476599999922,105.89746099999957,102.94873000000007,97.43603499999972,-22.69238299999961,109.74365200000011
250,15.769043000000238,78.7177729999994,96.53857400000015,99.61523400000078,113.84619099999964,103.84619099999964,119.87158199999976,103.9741210000002,110.25634799999989,105.51269500000035,104.48730499999965,97.17968800000017,-20.89746100000002,106.53857400000015
251,21.666503999999804,84.61523400000078,98.9741210000002,102.43603499999972,113.7177729999994,107.05126999999993,121.2822270000006,104.48730499999965,110.76904300000024,106.2822270000006,107.05126999999993,98.20507799999996,-18.58984399999963,106.41015599999992
252,27.17968800000017,91.15380900000036,101.53857400000015,106.41015599999992,112.56396500000028,110.12841800000024,123.20507799999996,106.9228520000006,111.9228520000006,108.3334960000002,108.58984400000008,99.74365200000011,-16.41015600000037,110.0
253,30.897460999999566,95.12841800000024,103.20507799999996,109.35888699999941,111.53857400000015,112.05126999999993,125.38476599999922,110.0,113.3334960000002,110.89746099999957,108.0771479999994,100.25634799999989,-14.487060999999812,110.76904300000024
254,32.69238299999961,95.51269500000035,103.84619099999964,109.35888699999941,111.9228520000006,113.0771479999994,127.05126999999993,112.56396500000028,114.23095699999976,112.56396500000028,105.89746099999957,98.9741210000002,-12.820557000000008,106.41015599999992
255,32.82031300000017,93.20507799999996,102.56396500000028,106.41015599999992,113.46142599999985,113.20507799999996,126.9228520000006,113.0771479999994,113.7177729999994,112.82031300000017,103.46142599999985,96.2822270000006,-11.666747999999643,103.7177729999994
256,31.410155999999915,89.74365200000011,99.35888699999941,102.17968800000017,114.35888699999941,111.79492200000004,125.12841800000024,111.15380900000036,111.79492200000004,111.53857400000015,101.6665039999998,93.3334960000002,-11.28198199999997,107.05126999999993
257,28.717772999999397,87.17968800000017,95.12841800000024,98.3334960000002,113.7177729999994,109.23095699999976,122.56396500000028,108.3334960000002,109.48730499999965,109.74365200000011,101.0258789999998,91.0258789999998,-11.153809000000365,111.15380900000036
258,26.410155999999915,86.53857400000015,92.17968800000017,97.05126999999993,112.17968800000017,106.79492200000004,121.0258789999998,106.9228520000006,108.58984400000008,108.7177729999994,101.9228520000006,90.25634799999989,-10.38452099999995,111.15380900000036
259,25.384765999999217,87.82031300000017,91.9228520000006,98.0771479999994,111.41015599999992,106.0258789999998,121.41015599999992,107.69238299999961,109.61523400000078,108.84619099999964,103.20507799999996,90.89746099999957,-8.58984399999963,109.87158199999976
260,26.282227000000603,89.48730499999965,93.58984400000008,100.64111300000059,111.79492200000004,107.30761700000039,122.82031300000017,109.35888699999941,111.2822270000006,109.87158199999976,103.7177729999994,92.17968800000017,-6.41015600000037,111.6665039999998
261,28.717772999999397,90.51269500000035,95.0,103.0771479999994,113.58984400000008,109.74365200000011,123.7177729999994,110.12841800000024,111.9228520000006,111.2822270000006,102.82031300000017,92.94873000000007,-4.61547900000005,113.3334960000002
262,31.922852000000603,91.15380900000036,95.38476599999922,104.10253900000043,116.15380900000036,111.6665039999998,122.82031300000017,109.74365200000011,110.89746099999957,112.17968800000017,101.2822270000006,92.43603499999972,-3.846190999999635,110.25634799999989
263,34.102539000000434,91.15380900000036,94.74365200000011,103.3334960000002,117.56396500000028,111.0258789999998,119.74365200000011,108.46142599999985,108.58984400000008,111.79492200000004,99.35888699999941,90.38476599999922,-5.0,106.0258789999998
264,33.589844000000085,89.61523400000078,93.3334960000002,101.41015599999992,116.0258789999998,106.9228520000006,115.51269500000035,106.53857400000015,105.38476599999922,109.61523400000078,96.79492200000004,87.05126999999993,-8.58984399999963,107.17968800000017
265,30.769043000000238,86.41015599999992,91.53857400000015,99.87158199999976,111.6665039999998,100.89746099999957,112.43603499999972,103.9741210000002,102.69238299999961,106.15380900000036,93.0771479999994,82.69238299999961,-13.846190999999635,112.17968800000017
266,27.69238299999961,83.0771479999994,89.74365200000011,99.61523400000078,107.56396500000028,96.6665039999998,111.9228520000006,101.15380900000036,101.41015599999992,102.17968800000017,88.9741210000002,78.46142599999985,-18.58984399999963,113.58984400000008
267,26.282227000000603,80.89746099999957,88.46142599999985,100.38476599999922,106.0258789999998,96.41015599999992,113.7177729999994,99.74365200000011,101.6665039999998,98.58984400000008,86.15380900000036,75.76904300000024,-21.025634999999966,110.89746099999957
268,26.410155999999915,79.74365200000011,87.94873000000007,100.64111300000059,106.53857400000015,98.84619099999964,115.25634799999989,100.12841800000024,102.30761700000039,95.38476599999922,85.25634799999989,75.76904300000024,-20.769286999999622,110.0
269,27.56396500000028,78.9741210000002,88.20507799999996,99.10253900000043,106.6665039999998,100.76904300000024,114.74365200000011,101.6665039999998,102.56396500000028,92.69238299999961,86.2822270000006,78.3334960000002,-18.58984399999963,112.56396500000028
270,29.871581999999762,78.46142599999985,89.23095699999976,96.6665039999998,104.48730499999965,100.12841800000024,112.30761700000039,103.20507799999996,102.56396500000028,91.41015599999992,88.7177729999994,82.56396500000028,-15.0,113.46142599999985
271,32.69238299999961,78.9741210000002,91.15380900000036,95.51269500000035,100.38476599999922,97.05126999999993,109.74365200000011,103.7177729999994,102.94873000000007,91.9228520000006,92.05126999999993,87.43603499999972,-10.512939000000188,111.2822270000006
272,35.0,80.38476599999922,93.0771479999994,96.6665039999998,97.17968800000017,93.58984400000008,108.46142599999985,102.69238299999961,103.7177729999994,93.84619099999964,95.38476599999922,91.15380900000036,-6.025634999999966,110.64111300000059
273,35.897460999999566,82.05126999999993,93.9741210000002,99.61523400000078,97.05126999999993,92.43603499999972,108.7177729999994,100.76904300000024,104.48730499999965,96.2822270000006,97.56396500000028,92.82031300000017,-2.8203119999998307,113.0771479999994
274,35.38476599999922,83.46142599999985,93.0771479999994,102.17968800000017,100.64111300000059,95.38476599999922,110.0,99.23095699999976,105.12841800000024,98.9741210000002,99.10253900000043,92.69238299999961,-0.8974609999995664,113.3334960000002
275,34.74365200000011,83.9741210000002,91.9228520000006,102.94873000000007,105.12841800000024,101.15380900000036,111.53857400000015,100.12841800000024,105.76904300000024,101.6665039999998,100.51269500000035,91.9228520000006,0.256347999999889,109.10253900000043
276,35.0,83.20507799999996,91.79492200000004,101.6665039999998,106.79492200000004,106.41015599999992,112.82031300000017,103.3334960000002,106.6665039999998,104.10253900000043,101.9228520000006,91.53857400000015,0.512695000000349,106.53857400000015
277,36.025878999999804,81.53857400000015,93.20507799999996,99.23095699999976,104.87158199999976,108.46142599999985,114.10253900000043,106.9228520000006,107.17968800000017,106.15380900000036,102.82031300000017,92.17968800000017,-0.12841800000023795,109.87158199999976
278,38.0771479999994,80.64111300000059,95.25634799999989,97.94873000000007,101.79492200000004,107.82031300000017,115.51269500000035,109.48730499999965,107.05126999999993,107.82031300000017,102.94873000000007,94.23095699999976,-0.512695000000349,113.9741210000002
279,41.410155999999915,82.05126999999993,97.30761700000039,98.58984400000008,100.89746099999957,107.43603499999972,117.94873000000007,110.64111300000059,107.05126999999993,109.61523400000078,102.94873000000007,97.56396500000028,0.769043000000238,112.82031300000017
280,44.74365200000011,84.61523400000078,98.84619099999964,100.12841800000024,102.30761700000039,108.46142599999985,120.64111300000059,110.89746099999957,107.94873000000007,110.89746099999957,102.82031300000017,100.51269500000035,4.102539000000434,109.35888699999941
281,46.2822270000006,85.76904300000024,99.35888699999941,100.89746099999957,102.82031300000017,109.61523400000078,121.9228520000006,110.38476599999922,109.48730499999965,111.0258789999998,102.82031300000017,101.15380900000036,7.307617000000391,109.48730499999965
282,46.025878999999804,84.74365200000011,98.20507799999996,100.25634799999989,100.38476599999922,109.10253900000043,121.0258789999998,109.48730499999965,111.0258789999998,110.0,102.94873000000007,99.23095699999976,8.974121000000196,111.6665039999998
283,45.897460999999566,83.7177729999994,96.53857400000015,99.35888699999941,96.15380900000036,106.79492200000004,118.20507799999996,108.9741210000002,112.30761700000039,109.35888699999941,103.9741210000002,96.53857400000015,9.743652000000111,110.38476599999922
284,48.0771479999994,85.0,96.53857400000015,99.35888699999941,93.84619099999964,104.35888699999941,115.64111300000059,109.87158199999976,112.94873000000007,111.0258789999998,106.79492200000004,96.15380900000036,11.410155999999915,106.6665039999998
285,52.69238299999961,88.46142599999985,99.35888699999941,100.64111300000059,96.15380900000036,103.7177729999994,115.0,112.56396500000028,113.3334960000002,115.25634799999989,111.15380900000036,99.35888699999941,14.743652000000111,106.2822270000006
286,58.333496000000196,93.3334960000002,104.10253900000043,102.82031300000017,103.46142599999985,105.76904300000024,117.69238299999961,116.9228520000006,114.48730499999965,120.89746099999957,116.0258789999998,105.38476599999922,19.871581999999762,108.84619099999964
287,63.46142599999985,97.94873000000007,108.20507799999996,105.64111300000059,112.69238299999961,110.0,122.30761700000039,121.6665039999998,117.82031300000017,126.15380900000036,119.74365200000011,111.6665039999998,26.153809000000365,108.7177729999994
288,65.76904300000024,100.76904300000024,108.9741210000002,108.3334960000002,119.48730499999965,113.58984400000008,126.0258789999998,124.87158199999976,122.56396500000028,128.9741210000002,120.89746099999957,115.0,31.538574000000153,105.64111300000059
289,63.974121000000196,100.38476599999922,105.12841800000024,109.48730499999965,120.25634799999989,113.84619099999964,126.0258789999998,124.61523400000078,126.0258789999998,128.20507799999996,118.0771479999994,113.20507799999996,33.46142599999985,105.12841800000024
290,58.7177729999994,97.30761700000039,98.0771479999994,108.46142599999985,115.38476599999922,110.64111300000059,122.56396500000028,121.15380900000036,125.89746099999957,123.9741210000002,112.17968800000017,106.9228520000006,30.897460999999566,108.58984400000008
291,53.589844000000085,93.58984400000008,92.30761700000039,106.53857400000015,109.23095699999976,107.94873000000007,119.10253900000043,117.05126999999993,122.56396500000028,118.9741210000002,106.53857400000015,99.74365200000011,26.538574000000153,109.74365200000011
292,51.9228520000006,91.53857400000015,91.6665039999998,105.89746099999957,106.2822270000006,109.10253900000043,119.23095699999976,115.64111300000059,118.3334960000002,116.2822270000006,104.23095699999976,96.0258789999998,23.589844000000085,106.9228520000006
293,54.23095699999976,90.76904300000024,95.64111300000059,106.6665039999998,107.69238299999961,113.7177729999994,122.56396500000028,116.9228520000006,115.76904300000024,116.15380900000036,105.0,96.53857400000015,23.077147999999397,105.89746099999957
294,57.82031300000017,90.0,100.25634799999989,107.17968800000017,110.51269500000035,117.30761700000039,125.25634799999989,118.0771479999994,115.12841800000024,116.15380900000036,106.41015599999992,98.58984400000008,23.589844000000085,110.38476599999922
295,59.74365200000011,88.58984400000008,101.2822270000006,106.15380900000036,111.41015599999992,115.89746099999957,123.7177729999994,116.41015599999992,115.76904300000024,114.61523400000078,105.76904300000024,98.84619099999964,23.077147999999397,114.35888699999941
296,59.23095699999976,87.56396500000028,97.94873000000007,103.9741210000002,108.58984400000008,109.74365200000011,117.17968800000017,112.30761700000039,116.2822270000006,111.15380900000036,102.56396500000028,96.15380900000036,21.538574000000153,112.17968800000017
297,56.79492200000004,87.43603499999972,93.0771479999994,101.2822270000006,103.0771479999994,102.69238299999961,109.10253900000043,107.94873000000007,115.64111300000059,107.82031300000017,98.46142599999985,92.43603499999972,19.74365200000011,108.0771479999994
298,53.974121000000196,87.30761700000039,89.74365200000011,99.23095699999976,97.30761700000039,99.10253900000043,104.23095699999976,105.12841800000024,113.0771479999994,105.89746099999957,95.38476599999922,90.25634799999989,17.82031300000017,108.46142599999985
299,52.56396500000028,86.15380900000036,89.61523400000078,98.3334960000002,94.23095699999976,101.15380900000036,105.12841800000024,104.23095699999976,110.0,105.38476599999922,94.23095699999976,90.64111300000059,16.282227000000603,111.6665039999998
300,53.333496000000196,84.35888699999941,92.05126999999993,98.58984400000008,95.38476599999922,107.56396500000028,110.76904300000024,104.74365200000011,107.94873000000007,105.0,94.48730499999965,92.30761700000039,15.256347999999889,111.9228520000006
301,54.74365200000011,82.43603499999972,94.74365200000011,99.35888699999941,99.74365200000011,113.7177729999994,116.41015599999992,106.0258789999998,107.94873000000007,103.7177729999994,94.87158199999976,93.7177729999994,15.384765999999217,110.12841800000024
302,55.0,80.89746099999957,95.64111300000059,99.48730499999965,104.35888699999941,115.64111300000059,117.94873000000007,106.6665039999998,109.10253900000043,100.89746099999957,94.10253900000043,93.58984400000008,16.538574000000153,111.0258789999998
303,53.7177729999994,80.12841800000024,94.48730499999965,98.7177729999994,106.79492200000004,112.82031300000017,114.61523400000078,106.2822270000006,109.87158199999976,97.56396500000028,92.43603499999972,92.17968800000017,18.717772999999397,113.20507799999996
304,52.30761700000039,80.25634799999989,92.69238299999961,97.30761700000039,106.2822270000006,108.20507799999996,109.10253900000043,105.12841800000024,109.35888699999941,94.87158199999976,91.15380900000036,90.25634799999989,21.282227000000603,111.41015599999992
305,51.410155999999915,80.64111300000059,92.05126999999993,96.15380900000036,103.58984400000008,104.61523400000078,105.0,103.84619099999964,107.69238299999961,93.46142599999985,90.76904300000024,89.10253900000043,22.56396500000028,106.6665039999998
306,50.64111300000059,80.25634799999989,93.0771479999994,96.2822270000006,100.0,102.56396500000028,104.10253900000043,102.69238299999961,105.25634799999989,93.0771479999994,91.2822270000006,89.48730499999965,21.410155999999915,106.15380900000036
307,50.38476599999922,79.48730499999965,95.51269500000035,98.0771479999994,96.79492200000004,101.15380900000036,105.51269500000035,101.53857400000015,103.20507799999996,93.46142599999985,93.0771479999994,92.05126999999993,18.974121000000196,110.51269500000035
308,52.82031300000017,80.0,98.84619099999964,101.79492200000004,96.0258789999998,100.64111300000059,107.82031300000017,100.89746099999957,103.20507799999996,95.64111300000059,97.05126999999993,96.79492200000004,19.74365200000011,112.69238299999961
309,58.974121000000196,82.94873000000007,103.3334960000002,106.53857400000015,98.3334960000002,102.05126999999993,110.25634799999989,101.53857400000015,105.64111300000059,100.25634799999989,103.58984400000008,103.7177729999994,26.794922000000042,109.48730499999965
310,66.6665039999998,86.41015599999992,107.82031300000017,109.87158199999976,102.05126999999993,105.0,112.43603499999972,102.69238299999961,108.7177729999994,105.76904300000024,110.12841800000024,110.89746099999957,38.7177729999994,106.15380900000036
311,72.17968800000017,87.17968800000017,110.25634799999989,109.48730499999965,104.35888699999941,107.94873000000007,113.3334960000002,103.20507799999996,109.87158199999976,109.48730499999965,113.3334960000002,115.25634799999989,49.87158199999976,107.05126999999993
312,73.46142599999985,84.61523400000078,109.48730499999965,105.51269500000035,103.84619099999964,109.23095699999976,112.82031300000017,103.0771479999994,108.3334960000002,109.10253900000043,111.9228520000006,114.87158199999976,55.12841800000024,108.3334960000002
313,72.69238299999961,81.2822270000006,106.6665039999998,101.15380900000036,101.53857400000015,109.23095699999976,111.6665039999998,103.0771479999994,106.0258789999998,106.0258789999998,107.69238299999961,110.51269500000035,53.0771479999994,106.79492200000004
314,72.94873000000007,80.38476599999922,104.74365200000011,99.74365200000011,99.48730499999965,108.9741210000002,110.76904300000024,104.48730499999965,105.12841800000024,103.20507799999996,104.48730499999965,106.0258789999998,47.05126999999993,106.2822270000006
315,76.2822270000006,83.58984400000008,105.38476599999922,102.43603499999972,99.10253900000043,109.10253900000043,110.64111300000059,107.05126999999993,107.05126999999993,103.7177729999994,105.12841800000024,105.25634799999989,42.69238299999961,110.0
316,81.6665039999998,89.74365200000011,107.69238299999961,107.56396500000028,101.41015599999992,110.38476599999922,111.0258789999998,109.74365200000011,110.76904300000024,107.94873000000007,109.74365200000011,108.7177729999994,44.102539000000434,113.0771479999994
317,86.6665039999998,95.89746099999957,109.61523400000078,111.2822270000006,105.76904300000024,112.69238299999961,111.53857400000015,111.6665039999998,114.35888699999941,113.7177729999994,115.89746099999957,114.23095699999976,51.153809000000365,110.25634799999989
318,88.46142599999985,97.82031300000017,110.0,110.89746099999957,109.74365200000011,114.35888699999941,111.79492200000004,112.17968800000017,116.0258789999998,117.30761700000039,119.87158199999976,118.20507799999996,59.23095699999976,105.25634799999989
319,85.64111300000059,93.9741210000002,108.58984400000008,106.79492200000004,110.64111300000059,113.84619099999964,111.2822270000006,111.41015599999992,114.74365200000011,116.53857400000015,119.61523400000078,118.3334960000002,62.69238299999961,105.51269500000035
320,80.51269500000035,86.9228520000006,105.51269500000035,102.05126999999993,107.94873000000007,111.6665039999998,110.38476599999922,110.51269500000035,111.53857400000015,112.69238299999961,115.89746099999957,114.48730499999965,60.897460999999566,110.25634799999989
321,76.79492200000004,81.6665039999998,101.41015599999992,100.0,103.46142599999985,109.87158199999976,109.61523400000078,111.0258789999998,109.10253900000043,109.48730499999965,112.05126999999993,109.48730499999965,57.17968800000017,112.69238299999961
322,76.6665039999998,80.89746099999957,98.0771479999994,100.64111300000059,99.74365200000011,109.48730499999965,109.74365200000011,112.94873000000007,109.10253900000043,109.61523400000078,110.12841800000024,105.89746099999957,55.38476599999922,111.9228520000006
323,77.56396500000028,83.20507799999996,96.41015599999992,101.9228520000006,97.82031300000017,110.0,110.25634799999989,114.74365200000011,111.2822270000006,112.30761700000039,109.10253900000043,103.9741210000002,55.897460999999566,112.30761700000039
324,76.15380900000036,85.25634799999989,96.0258789999998,102.17968800000017,97.94873000000007,109.87158199999976,111.2822270000006,114.35888699999941,113.58984400000008,113.7177729999994,107.43603499999972,102.94873000000007,56.53857400000015,113.7177729999994
325,72.43603499999972,86.15380900000036,96.2822270000006,101.79492200000004,100.25634799999989,109.74365200000011,113.0771479999994,111.9228520000006,114.35888699999941,111.6665039999998,105.25634799999989,101.9228520000006,56.025878999999804,111.2822270000006
326,69.87158199999976,86.9228520000006,97.56396500000028,102.43603499999972,104.61523400000078,110.76904300000024,116.0258789999998,109.10253900000043,113.46142599999985,107.30761700000039,104.35888699999941,101.6665039999998,54.48730499999965,105.89746099999957
327,71.79492200000004,88.7177729999994,100.0,104.48730499999965,109.87158199999976,113.20507799999996,119.23095699999976,107.69238299999961,111.6665039999998,103.9741210000002,105.89746099999957,102.69238299999961,53.46142599999985,104.74365200000011
328,78.58984400000008,92.30761700000039,102.82031300000017,106.79492200000004,113.9741210000002,116.53857400000015,121.6665039999998,109.10253900000043,110.51269500000035,104.74365200000011,109.23095699999976,105.0,54.74365200000011,109.10253900000043
329,88.3334960000002,97.82031300000017,104.61523400000078,108.7177729999994,116.41015599999992,120.38476599999922,123.20507799999996,113.46142599999985,111.6665039999998,110.64111300000059,113.3334960000002,108.20507799999996,59.35888699999941,112.30761700000039
330,97.43603499999972,104.23095699999976,105.0,110.38476599999922,117.69238299999961,123.9741210000002,124.87158199999976,119.87158199999976,115.76904300000024,119.48730499999965,117.05126999999993,111.41015599999992,66.2822270000006,110.38476599999922
331,100.76904300000024,108.7177729999994,104.35888699999941,111.53857400000015,117.82031300000017,125.89746099999957,126.79492200000004,125.25634799999989,121.15380900000036,126.9228520000006,118.84619099999964,113.0771479999994,71.79492200000004,108.20507799999996
332,95.12841800000024,108.7177729999994,102.69238299999961,111.6665039999998,116.79492200000004,125.12841800000024,127.82031300000017,126.41015599999992,124.74365200000011,129.10253900000043,117.82031300000017,112.05126999999993,73.3334960000002,110.0
333,86.2822270000006,104.61523400000078,100.76904300000024,110.64111300000059,115.38476599999922,122.94873000000007,127.43603499999972,122.56396500000028,124.61523400000078,125.51269500000035,115.38476599999922,109.48730499999965,71.9228520000006,111.79492200000004
334,87.94873000000007,100.0,100.51269500000035,109.74365200000011,114.61523400000078,120.89746099999957,125.89746099999957,116.2822270000006,121.2822270000006,119.10253900000043,113.9741210000002,108.9741210000002,71.53857400000015,109.35888699999941
335,112.69238299999961,98.7177729999994,104.35888699999941,110.51269500000035,114.35888699999941,119.48730499999965,123.9741210000002,110.89746099999957,116.0258789999998,112.94873000000007,115.38476599999922,114.48730499999965,74.87158199999976,106.53857400000015
336,159.61523400000078,102.56396500000028,111.6665039999998,113.20507799999996,113.3334960000002,118.46142599999985,121.6665039999998,108.20507799999996,110.76904300000024,108.58984400000008,118.7177729999994,126.2822270000006,80.25634799999989,108.58984400000008
337,213.46142599999985,110.38476599999922,120.0,116.9228520000006,111.79492200000004,117.56396500000028,119.23095699999976,108.0771479999994,107.56396500000028,106.6665039999998,121.53857400000015,140.38476599999922,84.35888699999941,112.17968800000017
338,252.6923829999996,119.23095699999976,125.64111300000059,120.12841800000024,110.76904300000024,117.82031300000017,117.30761700000039,108.20507799999996,107.30761700000039,106.2822270000006,122.43603499999972,151.41015599999992,84.74365200000011,110.76904300000024
339,261.53857400000015,124.61523400000078,126.53857400000015,120.89746099999957,110.64111300000059,119.10253900000043,115.64111300000059,106.6665039999998,108.7177729999994,105.76904300000024,121.0258789999998,154.87158199999976,82.30761700000039,106.41015599999992
340,238.3334960000002,122.05126999999993,122.17968800000017,118.0771479999994,110.51269500000035,120.12841800000024,113.7177729999994,103.20507799999996,109.35888699999941,103.7177729999994,117.43603499999972,148.58984400000008,79.61523400000078,106.15380900000036
341,197.3076170000004,111.6665039999998,114.10253900000043,112.94873000000007,110.0,119.74365200000011,111.53857400000015,99.87158199999976,108.3334960000002,100.0,113.0771479999994,134.87158199999976,79.61523400000078,110.25634799999989
342,161.41015599999992,98.58984400000008,105.25634799999989,108.7177729999994,110.0,117.94873000000007,110.38476599999922,99.35888699999941,106.41015599999992,96.0258789999998,109.61523400000078,119.61523400000078,82.69238299999961,112.05126999999993
343,150.51269500000035,89.74365200000011,98.9741210000002,108.20507799999996,111.53857400000015,115.89746099999957,111.0258789999998,102.17968800000017,105.25634799999989,94.10253900000043,108.46142599999985,109.23095699999976,86.2822270000006,110.25634799999989
344,173.84619099999964,89.23095699999976,97.05126999999993,111.6665039999998,114.10253900000043,114.23095699999976,112.56396500000028,106.53857400000015,106.15380900000036,95.64111300000059,109.74365200000011,107.56396500000028,87.43603499999972,110.38476599999922
345,229.61523400000078,96.0258789999998,99.87158199999976,117.43603499999972,115.89746099999957,112.69238299999961,113.0771479999994,109.74365200000011,108.58984400000008,100.25634799999989,113.0771479999994,115.12841800000024,87.56396500000028,113.7177729999994
346,308.20507799999996,105.76904300000024,107.43603499999972,123.9741210000002,116.6665039999998,111.9228520000006,112.05126999999993,110.76904300000024,111.79492200000004,106.6665039999998,117.94873000000007,129.10253900000043,92.69238299999961,114.74365200000011
347,392.94873000000007,112.94873000000007,117.56396500000028,130.51269500000035,116.6665039999998,112.05126999999993,110.64111300000059,109.87158199999976,113.84619099999964,112.30761700000039,123.0771479999994,145.12841800000024,107.56396500000028,111.15380900000036
348,463.0771479999994,113.7177729999994,126.0258789999998,135.6411130000006,115.76904300000024,112.17968800000017,110.38476599999922,108.46142599999985,113.3334960000002,114.87158199999976,126.41015599999992,157.56396500000028,130.0,108.58984400000008
349,500.51269500000035,107.56396500000028,127.69238299999961,137.17968800000017,113.0771479999994,111.6665039999998,111.41015599999992,107.82031300000017,110.25634799999989,113.46142599999985,125.76904300000024,161.41015599999992,151.9228520000006,111.0258789999998
350,500.89746099999957,98.46142599999985,121.2822270000006,134.61523400000078,109.10253900000043,110.64111300000059,113.20507799999996,108.58984400000008,106.6665039999998,110.0,121.79492200000004,155.2563479999999,166.9228520000006,113.84619099999964
351,477.3076170000004,92.30761700000039,110.12841800000024,129.61523400000078,106.15380900000036,110.0,114.61523400000078,110.0,105.25634799999989,107.69238299999961,116.6665039999998,142.94873000000007,175.12841800000024,112.30761700000039
352,454.3588869999994,92.82031300000017,100.76904300000024,125.89746099999957,106.15380900000036,110.12841800000024,114.74365200000011,110.64111300000059,106.79492200000004,109.23095699999976,113.3334960000002,131.6665039999998,183.0771479999994,110.12841800000024
353,455.51269500000035,99.10253900000043,98.0771479999994,126.41015599999992,109.23095699999976,111.2822270000006,113.58984400000008,110.0,109.35888699999941,114.23095699999976,113.46142599999985,128.3334960000002,198.46142599999985,112.43603499999972
354,488.9741210000002,107.43603499999972,102.94873000000007,132.56396500000028,113.9741210000002,113.20507799999996,112.30761700000039,109.35888699999941,111.0258789999998,120.12841800000024,116.9228520000006,134.87158199999976,225.38476599999922,115.76904300000024
355,542.9487300000001,113.7177729999994,111.79492200000004,141.9228520000006,117.94873000000007,115.64111300000059,112.17968800000017,109.87158199999976,111.2822270000006,123.9741210000002,122.17968800000017,147.56396500000028,261.6665039999998,114.35888699999941
356,594.3588869999994,116.0258789999998,119.10253900000043,150.12841800000024,118.84619099999964,117.30761700000039,113.7177729999994,111.41015599999992,110.89746099999957,123.46142599999985,126.9228520000006,159.3588869999994,301.15380900000036,110.0
357,627.3076170000004,116.53857400000015,121.79492200000004,153.46142599999985,115.51269500000035,116.53857400000015,115.64111300000059,112.17968800000017,110.12841800000024,119.10253900000043,129.61523400000078,165.38476599999922,338.7177729999994,109.48730499999965
358,641.9228520000006,118.84619099999964,120.38476599999922,152.56396500000028,110.0,113.46142599999985,116.0258789999998,110.89746099999957,108.9741210000002,113.0771479999994,130.76904300000024,165.2563479999999,375.12841800000024,112.69238299999961
359,647.5639650000003,125.0,117.56396500000028,150.76904300000024,105.64111300000059,110.51269500000035,114.61523400000078,108.58984400000008,107.82031300000017,108.9741210000002,131.53857400000015,162.43603499999972,415.0,113.46142599999985
360,650.2563479999999,132.43603499999972,115.64111300000059,150.6411130000006,104.23095699999976,109.48730499999965,112.30761700000039,106.9228520000006,107.05126999999993,109.10253900000043,131.9228520000006,159.7436520000001,460.51269500000035,110.64111300000059
361,648.8461909999996,136.9228520000006,114.10253900000043,152.05126999999993,104.48730499999965,110.51269500000035,111.2822270000006,107.30761700000039,106.9228520000006,112.17968800000017,130.76904300000024,157.82031300000017,507.82031300000017,109.61523400000078
362,641.794922,138.3334960000002,112.17968800000017,152.94873000000007,104.48730499999965,111.9228520000006,112.17968800000017,108.84619099999964,106.53857400000015,115.0,127.56396500000028,155.51269500000035,551.4101559999999,111.2822270000006
363,632.1796880000002,140.38476599999922,109.48730499999965,152.94873000000007,103.7177729999994,112.43603499999972,114.48730499999965,110.64111300000059,105.51269500000035,115.12841800000024,123.84619099999964,152.05126999999993,590.5126950000003,110.89746099999957
364,627.3076170000004,148.20507799999996,107.43603499999972,153.0771479999994,103.3334960000002,111.15380900000036,116.2822270000006,111.79492200000004,103.3334960000002,112.43603499999972,121.79492200000004,149.3588869999994,630.5126950000003,107.56396500000028
365,633.8461909999996,162.56396500000028,107.30761700000039,155.2563479999999,103.0771479999994,107.56396500000028,115.89746099999957,111.53857400000015,99.48730499999965,108.58984400000008,121.9228520000006,150.12841800000024,678.0771479999994,107.43603499999972
366,651.9228520000006,179.7436520000001,109.10253900000043,159.23095699999976,101.79492200000004,103.20507799999996,112.94873000000007,109.61523400000078,94.74365200000011,105.64111300000059,123.0771479999994,155.12841800000024,737.0512699999999,112.56396500000028
367,673.205078,195.0,111.53857400000015,163.3334960000002,98.58984400000008,100.64111300000059,109.61523400000078,107.17968800000017,91.41015599999992,105.0,124.48730499999965,162.17968800000017,805.8974609999996,116.15380900000036
368,683.9741210000002,206.0258789999998,112.30761700000039,164.87158199999976,94.23095699999976,101.2822270000006,108.0771479999994,105.76904300000024,91.15380900000036,106.53857400000015,125.76904300000024,167.17968800000017,878.5898440000001,113.20507799999996
369,674.3588869999994,214.7436520000001,110.38476599999922,162.94873000000007,90.89746099999957,103.3334960000002,108.58984400000008,105.25634799999989,93.58984400000008,108.3334960000002,126.9228520000006,166.79492200000004,947.8203130000002,108.58984400000008
370,647.5639650000003,225.51269500000035,106.15380900000036,159.61523400000078,91.15380900000036,104.10253900000043,109.74365200000011,104.35888699999941,95.76904300000024,108.58984400000008,127.82031300000017,161.41015599999992,1008.205078,108.3334960000002
371,620.3847659999992,243.0771479999994,102.17968800000017,158.58984400000008,96.2822270000006,103.0771479999994,110.0,102.82031300000017,95.51269500000035,107.56396500000028,129.48730499999965,155.12841800000024,1060.0,110.0
372,612.3076170000004,268.3334960000002,101.9228520000006,161.9228520000006,104.87158199999976,101.79492200000004,109.48730499999965,102.05126999999993,93.58984400000008,107.30761700000039,133.3334960000002,153.7177729999994,1107.05127,109.10253900000043
373,628.5898440000001,296.79492200000004,106.41015599999992,168.0771479999994,112.30761700000039,101.9228520000006,108.84619099999964,103.7177729999994,92.05126999999993,108.7177729999994,139.48730499999965,159.23095699999976,1152.3076170000004,107.94873000000007
374,656.1538090000004,321.4101559999999,112.30761700000039,172.6923829999996,113.9741210000002,102.56396500000028,109.10253900000043,107.56396500000028,92.94873000000007,110.64111300000059,145.6411130000006,168.20507799999996,1194.6152340000008,111.2822270000006
375,674.1025390000004,338.0771479999994,114.87158199999976,172.3076170000004,109.74365200000011,102.82031300000017,110.51269500000035,111.53857400000015,96.41015599999992,111.6665039999998,150.0,173.84619099999964,1229.743652,115.64111300000059
376,672.3076170000004,347.6923829999996,112.56396500000028,167.94873000000007,103.58984400000008,102.30761700000039,112.69238299999961,113.7177729999994,100.25634799999989,111.6665039999998,152.05126999999993,173.3334960000002,1254.8715819999998,114.87158199999976
377,659.3588869999994,354.3588869999994,108.7177729999994,163.84619099999964,99.87158199999976,101.2822270000006,114.10253900000043,113.58984400000008,102.05126999999993,111.53857400000015,153.7177729999994,169.3588869999994,1270.3847659999992,110.76904300000024
378,652.6923829999996,361.15380900000036,108.3334960000002,163.3334960000002,99.87158199999976,99.48730499999965,113.58984400000008,111.79492200000004,100.25634799999989,111.6665039999998,156.0258789999998,167.6923829999996,1278.8461909999996,110.38476599999922
379,660.0,369.48730499999965,112.43603499999972,166.15380900000036,101.79492200000004,96.9228520000006,111.41015599999992,110.12841800000024,96.2822270000006,111.79492200000004,158.0771479999994,170.38476599999922,1281.9228520000006,114.10253900000043
380,672.8203130000002,379.23095699999976,118.0771479999994,169.3588869999994,103.3334960000002,94.48730499999965,109.35888699999941,110.0,93.46142599999985,110.89746099999957,157.82031300000017,174.61523400000078,1281.0258789999998,115.0
381,676.794922,390.3847659999992,121.0258789999998,170.89746099999957,103.46142599999985,93.3334960000002,109.10253900000043,111.15380900000036,93.3334960000002,108.7177729999994,154.7436520000001,176.0258789999998,1277.1796880000002,111.53857400000015
382,667.0512699999999,403.20507799999996,119.61523400000078,170.76904300000024,102.69238299999961,93.58984400000008,110.76904300000024,111.9228520000006,94.74365200000011,105.64111300000059,150.2563479999999,173.3334960000002,1272.4360349999997,109.23095699999976
383,653.4614259999998,416.79492200000004,115.76904300000024,171.41015599999992,102.56396500000028,94.87158199999976,113.46142599999985,110.64111300000059,95.25634799999989,102.17968800000017,147.3076170000004,169.61523400000078,1270.256348,111.15380900000036
