,EEG.AF3,EEG.F7,EEG.F3,EEG.FC5,EEG.T7,EEG.P7,EEG.O1,EEG.O2,EEG.P8,EEG.T8,EEG.FC6,EEG.F4,EEG.F8,EEG.AF4
0,36.9228520000006,-89.23071300000038,103.7177729999994,101.9228520000006,129.23095699999976,137.6923829999996,120.38476599999922,112.17968800000017,114.61523400000078,127.82031300000017,110.38476599999922,123.46142599999985,-113.07690400000001,106.15380900000036
1,33.974121000000196,-92.43579099999943,102.82031300000017,100.51269500000035,128.46142599999985,136.15380900000036,118.0771479999994,114.87158199999976,115.76904300000024,129.3588869999994,111.53857400000015,124.61523400000078,-110.1281740000004,107.94873000000007
2,30.897460999999566,-95.25634799999989,101.41015599999992,99.10253900000043,122.69238299999961,133.46142599999985,117.94873000000007,117.30761700000039,118.0771479999994,129.87158199999976,111.79492200000004,124.35888699999941,-109.8718259999996,107.30761700000039
3,29.871581999999762,-95.76928699999962,100.0,97.94873000000007,116.53857400000015,130.76904300000024,119.61523400000078,118.9741210000002,120.89746099999957,130.6411130000006,112.43603499999972,122.69238299999961,-111.15380900000036,105.38476599999922
4,30.769043000000238,-94.61547900000005,98.84619099999964,97.17968800000017,112.69238299999961,128.9741210000002,121.0258789999998,119.87158199999976,123.3334960000002,131.9228520000006,113.0771479999994,120.64111300000059,-113.07690400000001,107.69238299999961
5,32.56396500000028,-92.82055700000001,98.58984400000008,97.43603499999972,111.6665039999998,128.46142599999985,121.15380900000036,120.0,124.10253900000043,131.9228520000006,113.20507799999996,119.48730499999965,-114.61547900000005,112.56396500000028
6,34.35888699999941,-91.53857400000015,99.87158199999976,98.9741210000002,112.17968800000017,129.10253900000043,120.12841800000024,119.48730499999965,122.94873000000007,130.38476599999922,112.82031300000017,119.74365200000011,-113.46142599999985,113.46142599999985
7,36.153809000000365,-90.64111300000013,102.82031300000017,101.41015599999992,112.82031300000017,129.61523400000078,119.10253900000043,118.46142599999985,120.38476599999922,128.58984400000008,113.3334960000002,121.9228520000006,-108.71801800000003,110.0
8,38.20507799999996,-90.0,106.0258789999998,103.84619099999964,112.82031300000017,129.10253900000043,118.7177729999994,117.56396500000028,117.43603499999972,128.3334960000002,115.25634799999989,125.12841800000024,-101.02563499999997,108.20507799999996
9,40.64111300000059,-88.33325200000036,107.94873000000007,105.51269500000035,112.82031300000017,128.20507799999996,119.87158199999976,117.05126999999993,116.15380900000036,130.51269500000035,118.46142599999985,127.82031300000017,-92.43579099999943,109.74365200000011
10,43.46142599999985,-85.0,108.7177729999994,106.6665039999998,114.48730499999965,128.58984400000008,122.69238299999961,117.82031300000017,117.82031300000017,134.48730499999965,121.9228520000006,128.7177729999994,-85.25634799999989,110.0
11,45.12841800000024,-80.51293900000019,109.48730499999965,107.56396500000028,118.20507799999996,131.0258789999998,125.89746099999957,119.87158199999976,122.17968800000017,138.0771479999994,124.48730499999965,128.20507799999996,-81.92309599999999,107.56396500000028
12,43.974121000000196,-77.56420900000057,110.76904300000024,108.0771479999994,122.17968800000017,133.46142599999985,127.94873000000007,121.6665039999998,126.41015599999992,139.10253900000043,124.23095699999976,127.43603499999972,-83.46142599999985,107.56396500000028
13,39.61523400000078,-77.82055700000001,111.6665039999998,107.82031300000017,124.48730499999965,133.84619099999964,127.43603499999972,121.79492200000004,127.30761700000039,136.9228520000006,120.51269500000035,127.17968800000017,-88.20507799999996,112.05126999999993
14,34.23095699999976,-80.25634799999989,111.79492200000004,107.05126999999993,125.38476599999922,132.17968800000017,125.76904300000024,119.87158199999976,124.23095699999976,133.20507799999996,115.51269500000035,127.56396500000028,-92.05127000000039,114.48730499999965
15,31.153809000000365,-82.56420900000057,111.79492200000004,106.41015599999992,126.53857400000015,130.89746099999957,124.74365200000011,117.05126999999993,119.35888699999941,130.51269500000035,112.17968800000017,127.94873000000007,-91.41015600000037,110.64111300000059
16,31.538574000000153,-83.46142599999985,111.6665039999998,106.15380900000036,128.20507799999996,131.53857400000015,125.0,115.12841800000024,115.89746099999957,130.6411130000006,112.17968800000017,127.56396500000028,-86.79492200000004,105.76904300000024
17,34.23095699999976,-82.82055700000001,111.15380900000036,105.76904300000024,129.10253900000043,132.94873000000007,125.0,114.74365200000011,115.25634799999989,132.3076170000004,114.48730499999965,126.9228520000006,-81.02563499999997,106.41015599999992
18,37.05126999999993,-80.0,110.0,105.89746099999957,128.46142599999985,133.3334960000002,123.58984400000008,115.64111300000059,116.79492200000004,133.20507799999996,117.17968800000017,126.0258789999998,-76.92309599999999,110.25634799999989
19,39.61523400000078,-74.74365200000011,109.10253900000043,107.17968800000017,126.41015599999992,132.17968800000017,121.41015599999992,116.53857400000015,118.58984400000008,131.6665039999998,118.3334960000002,125.38476599999922,-75.1281740000004,111.2822270000006
20,42.56396500000028,-68.46142599999985,108.7177729999994,109.48730499999965,124.74365200000011,129.87158199999976,120.51269500000035,116.15380900000036,118.58984400000008,127.43603499999972,116.79492200000004,125.25634799999989,-75.25634799999989,110.25634799999989
21,46.410155999999915,-65.51293900000019,108.58984400000008,111.0258789999998,123.9741210000002,126.9228520000006,122.30761700000039,114.35888699999941,116.0258789999998,122.82031300000017,113.46142599999985,125.76904300000024,-76.79492200000004,111.0258789999998
22,49.74365200000011,-68.58984399999963,107.56396500000028,109.74365200000011,123.3334960000002,124.87158199999976,125.51269500000035,112.43603499999972,112.56396500000028,120.76904300000024,110.0,126.79492200000004,-78.84619099999964,112.30761700000039
23,52.17968800000017,-76.28198199999997,106.0258789999998,105.76904300000024,121.15380900000036,124.23095699999976,127.82031300000017,111.53857400000015,110.25634799999989,121.9228520000006,107.56396500000028,127.30761700000039,-80.64111300000013,109.48730499999965
24,55.897460999999566,-83.20507799999996,105.0,101.9228520000006,115.89746099999957,124.35888699999941,127.05126999999993,111.6665039999998,110.0,123.46142599999985,106.79492200000004,127.56396500000028,-81.02563499999997,104.87158199999976
25,65.51269500000035,-82.82055700000001,106.53857400000015,101.79492200000004,108.0771479999994,122.56396500000028,122.17968800000017,111.15380900000036,110.0,121.41015599999992,108.3334960000002,128.9741210000002,-78.07690400000001,105.38476599999922
26,84.10253900000043,-71.28198199999997,110.89746099999957,106.53857400000015,100.89746099999957,118.3334960000002,114.61523400000078,108.9741210000002,108.9741210000002,115.76904300000024,113.58984400000008,133.7177729999994,-69.10253899999998,110.89746099999957
27,109.23095699999976,-50.89746100000002,116.9228520000006,114.35888699999941,98.46142599999985,114.10253900000043,107.94873000000007,106.2822270000006,107.56396500000028,110.25634799999989,122.69238299999961,142.82031300000017,-53.20507799999996,114.10253900000043
28,135.38476599999922,-30.512939000000188,122.82031300000017,122.05126999999993,102.56396500000028,113.0771479999994,105.12841800000024,105.38476599999922,107.56396500000028,109.74365200000011,133.7177729999994,154.7436520000001,-33.07690400000001,111.9228520000006
29,158.9741210000002,-20.0,127.30761700000039,126.41015599999992,110.25634799999989,115.51269500000035,106.41015599999992,106.79492200000004,109.61523400000078,115.25634799999989,142.82031300000017,165.51269500000035,-14.743652000000111,109.48730499999965
30,180.89746099999957,-21.794922000000042,128.9741210000002,126.79492200000004,116.2822270000006,118.58984400000008,108.9741210000002,108.9741210000002,112.30761700000039,123.20507799999996,146.6665039999998,171.79492200000004,-2.9487300000000687,110.12841800000024
31,205.38476599999922,-27.948729999999614,127.82031300000017,125.64111300000059,117.82031300000017,119.48730499999965,110.12841800000024,109.74365200000011,113.7177729999994,128.58984400000008,145.2563479999999,172.94873000000007,2.6923829999996087,110.12841800000024
32,235.89746099999957,-26.794922000000042,125.89746099999957,126.2822270000006,115.89746099999957,117.69238299999961,108.3334960000002,107.82031300000017,112.30761700000039,128.20507799999996,141.15380900000036,171.15380900000036,7.56396500000028,107.17968800000017
33,273.3334960000002,-12.051270000000386,126.2822270000006,130.6411130000006,112.82031300000017,114.48730499999965,105.0,103.84619099999964,108.7177729999994,123.0771479999994,138.20507799999996,170.76904300000024,17.56396500000028,106.53857400000015
34,315.12841800000024,11.666503999999804,129.87158199999976,137.43603499999972,110.38476599999922,112.30761700000039,102.69238299999961,100.12841800000024,105.12841800000024,118.0771479999994,138.9741210000002,173.9741210000002,36.2822270000006,111.2822270000006
35,357.4360349999997,34.23095699999976,134.61523400000078,143.58984400000008,110.12841800000024,112.94873000000007,103.58984400000008,98.9741210000002,103.9741210000002,117.82031300000017,143.9741210000002,180.51269500000035,64.87158199999976,116.2822270000006
36,398.3334960000002,49.23095699999976,138.20507799999996,147.43603499999972,111.41015599999992,116.6665039999998,107.56396500000028,101.2822270000006,106.0258789999998,122.69238299999961,151.79492200000004,188.46142599999985,104.61523400000078,115.38476599999922
37,438.5898440000001,59.61523400000078,139.61523400000078,149.61523400000078,112.17968800000017,120.51269500000035,111.79492200000004,105.0,109.23095699999976,128.46142599999985,159.48730499999965,195.76904300000024,156.15380900000036,111.9228520000006
38,480.89746099999957,76.15380900000036,139.48730499999965,153.0771479999994,111.53857400000015,121.2822270000006,112.94873000000007,106.15380900000036,110.0,129.48730499999965,163.3334960000002,200.89746099999957,218.20507799999996,112.69238299999961
39,525.5126950000003,107.43603499999972,138.7177729999994,159.3588869999994,110.76904300000024,118.20507799999996,109.48730499999965,102.82031300000017,106.41015599999992,123.58984400000008,161.15380900000036,203.0771479999994,288.46142599999985,116.0258789999998
40,567.3076170000004,152.43603499999972,137.6923829999996,167.56396500000028,112.17968800000017,113.58984400000008,103.0771479999994,96.15380900000036,100.0,113.3334960000002,154.3588869999994,202.56396500000028,366.6665039999998,115.51269500000035
41,599.1025390000004,202.05126999999993,136.53857400000015,175.12841800000024,114.23095699999976,110.0,97.05126999999993,90.0,94.48730499999965,104.48730499999965,147.82031300000017,201.41015599999992,459.3588869999994,111.6665039999998
42,619.8715819999998,249.61523400000078,136.15380900000036,180.38476599999922,112.69238299999961,108.0771479999994,93.84619099999964,87.69238299999961,92.94873000000007,101.41015599999992,146.0258789999998,202.05126999999993,577.9487300000001,110.76904300000024
43,638.205078,299.7436520000001,136.53857400000015,184.7436520000001,105.12841800000024,106.9228520000006,94.23095699999976,89.87158199999976,96.2822270000006,104.87158199999976,150.12841800000024,206.41015599999992,732.3076170000004,113.3334960000002
44,663.8461909999996,363.84619099999964,137.6923829999996,191.41015599999992,95.0,106.2822270000006,96.6665039999998,95.0,102.17968800000017,111.2822270000006,157.05126999999993,213.9741210000002,922.5639650000003,113.84619099999964
45,697.8203130000002,450.76904300000024,138.46142599999985,201.9228520000006,88.46142599999985,105.76904300000024,98.3334960000002,99.10253900000043,107.05126999999993,115.76904300000024,161.2822270000006,221.6665039999998,1135.5126950000003,111.15380900000036
46,733.4614259999998,557.8203130000002,137.56396500000028,215.76904300000024,88.46142599999985,104.48730499999965,97.05126999999993,98.7177729999994,107.30761700000039,114.87158199999976,159.23095699999976,225.6411130000006,1352.05127,110.25634799999989
47,766.9228520000006,673.5898440000001,135.38476599999922,231.41015599999992,93.46142599999985,102.17968800000017,93.46142599999985,93.3334960000002,102.69238299999961,108.58984400000008,152.05126999999993,224.87158199999976,1559.8715819999998,112.43603499999972
48,799.6152340000008,785.2563479999999,134.3588869999994,247.56396500000028,98.84619099999964,99.10253900000043,90.0,86.15380900000036,96.53857400000015,100.38476599999922,145.6411130000006,221.9228520000006,1757.8203130000002,112.05126999999993
49,830.0,885.2563479999999,135.6411130000006,262.05126999999993,100.12841800000024,95.76904300000024,88.9741210000002,81.2822270000006,93.0771479999994,93.9741210000002,145.12841800000024,219.87158199999976,1949.1025390000004,107.43603499999972
50,846.6665039999998,971.6665039999998,136.79492200000004,271.2822270000006,95.25634799999989,92.17968800000017,89.35888699999941,80.51269500000035,93.7177729999994,89.48730499999965,148.7177729999994,217.94873000000007,2133.461426,105.0
51,839.4873049999997,1047.3076170000004,133.3334960000002,273.5898440000001,86.0258789999998,87.94873000000007,88.9741210000002,82.30761700000039,96.2822270000006,84.61523400000078,150.38476599999922,212.05126999999993,2308.205078,108.84619099999964
52,815.5126950000003,1118.205078,123.9741210000002,271.9228520000006,77.05126999999993,83.7177729999994,85.64111300000059,83.84619099999964,97.17968800000017,77.43603499999972,147.17968800000017,201.41015599999992,2472.4360349999997,113.3334960000002
53,797.8203130000002,1189.6152340000008,113.46142599999985,272.5639650000003,72.17968800000017,80.76904300000024,80.51269500000035,83.46142599999985,93.9741210000002,69.10253900000043,144.23095699999976,190.6411130000006,2628.9741209999993,112.30761700000039
54,806.794922,1263.0771479999994,108.46142599999985,280.0,71.41015599999992,78.84619099999964,75.64111300000059,80.51269500000035,87.17968800000017,62.30761700000039,150.38476599999922,186.6665039999998,2781.9228519999997,108.7177729999994
55,841.2822270000006,1335.1284180000002,111.53857400000015,292.82031300000017,71.6665039999998,77.05126999999993,73.3334960000002,76.0258789999998,79.48730499999965,58.974121000000196,169.10253900000043,191.53857400000015,2932.4360349999997,108.58984400000008
56,881.9228520000006,1400.1284180000002,119.23095699999976,305.3847659999992,70.12841800000024,75.12841800000024,74.10253900000043,71.6665039999998,74.48730499999965,58.20507799999996,195.2563479999999,200.2563479999999,3075.128418000001,110.76904300000024
57,907.4360349999997,1454.8715819999998,125.51269500000035,312.05126999999993,67.30761700000039,73.84619099999964,75.89746099999957,69.10253900000043,73.7177729999994,57.69238299999961,218.46142599999985,205.51269500000035,3196.1538090000004,110.89746099999957
58,908.3334960000002,1498.9741210000002,125.25634799999989,310.89746099999957,65.0,74.10253900000043,76.6665039999998,68.58984400000008,75.76904300000024,55.76904300000024,229.61523400000078,203.7177729999994,3280.5126950000003,110.64111300000059
59,889.2309569999998,1534.8715819999998,118.20507799999996,303.9741210000002,64.61523400000078,75.51269500000035,75.25634799999989,69.35888699999941,77.69238299999961,52.43603499999972,227.43603499999972,195.51269500000035,3327.1796879999993,113.7177729999994
60,863.205078,1567.1796880000002,108.58984400000008,296.79492200000004,65.64111300000059,77.30761700000039,73.0771479999994,70.64111300000059,77.94873000000007,49.87158199999976,219.10253900000043,185.6411130000006,3353.4614260000008,117.43603499999972
61,844.8715819999998,1600.256348,103.0771479999994,294.6152340000008,66.2822270000006,78.9741210000002,72.56396500000028,72.56396500000028,77.82031300000017,51.410155999999915,214.10253900000043,179.23095699999976,3380.769043000001,115.38476599999922
62,840.7690430000002,1633.3334960000002,104.61523400000078,298.3334960000002,64.23095699999976,79.23095699999976,74.35888699999941,75.12841800000024,78.84619099999964,57.43603499999972,216.15380900000036,177.43603499999972,3418.0771480000003,109.35888699999941
63,845.7690430000002,1659.743652,110.0,303.5898440000001,59.102539000000434,76.79492200000004,76.6665039999998,77.17968800000017,80.76904300000024,64.87158199999976,221.0258789999998,176.79492200000004,3459.1025390000004,107.82031300000017
64,847.6923829999996,1673.589844,113.20507799999996,304.3588869999994,52.82031300000017,71.79492200000004,76.9228520000006,77.56396500000028,81.79492200000004,68.46142599999985,221.79492200000004,173.0771479999994,3493.4614260000008,111.9228520000006
65,837.8203130000002,1677.8203130000002,110.64111300000059,298.9741210000002,49.48730499999965,66.9228520000006,74.35888699999941,75.89746099999957,81.0258789999998,66.15380900000036,216.6665039999998,165.12841800000024,3515.128418000001,114.48730499999965
66,819.4873049999997,1682.5639650000003,104.61523400000078,291.6665039999998,51.79492200000004,65.25634799999989,70.38476599999922,73.3334960000002,79.23095699999976,59.48730499999965,210.0,156.41015599999992,3522.6923829999996,111.6665039999998
67,802.5639650000003,1694.3588869999994,100.25634799999989,287.4360349999997,58.589844000000085,67.30761700000039,67.30761700000039,71.15380900000036,77.82031300000017,52.69238299999961,206.9228520000006,151.2822270000006,3519.743651999999,108.58984400000008
68,794.7436520000001,1709.2309569999998,100.25634799999989,287.5639650000003,65.76904300000024,71.41015599999992,66.79492200000004,69.74365200000011,78.0771479999994,49.48730499999965,208.84619099999964,151.6665039999998,3513.0771480000003,108.9741210000002
69,795.8974609999996,1718.205078,103.0771479999994,289.6152340000008,70.38476599999922,75.64111300000059,68.7177729999994,69.35888699999941,80.12841800000024,51.2822270000006,213.58984400000008,155.2563479999999,3508.7177730000003,109.35888699999941
70,800.2563479999999,1716.2822270000006,106.2822270000006,290.76904300000024,71.9228520000006,79.35888699999941,72.56396500000028,70.76904300000024,83.20507799999996,57.30761700000039,217.3076170000004,158.3334960000002,3507.05127,107.17968800000017
71,802.4360349999997,1709.3588869999994,108.7177729999994,290.3847659999992,70.89746099999957,81.53857400000015,77.05126999999993,73.84619099999964,85.76904300000024,64.35888699999941,218.0771479999994,158.46142599999985,3505.8974609999996,106.6665039999998
72,798.7177729999994,1709.4873049999997,110.25634799999989,289.6152340000008,67.94873000000007,82.17968800000017,80.38476599999922,77.17968800000017,86.2822270000006,68.58984400000008,215.6411130000006,155.2563479999999,3504.3588870000003,110.76904300000024
73,786.6665039999998,1725.8974609999996,111.41015599999992,290.3847659999992,63.974121000000196,81.41015599999992,81.0258789999998,78.7177729999994,84.48730499999965,67.43603499999972,211.79492200000004,149.87158199999976,3504.1025390000004,114.48730499999965
74,765.8974609999996,1756.5385740000002,111.15380900000036,292.17968800000017,61.2822270000006,80.0,78.3334960000002,77.05126999999993,81.79492200000004,61.410155999999915,207.3076170000004,143.20507799999996,3505.256348000001,112.30761700000039
75,739.1025390000004,1788.205078,108.7177729999994,293.0771479999994,61.153809000000365,78.3334960000002,72.69238299999961,72.56396500000028,79.61523400000078,52.94873000000007,202.17968800000017,136.0258789999998,3505.384765999999,107.94873000000007
76,714.1025390000004,1805.8974609999996,104.74365200000011,290.6411130000006,63.846190999999635,76.53857400000015,66.79492200000004,67.30761700000039,78.9741210000002,46.2822270000006,197.05126999999993,129.7436520000001,3503.205078,108.3334960000002
77,701.9228520000006,1804.2309569999998,101.6665039999998,285.12841800000024,68.0771479999994,76.0258789999998,64.10253900000043,64.74365200000011,80.0,44.61523400000078,194.61523400000078,127.43603499999972,3500.6411129999997,111.6665039999998
78,708.0771479999994,1790.5126950000003,102.30761700000039,279.3588869999994,72.94873000000007,78.3334960000002,67.82031300000017,67.43603499999972,82.82031300000017,49.87158199999976,198.0771479999994,131.53857400000015,3501.5385739999992,111.79492200000004
79,726.6665039999998,1777.6923829999996,107.82031300000017,275.51269500000035,76.41015599999992,82.94873000000007,76.9228520000006,75.25634799999989,87.17968800000017,59.74365200000011,207.05126999999993,141.0258789999998,3506.2822269999997,108.84619099999964
80,743.0771479999994,1773.9741210000002,115.51269500000035,274.3588869999994,77.17968800000017,86.6665039999998,86.9228520000006,84.74365200000011,91.79492200000004,69.74365200000011,216.53857400000015,150.89746099999957,3510.5126950000003,108.58984400000008
81,744.1025390000004,1780.7690430000002,120.89746099999957,274.87158199999976,75.64111300000059,87.30761700000039,92.69238299999961,91.41015599999992,95.0,76.15380900000036,220.76904300000024,155.38476599999922,3509.1025390000004,111.6665039999998
82,725.3847659999992,1792.6923829999996,120.64111300000059,275.51269500000035,74.48730499999965,85.64111300000059,91.6665039999998,92.94873000000007,95.51269500000035,77.17968800000017,217.56396500000028,151.53857400000015,3502.4360349999997,112.43603499999972
83,693.205078,1802.6923829999996,115.76904300000024,274.10253900000043,75.76904300000024,83.9741210000002,85.64111300000059,89.74365200000011,93.7177729999994,73.46142599999985,208.46142599999985,140.89746099999957,3495.384765999999,109.74365200000011
84,660.3847659999992,1804.6152340000008,109.61523400000078,269.10253900000043,77.43603499999972,83.0771479999994,78.20507799999996,83.46142599999985,90.25634799999989,66.41015599999992,197.82031300000017,128.7177729999994,3491.410156,108.58984400000008
85,639.4873049999997,1795.7690430000002,105.12841800000024,261.2822270000006,75.64111300000059,82.05126999999993,72.82031300000017,77.05126999999993,86.2822270000006,58.846190999999635,189.61523400000078,120.12841800000024,3488.0771480000003,110.76904300000024
86,633.9741210000002,1777.3076170000004,103.20507799999996,252.3076170000004,68.7177729999994,79.87158199999976,71.0258789999998,73.0771479999994,82.82031300000017,53.974121000000196,186.0258789999998,117.30761700000039,3479.4873049999997,111.0258789999998
87,635.8974609999996,1752.5639650000003,102.69238299999961,244.7436520000001,60.0,77.17968800000017,72.43603499999972,72.82031300000017,81.15380900000036,53.20507799999996,186.15380900000036,118.0771479999994,3462.8203129999993,107.43603499999972
88,632.8203130000002,1725.7690430000002,102.56396500000028,239.87158199999976,55.0,75.12841800000024,74.74365200000011,75.25634799999989,81.53857400000015,55.25634799999989,187.56396500000028,118.46142599999985,3438.589844,105.25634799999989
89,620.1284180000002,1701.9228520000006,102.94873000000007,238.20507799999996,57.05126999999993,74.87158199999976,75.89746099999957,77.94873000000007,83.46142599999985,57.43603499999972,188.58984400000008,116.41015599999992,3410.256348000001,108.20507799999996
90,606.6665039999998,1684.2309569999998,104.87158199999976,239.3588869999994,65.0,77.05126999999993,75.38476599999922,79.35888699999941,85.64111300000059,57.82031300000017,190.12841800000024,114.10253900000043,3383.205078,111.15380900000036
91,604.6152340000008,1672.05127,109.23095699999976,241.6665039999998,73.7177729999994,80.89746099999957,74.61523400000078,79.23095699999976,87.17968800000017,56.2822270000006,192.6923829999996,115.64111300000059,3361.794922,109.23095699999976
92,614.4873049999997,1659.6152340000008,114.61523400000078,242.56396500000028,77.94873000000007,84.48730499999965,74.61523400000078,77.69238299999961,86.9228520000006,53.333496000000196,194.87158199999976,121.79492200000004,3344.871581999999,106.2822270000006
93,621.5385740000002,1640.0,117.82031300000017,239.87158199999976,77.17968800000017,86.2822270000006,75.64111300000059,75.51269500000035,84.48730499999965,50.0,193.84619099999964,128.20507799999996,3323.0771480000003,107.82031300000017
94,609.3588869999994,1611.410156,116.15380900000036,233.9741210000002,75.12841800000024,86.9228520000006,77.30761700000039,73.84619099999964,81.2822270000006,47.30761700000039,188.46142599999985,128.9741210000002,3287.8203129999993,111.6665039999998
95,576.9228520000006,1578.589844,111.0258789999998,227.05126999999993,75.64111300000059,87.69238299999961,79.10253900000043,73.7177729999994,79.87158199999976,46.410155999999915,181.15380900000036,122.56396500000028,3241.410156,112.05126999999993
96,540.3847659999992,1548.8461909999996,106.2822270000006,222.05126999999993,78.46142599999985,89.10253900000043,80.12841800000024,75.38476599999922,81.0258789999998,47.56396500000028,175.6411130000006,113.46142599999985,3196.0258790000007,110.12841800000024
97,518.8461909999996,1526.9228520000006,105.38476599999922,219.48730499999965,79.87158199999976,90.0,79.74365200000011,77.17968800000017,83.84619099999964,49.48730499999965,174.10253900000043,108.0771479999994,3159.615234000001,111.53857400000015
98,517.8203130000002,1511.6665039999998,108.46142599999985,218.46142599999985,77.82031300000017,89.23095699999976,77.94873000000007,77.69238299999961,87.05126999999993,51.79492200000004,176.15380900000036,109.48730499999965,3128.0771480000003,115.0
99,527.8203130000002,1498.205078,113.0771479999994,218.0771479999994,74.61523400000078,88.3334960000002,76.41015599999992,77.30761700000039,89.87158199999976,55.12841800000024,179.7436520000001,115.38476599999922,3092.1796879999993,114.35888699999941
100,535.3847659999992,1482.1796880000002,117.30761700000039,217.6923829999996,73.9741210000002,89.10253900000043,76.79492200000004,77.56396500000028,92.17968800000017,60.25634799999989,182.94873000000007,121.6665039999998,3046.410156,108.9741210000002
101,534.8715819999998,1461.9228520000006,120.64111300000059,217.43603499999972,77.69238299999961,92.17968800000017,79.23095699999976,79.74365200000011,93.84619099999964,66.6665039999998,185.12841800000024,125.76904300000024,2990.8974609999996,105.64111300000059
102,529.1025390000004,1438.4614259999998,123.0771479999994,216.6665039999998,83.84619099999964,96.15380900000036,82.69238299999961,83.7177729999994,95.0,72.17968800000017,186.6665039999998,127.43603499999972,2927.94873,106.79492200000004
103,521.2822270000006,1412.5639650000003,124.23095699999976,214.23095699999976,89.48730499999965,99.48730499999965,85.51269500000035,87.82031300000017,95.76904300000024,74.35888699999941,187.43603499999972,127.17968800000017,2859.1025390000004,107.94873000000007
104,510.51269500000035,1382.8203130000002,123.7177729999994,209.61523400000078,91.9228520000006,101.0258789999998,87.30761700000039,90.25634799999989,96.0258789999998,72.05126999999993,186.41015599999992,124.87158199999976,2786.410156,106.9228520000006
105,494.6152340000008,1346.794922,122.05126999999993,203.3334960000002,91.15380900000036,100.64111300000059,88.0771479999994,89.61523400000078,95.0,66.15380900000036,181.9228520000006,121.15380900000036,2711.9228519999997,108.20507799999996
106,477.3076170000004,1305.256348,120.64111300000059,196.9228520000006,89.74365200000011,99.61523400000078,88.0771479999994,86.0258789999998,92.69238299999961,60.0,174.87158199999976,117.94873000000007,2637.1796879999993,113.58984400000008
107,467.82031300000017,1263.589844,121.6665039999998,192.94873000000007,91.15380900000036,100.12841800000024,88.20507799999996,81.2822270000006,90.64111300000059,57.43603499999972,168.46142599999985,117.94873000000007,2563.8461909999996,117.05126999999993
108,472.3076170000004,1227.3076170000004,125.89746099999957,192.6923829999996,95.89746099999957,103.58984400000008,89.35888699999941,78.46142599999985,90.64111300000059,60.64111300000059,166.9228520000006,122.17968800000017,2494.3588869999994,113.9741210000002
109,485.2563479999999,1196.1538090000004,132.17968800000017,195.0,100.76904300000024,108.3334960000002,91.9228520000006,79.35888699999941,92.43603499999972,68.20507799999996,170.51269500000035,128.7177729999994,2430.5126950000003,109.48730499999965
110,493.46142599999985,1165.3847659999992,136.6665039999998,196.53857400000015,101.41015599999992,111.0258789999998,94.35888699999941,82.82031300000017,94.35888699999941,75.0,175.51269500000035,132.94873000000007,2370.1284180000002,110.12841800000024
111,487.3076170000004,1130.5126950000003,136.41015599999992,194.48730499999965,97.17968800000017,109.74365200000011,95.0,85.64111300000059,94.61523400000078,76.41015599999992,176.79492200000004,131.53857400000015,2308.0771479999994,113.46142599999985
112,468.84619099999964,1092.4360349999997,132.17968800000017,188.7177729999994,91.15380900000036,105.38476599999922,93.3334960000002,85.64111300000059,93.58984400000008,72.69238299999961,173.46142599999985,125.76904300000024,2241.9228520000006,113.9741210000002
113,448.0771479999994,1055.3847659999992,127.69238299999961,181.79492200000004,87.82031300000017,101.41015599999992,90.89746099999957,83.84619099999964,92.69238299999961,68.9741210000002,167.82031300000017,120.25634799999989,2174.4873049999997,112.82031300000017
114,433.0771479999994,1023.3334960000002,126.53857400000015,176.0258789999998,88.7177729999994,100.51269500000035,90.12841800000024,82.94873000000007,93.58984400000008,70.38476599999922,163.20507799999996,118.9741210000002,2110.384765999999,114.61523400000078
115,423.7177729999994,997.6923829999996,128.7177729999994,172.3076170000004,92.56396500000028,103.84619099999964,92.69238299999961,85.0,96.41015599999992,77.94873000000007,160.89746099999957,121.2822270000006,2051.794922,117.43603499999972
116,414.7436520000001,975.8974609999996,131.41015599999992,170.2563479999999,97.56396500000028,109.87158199999976,97.43603499999972,89.74365200000011,100.38476599999922,87.69238299999961,160.2563479999999,123.58984400000008,1997.5639650000003,115.25634799999989
117,403.9741210000002,953.3334960000002,132.6923829999996,168.84619099999964,102.30761700000039,115.25634799999989,101.53857400000015,94.23095699999976,103.3334960000002,93.46142599999985,159.48730499999965,122.56396500000028,1946.410156,109.23095699999976
118,395.51269500000035,927.0512699999999,132.05126999999993,167.56396500000028,105.38476599999922,116.6665039999998,101.9228520000006,95.51269500000035,102.69238299999961,91.41015599999992,156.79492200000004,118.7177729999994,1898.3334960000002,106.6665039999998
119,394.7436520000001,898.5898440000001,130.6411130000006,166.41015599999992,105.76904300000024,113.58984400000008,98.46142599999985,92.43603499999972,98.3334960000002,82.82031300000017,152.43603499999972,114.74365200000011,1854.2309569999998,109.48730499999965
120,399.6152340000008,872.1796880000002,129.48730499999965,165.6411130000006,103.3334960000002,108.7177729999994,94.35888699999941,87.82031300000017,92.94873000000007,72.94873000000007,147.94873000000007,113.0771479999994,1814.3588869999994,111.6665039999998
121,401.15380900000036,850.5126950000003,129.3588869999994,165.0,99.10253900000043,105.51269500000035,92.69238299999961,85.38476599999922,90.25634799999989,67.94873000000007,145.89746099999957,114.23095699999976,1777.4360349999997,110.38476599999922
122,391.9228520000006,832.8203130000002,130.0,163.58984400000008,94.23095699999976,104.35888699999941,94.23095699999976,86.9228520000006,91.79492200000004,70.0,146.9228520000006,116.41015599999992,1741.9228520000006,109.61523400000078
123,375.12841800000024,815.8974609999996,130.2563479999999,161.6665039999998,90.12841800000024,103.7177729999994,96.9228520000006,91.2822270000006,95.38476599999922,76.15380900000036,149.7436520000001,117.69238299999961,1706.9228520000006,111.0258789999998
124,361.2822270000006,798.205078,129.3588869999994,159.48730499999965,88.20507799999996,102.30761700000039,97.82031300000017,95.64111300000059,97.94873000000007,81.6665039999998,151.79492200000004,117.17968800000017,1672.6923829999996,110.25634799999989
125,357.3076170000004,779.3588869999994,127.82031300000017,157.17968800000017,88.58984400000008,100.64111300000059,95.89746099999957,97.94873000000007,98.3334960000002,83.0771479999994,151.6665039999998,115.0,1638.9741210000002,105.76904300000024
126,360.12841800000024,759.4873049999997,127.05126999999993,154.48730499999965,90.25634799999989,99.74365200000011,92.30761700000039,97.43603499999972,97.56396500000028,81.2822270000006,149.10253900000043,111.9228520000006,1605.6411130000006,103.84619099999964
127,361.6665039999998,739.7436520000001,127.56396500000028,152.3076170000004,91.2822270000006,100.25634799999989,89.61523400000078,95.64111300000059,97.69238299999961,79.35888699999941,146.2822270000006,109.87158199999976,1573.205078,108.46142599999985
128,358.7177729999994,722.5639650000003,129.61523400000078,152.05126999999993,92.17968800000017,102.43603499999972,90.0,95.0,100.12841800000024,80.38476599999922,146.53857400000015,111.0258789999998,1543.4614259999998,113.9741210000002
129,355.51269500000035,710.0,132.82031300000017,154.48730499999965,94.74365200000011,106.0258789999998,93.84619099999964,97.43603499999972,104.74365200000011,85.25634799999989,151.2822270000006,116.6665039999998,1516.794922,113.7177729999994
130,356.4101559999999,700.7690430000002,136.2822270000006,157.6923829999996,99.61523400000078,109.61523400000078,99.48730499999965,102.43603499999972,109.23095699999976,91.53857400000015,158.20507799999996,124.74365200000011,1489.8715819999998,110.76904300000024
131,358.9741210000002,689.4873049999997,137.94873000000007,158.20507799999996,104.61523400000078,111.2822270000006,104.48730499999965,107.17968800000017,111.15380900000036,95.76904300000024,162.6923829999996,130.12841800000024,1456.794922,111.53857400000015
132,355.0,671.5385740000002,136.2822270000006,153.9741210000002,106.6665039999998,111.15380900000036,107.56396500000028,109.61523400000078,109.87158199999976,96.6665039999998,161.6665039999998,128.20507799999996,1416.0258789999998,114.87158199999976
133,337.17968800000017,646.5385740000002,131.53857400000015,146.53857400000015,104.87158199999976,110.51269500000035,108.9741210000002,109.74365200000011,107.56396500000028,95.38476599999922,155.89746099999957,119.35888699999941,1371.5385740000002,115.0
134,307.3076170000004,618.9741210000002,126.2822270000006,139.61523400000078,100.76904300000024,110.38476599999922,109.35888699999941,108.84619099999964,106.6665039999998,93.9741210000002,148.58984400000008,108.58984400000008,1330.0,111.9228520000006
135,277.05126999999993,594.7436520000001,123.0771479999994,136.2822270000006,97.05126999999993,110.12841800000024,108.3334960000002,107.43603499999972,107.30761700000039,93.0771479999994,142.94873000000007,101.79492200000004,1295.7690430000002,111.6665039999998
136,261.4101559999999,578.0771479999994,123.3334960000002,137.17968800000017,96.79492200000004,108.9741210000002,105.51269500000035,105.25634799999989,107.56396500000028,92.05126999999993,141.15380900000036,101.6665039999998,1268.9741210000002,114.23095699999976
137,266.79492200000004,569.3588869999994,126.41015599999992,140.89746099999957,100.76904300000024,107.43603499999972,101.2822270000006,102.17968800000017,106.0258789999998,91.0258789999998,142.17968800000017,106.41015599999992,1246.6665039999998,114.23095699999976
138,284.48730499999965,564.4873049999997,130.12841800000024,144.23095699999976,106.41015599999992,106.41015599999992,97.30761700000039,99.10253900000043,102.94873000000007,90.0,143.46142599999985,111.53857400000015,1225.0,111.0258789999998
139,295.76904300000024,556.794922,131.79492200000004,143.9741210000002,109.23095699999976,105.76904300000024,95.38476599999922,97.30761700000039,100.0,89.48730499999965,142.6923829999996,112.69238299999961,1200.7690430000002,110.38476599999922
140,287.4360349999997,541.6665039999998,129.87158199999976,138.9741210000002,107.17968800000017,105.12841800000024,96.6665039999998,97.30761700000039,99.61523400000078,89.74365200000011,139.61523400000078,108.58984400000008,1173.589844,113.7177729999994
141,263.5898440000001,520.7690430000002,125.12841800000024,131.79492200000004,102.30761700000039,105.0,100.51269500000035,99.23095699999976,102.30761700000039,91.41015599999992,136.9228520000006,102.56396500000028,1146.0258789999998,115.12841800000024
142,240.51269500000035,500.0,121.0258789999998,126.6665039999998,98.58984400000008,105.64111300000059,105.38476599999922,102.17968800000017,106.6665039999998,94.48730499999965,136.9228520000006,99.48730499999965,1120.7690430000002,111.6665039999998
143,231.79492200000004,484.48730499999965,120.76904300000024,126.0258789999998,98.0771479999994,106.15380900000036,108.58984400000008,104.74365200000011,109.61523400000078,97.82031300000017,139.3588869999994,101.15380900000036,1097.1796880000002,108.9741210000002
144,237.3076170000004,475.2563479999999,123.7177729999994,128.58984400000008,99.87158199999976,105.12841800000024,108.3334960000002,105.0,109.61523400000078,99.61523400000078,142.17968800000017,105.25634799999989,1072.5639650000003,111.0258789999998
145,247.3076170000004,468.9741210000002,127.82031300000017,131.41015599999992,102.30761700000039,103.0771479999994,105.0,103.0771479999994,107.82031300000017,99.23095699999976,143.7177729999994,108.20507799999996,1045.1284180000002,113.7177729999994
146,252.43603499999972,460.6411130000006,130.89746099999957,132.6923829999996,103.9741210000002,101.79492200000004,101.53857400000015,100.76904300000024,106.9228520000006,97.69238299999961,144.48730499999965,109.23095699999976,1014.8715819999998,112.43603499999972
147,248.46142599999985,446.4101559999999,132.17968800000017,132.17968800000017,103.7177729999994,102.43603499999972,100.76904300000024,99.87158199999976,108.46142599999985,96.41015599999992,145.12841800000024,110.0,981.1538090000004,110.76904300000024
148,236.15380900000036,425.51269500000035,132.17968800000017,129.7436520000001,101.53857400000015,104.10253900000043,103.0771479999994,101.2822270000006,111.2822270000006,96.15380900000036,145.38476599999922,111.0258789999998,942.0512699999999,113.20507799999996
149,219.87158199999976,400.6411130000006,131.41015599999992,125.51269500000035,99.10253900000043,105.51269500000035,106.2822270000006,103.84619099999964,112.69238299999961,96.79492200000004,143.9741210000002,110.38476599999922,896.1538090000004,116.79492200000004
150,204.87158199999976,375.76904300000024,130.6411130000006,120.38476599999922,98.7177729999994,105.76904300000024,107.69238299999961,105.89746099999957,111.53857400000015,97.56396500000028,140.6411130000006,106.6665039999998,844.8715819999998,115.12841800000024
151,194.3588869999994,352.82031300000017,130.51269500000035,115.76904300000024,100.51269500000035,104.87158199999976,106.79492200000004,106.53857400000015,108.58984400000008,97.05126999999993,135.76904300000024,101.15380900000036,790.8974609999996,110.12841800000024
152,187.17968800000017,330.89746099999957,130.76904300000024,112.05126999999993,102.43603499999972,103.3334960000002,104.87158199999976,105.76904300000024,106.15380900000036,95.12841800000024,130.38476599999922,96.79492200000004,736.794922,108.3334960000002
153,179.7436520000001,308.3334960000002,131.0258789999998,108.9741210000002,102.94873000000007,102.56396500000028,104.35888699999941,105.0,106.2822270000006,93.46142599999985,125.25634799999989,96.41015599999992,683.8461909999996,110.25634799999989
154,170.2563479999999,284.87158199999976,132.17968800000017,106.15380900000036,103.20507799999996,103.9741210000002,106.6665039999998,105.89746099999957,109.61523400000078,93.9741210000002,122.05126999999993,100.12841800000024,632.1796880000002,110.51269500000035
155,159.61523400000078,261.79492200000004,134.87158199999976,103.84619099999964,105.38476599999922,107.94873000000007,111.15380900000036,108.3334960000002,114.87158199999976,97.17968800000017,121.9228520000006,106.0258789999998,580.5126950000003,108.46142599999985
156,148.20507799999996,239.10253900000043,138.3334960000002,101.6665039999998,110.38476599999922,112.94873000000007,115.38476599999922,110.76904300000024,118.7177729999994,101.53857400000015,123.58984400000008,110.64111300000059,526.9228520000006,108.58984400000008
157,135.38476599999922,216.6665039999998,140.6411130000006,98.46142599999985,117.43603499999972,117.30761700000039,117.56396500000028,111.53857400000015,119.48730499999965,105.12841800000024,123.84619099999964,111.2822270000006,469.7436520000001,111.2822270000006
158,120.64111300000059,194.10253900000043,140.6411130000006,94.23095699999976,125.89746099999957,120.89746099999957,118.58984400000008,110.64111300000059,118.84619099999964,107.56396500000028,119.61523400000078,108.0771479999994,409.3588869999994,111.2822270000006
159,105.25634799999989,171.2822270000006,139.61523400000078,89.48730499999965,134.3588869999994,123.9741210000002,120.64111300000059,110.12841800000024,119.87158199999976,109.61523400000078,110.12841800000024,104.61523400000078,347.5639650000003,107.69238299999961
160,91.15380900000036,147.56396500000028,139.3588869999994,85.0,139.87158199999976,125.51269500000035,124.48730499999965,111.9228520000006,124.10253900000043,112.69238299999961,97.05126999999993,104.23095699999976,286.0258789999998,106.53857400000015
161,79.87158199999976,123.20507799999996,140.6411130000006,81.79492200000004,139.10253900000043,124.61523400000078,128.46142599999985,116.15380900000036,130.12841800000024,117.17968800000017,83.58984400000008,107.82031300000017,225.38476599999922,110.25634799999989
162,71.2822270000006,100.0,143.0771479999994,80.38476599999922,132.82031300000017,122.05126999999993,130.51269500000035,121.2822270000006,135.12841800000024,122.56396500000028,73.7177729999994,112.82031300000017,165.89746099999957,112.56396500000028
163,63.333496000000196,79.74365200000011,145.6411130000006,80.25634799999989,125.51269500000035,119.87158199999976,129.61523400000078,124.87158199999976,137.56396500000028,127.43603499999972,69.35888699999941,116.0258789999998,107.94873000000007,109.23095699999976
164,53.0771479999994,60.897460999999566,146.53857400000015,79.23095699999976,121.53857400000015,119.35888699999941,126.79492200000004,124.87158199999976,137.17968800000017,129.3588869999994,69.23095699999976,115.25634799999989,51.666503999999804,105.12841800000024
165,37.82031300000017,39.74365200000011,144.7436520000001,74.74365200000011,122.05126999999993,120.0,123.3334960000002,121.41015599999992,134.87158199999976,127.43603499999972,69.35888699999941,110.38476599999922,-3.4614259999998467,106.41015599999992
166,18.461425999999847,14.230956999999762,140.51269500000035,66.6665039999998,125.12841800000024,120.51269500000035,120.76904300000024,116.2822270000006,131.79492200000004,123.20507799999996,66.6665039999998,102.94873000000007,-57.17944299999999,110.0
167,-1.0258789999998044,-13.076904000000013,136.53857400000015,57.30761700000039,128.58984400000008,120.51269500000035,119.48730499999965,112.82031300000017,129.61523400000078,119.87158199999976,61.410155999999915,96.41015599999992,-107.82055700000001,109.87158199999976
168,-16.538574000000153,-37.051270000000386,135.2563479999999,49.61523400000078,130.76904300000024,119.61523400000078,119.23095699999976,112.82031300000017,128.84619099999964,118.9741210000002,56.79492200000004,93.58984400000008,-153.71801800000003,107.56396500000028
169,-27.051270000000386,-53.974365000000034,136.41015599999992,45.64111300000059,131.53857400000015,118.20507799999996,118.84619099999964,114.74365200000011,129.10253900000043,120.12841800000024,54.74365200000011,94.74365200000011,-193.97436500000003,108.46142599999985
170,-33.58984399999963,-62.948729999999614,138.20507799999996,45.25634799999989,131.53857400000015,117.30761700000039,118.0771479999994,116.6665039999998,130.0,122.17968800000017,56.153809000000365,98.20507799999996,-229.10253899999998,111.2822270000006
171,-38.07690400000001,-65.38452099999995,138.9741210000002,47.17968800000017,132.05126999999993,117.94873000000007,117.82031300000017,118.46142599999985,131.15380900000036,124.61523400000078,59.61523400000078,101.6665039999998,-259.61547900000005,110.12841800000024
172,-42.948729999999614,-65.0,138.9741210000002,48.7177729999994,134.48730499999965,120.0,118.84619099999964,120.51269500000035,132.17968800000017,127.43603499999972,62.94873000000007,103.7177729999994,-287.4357909999994,106.0258789999998
173,-50.38452099999995,-66.79492200000004,138.46142599999985,47.30761700000039,138.7177729999994,122.17968800000017,120.89746099999957,122.94873000000007,132.43603499999972,129.48730499999965,64.23095699999976,103.20507799999996,-316.53857400000015,105.0
174,-61.79492200000004,-73.84619099999964,137.17968800000017,42.43603499999972,142.3076170000004,123.0771479999994,122.82031300000017,124.35888699999941,131.53857400000015,128.46142599999985,62.17968800000017,100.12841800000024,-350.897461,107.69238299999961
175,-75.64111300000013,-85.1281740000004,134.7436520000001,36.53857400000015,142.3076170000004,122.69238299999961,123.9741210000002,123.46142599999985,129.87158199999976,123.46142599999985,57.43603499999972,95.38476599999922,-391.53857400000015,107.94873000000007
176,-88.84619099999964,-96.28198199999997,132.3076170000004,32.56396500000028,137.05126999999993,121.15380900000036,124.48730499999965,120.89746099999957,128.0771479999994,116.79492200000004,51.79492200000004,90.64111300000059,-434.35888699999987,104.61523400000078
177,-98.20507799999996,-103.46142599999985,131.9228520000006,31.538574000000153,128.58984400000008,118.58984400000008,124.74365200000011,118.58984400000008,126.41015599999992,111.9228520000006,48.0771479999994,87.43603499999972,-472.3076170000004,103.46142599999985
178,-102.17944299999999,-105.76928699999962,133.9741210000002,32.56396500000028,121.9228520000006,115.89746099999957,125.25634799999989,118.20507799999996,125.51269500000035,111.79492200000004,48.46142599999985,86.79492200000004,-500.38452099999995,106.79492200000004
179,-101.53857400000015,-105.1281740000004,136.9228520000006,33.333496000000196,122.05126999999993,115.12841800000024,125.89746099999957,120.0,125.38476599999922,116.79492200000004,53.46142599999985,88.46142599999985,-518.3332520000004,108.9741210000002
180,-99.74365200000011,-104.23071300000038,138.9741210000002,32.82031300000017,129.3588869999994,117.56396500000028,126.15380900000036,122.82031300000017,125.12841800000024,124.10253900000043,60.38476599999922,91.41015599999992,-532.3076170000004,107.05126999999993
181,-100.76928699999962,-105.38452099999995,139.48730499999965,30.769043000000238,138.9741210000002,121.41015599999992,125.25634799999989,123.9741210000002,123.84619099999964,129.10253900000043,64.87158199999976,93.58984400000008,-550.6411130000001,106.41015599999992
182,-106.79492200000004,-108.84619099999964,138.20507799999996,28.077147999999397,145.12841800000024,123.46142599999985,122.94873000000007,122.17968800000017,121.9228520000006,128.3334960000002,63.589844000000085,93.20507799999996,-578.205078,110.76904300000024
183,-115.76928699999962,-113.58984399999963,135.76904300000024,26.153809000000365,145.76904300000024,121.9228520000006,119.74365200000011,118.58984400000008,120.76904300000024,123.0771479999994,58.333496000000196,90.38476599999922,-611.923096,115.12841800000024
184,-123.33325200000036,-117.94872999999961,133.20507799999996,25.51269500000035,142.56396500000028,117.56396500000028,117.05126999999993,115.51269500000035,121.53857400000015,117.94873000000007,53.974121000000196,86.9228520000006,-643.076904,113.84619099999964
185,-126.79492200000004,-121.92309599999999,131.9228520000006,26.153809000000365,138.46142599999985,112.69238299999961,115.76904300000024,114.35888699999941,123.3334960000002,117.69238299999961,54.87158199999976,85.38476599999922,-665.2563479999999,110.25634799999989
186,-127.69238299999961,-126.66674799999964,132.6923829999996,27.05126999999993,135.12841800000024,109.61523400000078,116.2822270000006,115.25634799999989,124.87158199999976,122.30761700000039,60.25634799999989,86.9228520000006,-679.615479,110.51269500000035
187,-130.2563479999999,-132.820557,134.87158199999976,27.56396500000028,133.20507799999996,109.61523400000078,118.20507799999996,117.43603499999972,125.0,127.82031300000017,65.76904300000024,90.51269500000035,-693.5898439999996,112.56396500000028
188,-137.0512700000004,-140.5129390000002,137.05126999999993,27.69238299999961,132.94873000000007,112.82031300000017,120.89746099999957,120.25634799999989,124.48730499999965,129.10253900000043,66.6665039999998,93.46142599999985,-713.718018,111.2822270000006
189,-147.179443,-148.58984399999963,138.3334960000002,27.94873000000007,133.84619099999964,117.56396500000028,123.7177729999994,123.0771479999994,123.9741210000002,125.0,62.30761700000039,93.7177729999994,-740.384521,108.0771479999994
190,-156.41015600000037,-156.02563499999997,138.84619099999964,28.589844000000085,135.51269500000035,121.41015599999992,125.51269500000035,125.64111300000059,124.35888699999941,119.23095699999976,56.025878999999804,91.41015599999992,-767.0512699999999,109.10253900000043
191,-159.8718259999996,-161.41015600000037,138.9741210000002,29.230956999999762,138.7177729999994,123.3334960000002,126.41015599999992,127.30761700000039,125.76904300000024,117.43603499999972,53.46142599999985,89.10253900000043,-784.615479,113.58984400000008
192,-155.76928699999962,-165.1281740000004,139.7436520000001,29.871581999999762,143.84619099999964,123.7177729999994,126.79492200000004,128.0771479999994,128.3334960000002,122.82031300000017,58.46142599999985,89.74365200000011,-787.820557,114.74365200000011
193,-146.79492200000004,-170.2563479999999,141.15380900000036,29.615234000000783,148.46142599999985,123.20507799999996,126.53857400000015,127.30761700000039,131.0258789999998,133.3334960000002,69.74365200000011,94.61523400000078,-779.7436520000001,111.15380900000036
194,-139.4870609999998,-180.89746100000002,142.3076170000004,27.82031300000017,148.20507799999996,121.41015599999992,125.38476599999922,125.51269500000035,132.05126999999993,143.20507799999996,81.79492200000004,101.53857400000015,-770.384521,108.58984400000008
195,-138.076904,-197.6923829999996,142.56396500000028,24.230956999999762,141.41015599999992,117.82031300000017,122.82031300000017,123.58984400000008,130.51269500000035,147.17968800000017,89.35888699999941,106.9228520000006,-768.718018,109.48730499999965
196,-142.0512700000004,-215.5129390000002,141.9228520000006,20.384765999999217,131.9228520000006,113.9741210000002,119.87158199999976,122.69238299999961,127.56396500000028,144.7436520000001,91.15380900000036,108.7177729999994,-776.1538089999999,109.48730499999965
197,-147.3076170000004,-227.43579099999943,141.6665039999998,18.333496000000196,126.0258789999998,112.30761700000039,118.20507799999996,122.82031300000017,125.89746099999957,140.12841800000024,89.74365200000011,107.30761700000039,-788.718018,106.9228520000006
198,-151.15380900000036,-230.2563479999999,142.43603499999972,18.717772999999397,127.05126999999993,113.7177729999994,118.58984400000008,122.69238299999961,126.53857400000015,138.0771479999994,88.46142599999985,105.25634799999989,-801.4101559999999,106.79492200000004
199,-153.46142599999985,-226.41015600000037,143.46142599999985,21.153809000000365,132.94873000000007,117.30761700000039,120.76904300000024,122.17968800000017,128.84619099999964,141.0258789999998,88.3334960000002,104.74365200000011,-812.6923829999996,111.6665039999998
200,-155.38452099999995,-220.1281740000004,143.58984400000008,24.230956999999762,139.7436520000001,121.6665039999998,124.23095699999976,122.82031300000017,131.53857400000015,147.56396500000028,89.23095699999976,105.89746099999957,-823.4614260000003,115.51269500000035
201,-156.79492200000004,-215.38452099999995,142.94873000000007,27.17968800000017,143.7177729999994,125.38476599999922,128.58984400000008,126.15380900000036,134.23095699999976,153.9741210000002,90.64111300000059,108.3334960000002,-834.4870609999998,113.46142599999985
202,-156.66674799999964,-213.84619099999964,142.56396500000028,29.230956999999762,143.9741210000002,127.82031300000017,133.20507799999996,132.3076170000004,136.9228520000006,157.6923829999996,92.43603499999972,110.89746099999957,-845.5129390000002,109.61523400000078
203,-155.38452099999995,-215.64111300000013,143.3334960000002,30.769043000000238,141.79492200000004,129.10253900000043,136.9228520000006,138.9741210000002,139.23095699999976,158.7177729999994,95.12841800000024,112.82031300000017,-855.2563479999999,110.12841800000024
204,-153.84619099999964,-219.61547900000005,145.12841800000024,32.05126999999993,140.0,130.0,138.9741210000002,143.46142599999985,140.89746099999957,158.9741210000002,98.7177729999994,113.7177729999994,-862.4357909999999,112.43603499999972
205,-154.10253899999998,-224.35888699999987,147.17968800000017,33.7177729999994,141.0258789999998,132.05126999999993,139.48730499999965,144.7436520000001,141.79492200000004,160.12841800000024,102.30761700000039,113.20507799999996,-868.3332519999999,110.76904300000024
206,-157.9487299999996,-229.8718259999996,148.3334960000002,35.25634799999989,145.76904300000024,134.61523400000078,139.10253900000043,143.58984400000008,142.05126999999993,162.43603499999972,103.7177729999994,111.9228520000006,-876.281982,106.6665039999998
207,-165.5129390000002,-237.3076170000004,148.0771479999994,35.38476599999922,151.79492200000004,136.53857400000015,138.9741210000002,141.53857400000015,141.6665039999998,164.10253900000043,101.6665039999998,110.12841800000024,-889.4870609999998,106.15380900000036
208,-173.20507799999996,-246.53857400000015,146.6665039999998,33.46142599999985,155.76904300000024,136.53857400000015,139.7436520000001,140.12841800000024,140.76904300000024,163.58984400000008,97.05126999999993,108.20507799999996,-906.5385739999997,108.9741210000002
209,-176.41015600000037,-255.5129390000002,145.12841800000024,30.384765999999217,156.2822270000006,135.51269500000035,141.79492200000004,140.2563479999999,140.12841800000024,161.0258789999998,92.43603499999972,107.05126999999993,-922.179443,109.87158199999976
210,-173.20507799999996,-261.53857400000015,144.48730499999965,27.94873000000007,154.48730499999965,134.87158199999976,144.3588869999994,141.53857400000015,140.38476599999922,157.82031300000017,90.25634799999989,107.05126999999993,-932.179443,107.82031300000017
211,-165.64111300000013,-263.33325200000036,145.0,28.077147999999397,152.43603499999972,135.6411130000006,146.0258789999998,142.94873000000007,141.15380900000036,155.89746099999957,91.0258789999998,108.3334960000002,-936.025635,107.82031300000017
212,-158.076904,-262.0512700000004,145.51269500000035,31.025878999999804,152.17968800000017,137.3076170000004,146.41015599999992,143.46142599999985,141.2822270000006,155.89746099999957,94.10253900000043,110.12841800000024,-936.1538089999999,110.76904300000024
213,-153.71801800000003,-260.0,145.38476599999922,35.897460999999566,154.3588869999994,139.61523400000078,146.2822270000006,143.58984400000008,140.76904300000024,157.6923829999996,97.69238299999961,111.79492200000004,-935.6411129999997,111.41015599999992
214,-153.84619099999964,-260.38452099999995,145.12841800000024,40.12841800000024,157.6923829999996,141.2822270000006,146.9228520000006,144.3588869999994,139.87158199999976,159.7436520000001,100.12841800000024,112.82031300000017,-937.4357909999999,108.9741210000002
215,-158.20507799999996,-266.28198199999997,144.87158199999976,41.025878999999804,159.10253900000043,140.51269500000035,148.0771479999994,145.38476599999922,139.23095699999976,160.51269500000035,99.87158199999976,112.56396500000028,-944.3588870000003,108.46142599999985
216,-165.2563479999999,-278.58984399999963,144.23095699999976,37.30761700000039,156.0258789999998,136.79492200000004,148.3334960000002,144.87158199999976,138.20507799999996,158.9741210000002,96.15380900000036,109.74365200000011,-957.3076170000004,112.43603499999972
217,-172.3076170000004,-294.2307130000004,141.6665039999998,31.025878999999804,149.23095699999976,131.53857400000015,146.6665039999998,142.17968800000017,136.2822270000006,154.61523400000078,89.87158199999976,104.10253900000043,-973.5898440000001,114.87158199999976
218,-176.53857400000015,-307.820557,137.3076170000004,26.153809000000365,142.05126999999993,127.43603499999972,143.0771479999994,138.46142599999985,133.20507799999996,148.7177729999994,83.20507799999996,97.82031300000017,-987.9487300000001,111.79492200000004
219,-176.53857400000015,-315.5129390000002,133.20507799999996,25.51269500000035,137.82031300000017,125.89746099999957,139.10253900000043,135.51269500000035,129.87158199999976,143.0771479999994,78.20507799999996,94.61523400000078,-996.5385739999997,107.94873000000007
220,-173.71801800000003,-317.0512700000004,131.53857400000015,29.48730499999965,137.82031300000017,126.53857400000015,136.41015599999992,134.7436520000001,127.82031300000017,138.9741210000002,76.15380900000036,95.89746099999957,-998.5898440000001,108.58984400000008
221,-170.0,-315.2563479999999,133.20507799999996,35.51269500000035,140.6411130000006,128.0771479999994,136.0258789999998,136.6665039999998,128.58984400000008,138.3334960000002,77.17968800000017,100.51269500000035,-996.923096,111.15380900000036
222,-167.56420900000057,-313.58984399999963,136.53857400000015,40.25634799999989,144.10253900000043,130.38476599999922,137.94873000000007,141.41015599999992,132.82031300000017,141.79492200000004,80.76904300000024,105.25634799999989,-995.128174,110.51269500000035
223,-167.9487299999996,-314.8718259999996,139.10253900000043,41.666503999999804,146.0258789999998,132.56396500000028,140.51269500000035,147.6923829999996,138.7177729999994,148.20507799999996,85.76904300000024,107.17968800000017,-996.6667480000001,108.84619099999964
224,-171.28198199999997,-319.7436520000001,138.58984400000008,39.87158199999976,145.51269500000035,133.46142599999985,141.9228520000006,152.43603499999972,143.0771479999994,154.23095699999976,89.48730499999965,105.64111300000059,-1002.0512699999999,110.38476599999922
225,-175.5129390000002,-325.5129390000002,135.38476599999922,37.05126999999993,144.23095699999976,132.82031300000017,141.53857400000015,153.3334960000002,143.3334960000002,156.9228520000006,90.51269500000035,102.30761700000039,-1008.718018,112.82031300000017
226,-178.076904,-329.2307130000004,131.79492200000004,35.897460999999566,144.7436520000001,131.9228520000006,140.38476599999922,150.51269500000035,140.2563479999999,155.76904300000024,88.9741210000002,99.74365200000011,-1012.4357909999999,110.76904300000024
227,-178.46142599999985,-330.38452099999995,129.7436520000001,37.30761700000039,146.9228520000006,131.0258789999998,139.61523400000078,145.89746099999957,136.41015599999992,151.79492200000004,86.41015599999992,99.10253900000043,-1012.5642090000001,106.0258789999998
228,-178.076904,-330.897461,129.10253900000043,39.48730499999965,148.3334960000002,130.0,138.7177729999994,141.41015599999992,133.9741210000002,146.6665039999998,83.46142599999985,98.7177729999994,-1011.5385739999997,105.12841800000024
229,-178.58984399999963,-332.179443,128.20507799999996,41.025878999999804,147.43603499999972,128.84619099999964,137.3076170000004,138.0771479999994,133.46142599999985,142.43603499999972,80.89746099999957,96.79492200000004,-1012.6923829999996,108.58984400000008
230,-179.23071300000038,-333.076904,126.79492200000004,41.9228520000006,145.6411130000006,128.84619099999964,136.0258789999998,136.53857400000015,134.48730499999965,141.9228520000006,79.87158199999976,93.7177729999994,-1016.025635,110.0
231,-178.58984399999963,-332.179443,126.41015599999992,43.589844000000085,145.89746099999957,130.38476599999922,136.53857400000015,137.43603499999972,135.89746099999957,146.41015599999992,81.9228520000006,92.30761700000039,-1018.8461910000001,107.69238299999961
232,-176.53857400000015,-330.0,127.82031300000017,46.025878999999804,148.20507799999996,132.05126999999993,138.7177729999994,140.0,136.6665039999998,153.3334960000002,85.64111300000059,94.61523400000078,-1019.102539,106.79492200000004
233,-174.61547900000005,-328.97436500000003,129.48730499999965,47.82031300000017,149.61523400000078,132.17968800000017,141.2822270000006,142.43603499999972,135.89746099999957,157.94873000000007,88.58984400000008,99.48730499999965,-1017.3076170000004,109.74365200000011
234,-173.076904,-329.61547900000005,130.0,48.20507799999996,148.20507799999996,131.15380900000036,142.43603499999972,143.9741210000002,134.23095699999976,157.05126999999993,89.10253900000043,103.7177729999994,-1014.615479,111.2822270000006
235,-171.79492200000004,-330.5129390000002,129.48730499999965,48.20507799999996,145.0,130.76904300000024,142.3076170000004,144.48730499999965,133.46142599999985,152.05126999999993,88.46142599999985,105.51269500000035,-1012.0512699999999,108.46142599999985
236,-171.02563499999997,-330.0,129.10253900000043,49.23095699999976,141.9228520000006,131.6665039999998,141.41015599999992,144.3588869999994,134.3588869999994,146.79492200000004,88.46142599999985,104.61523400000078,-1010.0,106.41015599999992
237,-171.28198199999997,-328.58984399999963,129.23095699999976,51.2822270000006,140.51269500000035,132.43603499999972,140.51269500000035,143.9741210000002,136.15380900000036,144.61523400000078,89.74365200000011,102.30761700000039,-1009.102539,109.74365200000011
238,-173.076904,-327.3076170000004,129.61523400000078,53.846190999999635,140.89746099999957,131.79492200000004,139.3588869999994,143.7177729999994,137.56396500000028,146.2822270000006,91.41015599999992,99.48730499999965,-1009.4870609999998,114.23095699999976
239,-175.38452099999995,-326.79492200000004,129.87158199999976,56.025878999999804,141.9228520000006,129.7436520000001,137.94873000000007,143.84619099999964,138.0771479999994,149.87158199999976,92.17968800000017,97.17968800000017,-1011.025635,114.23095699999976
240,-177.3076170000004,-327.179443,130.76904300000024,56.666503999999804,141.9228520000006,127.30761700000039,135.89746099999957,143.9741210000002,137.82031300000017,152.43603499999972,90.76904300000024,95.89746099999957,-1013.3332519999999,112.43603499999972
241,-177.43579099999943,-327.5642090000006,132.17968800000017,56.025878999999804,140.0,125.64111300000059,132.94873000000007,143.46142599999985,137.05126999999993,152.05126999999993,88.0771479999994,95.76904300000024,-1015.2563479999999,113.7177729999994
242,-174.4870609999998,-325.897461,133.9741210000002,55.64111300000059,137.56396500000028,125.51269500000035,130.12841800000024,141.9228520000006,136.2822270000006,150.38476599999922,86.79492200000004,97.56396500000028,-1014.615479,115.89746099999957
243,-168.20507799999996,-321.41015600000037,135.51269500000035,57.30761700000039,137.43603499999972,127.17968800000017,128.58984400000008,140.38476599999922,135.89746099999957,150.12841800000024,89.35888699999941,101.6665039999998,-1009.2307129999999,113.0771479999994
244,-161.28198199999997,-315.7692869999996,136.53857400000015,61.025878999999804,140.38476599999922,128.84619099999964,129.10253900000043,140.0,136.15380900000036,152.05126999999993,95.25634799999989,106.6665039999998,-1000.7692870000001,107.56396500000028
245,-158.076904,-312.9487299999996,136.15380900000036,64.10253900000043,143.9741210000002,128.20507799999996,130.38476599999922,140.76904300000024,136.41015599999992,153.7177729999994,100.38476599999922,110.12841800000024,-994.3588870000003,106.41015599999992
246,-161.28198199999997,-315.64111300000013,133.46142599999985,64.23095699999976,144.87158199999976,124.48730499999965,130.76904300000024,140.89746099999957,135.89746099999957,152.43603499999972,100.64111300000059,109.74365200000011,-994.7436520000001,110.25634799999989
247,-169.10253899999998,-322.6923829999996,128.9741210000002,61.410155999999915,141.79492200000004,120.0,129.3588869999994,139.23095699999976,134.23095699999976,147.6923829999996,95.38476599999922,105.51269500000035,-1001.281982,112.17968800000017
248,-176.15380900000036,-330.64111300000013,125.51269500000035,58.20507799999996,136.53857400000015,117.56396500000028,126.9228520000006,135.6411130000006,132.05126999999993,142.3076170000004,87.94873000000007,100.51269500000035,-1009.102539,110.0
249,-178.33325200000036,-335.897461,125.0,57.05126999999993,131.41015599999992,118.20507799999996,124.87158199999976,131.53857400000015,129.48730499999965,139.10253900000043,82.17968800000017,97.69238299999961,-1013.718018,108.84619099999964
250,-175.76928699999962,-337.3076170000004,126.6665039999998,58.20507799999996,128.0771479999994,120.25634799999989,123.9741210000002,128.46142599999985,126.9228520000006,138.9741210000002,80.64111300000059,97.82031300000017,-1013.4614260000003,110.89746099999957
251,-171.15380900000036,-335.2563479999999,128.0771479999994,60.76904300000024,127.69238299999961,122.17968800000017,124.23095699999976,127.43603499999972,125.25634799999989,140.51269500000035,82.69238299999961,99.74365200000011,-1009.4870609999998,111.9228520000006
252,-167.6923829999996,-331.41015600000037,128.0771479999994,63.46142599999985,130.6411130000006,123.3334960000002,125.0,128.3334960000002,125.64111300000059,141.15380900000036,86.0258789999998,101.79492200000004,-1004.615479,109.61523400000078
253,-166.79492200000004,-327.820557,127.05126999999993,65.76904300000024,135.89746099999957,124.23095699999976,126.0258789999998,130.0,127.69238299999961,140.38476599999922,88.3334960000002,103.20507799999996,-1001.281982,109.23095699999976
254,-167.9487299999996,-326.15380900000036,126.53857400000015,67.30761700000039,141.15380900000036,125.51269500000035,127.43603499999972,131.2822270000006,130.51269500000035,140.0,88.7177729999994,103.9741210000002,-1000.128174,113.3334960000002
255,-168.71801800000003,-326.28198199999997,126.9228520000006,68.46142599999985,144.3588869999994,127.17968800000017,130.0,132.43603499999972,133.0771479999994,142.05126999999993,88.7177729999994,104.35888699999941,-998.974365,116.41015599999992
256,-167.56420900000057,-327.820557,128.0771479999994,68.9741210000002,143.9741210000002,129.10253900000043,133.7177729999994,134.48730499999965,135.2563479999999,146.53857400000015,90.12841800000024,104.48730499999965,-995.6411129999997,113.7177729999994
257,-165.5129390000002,-330.5129390000002,128.84619099999964,67.94873000000007,140.2563479999999,130.0,137.43603499999972,137.94873000000007,136.41015599999992,150.6411130000006,92.56396500000028,104.23095699999976,-990.128174,109.10253900000043
258,-165.38452099999995,-334.102539,128.0771479999994,65.51269500000035,135.51269500000035,129.3588869999994,139.61523400000078,141.0258789999998,136.0258789999998,151.41015599999992,93.9741210000002,102.94873000000007,-985.2563479999999,108.7177729999994
259,-168.33325200000036,-337.3076170000004,125.25634799999989,63.0771479999994,133.3334960000002,127.94873000000007,139.3588869999994,141.79492200000004,134.23095699999976,148.7177729999994,92.82031300000017,100.12841800000024,-983.5898440000001,110.25634799999989
260,-172.820557,-338.46142599999985,121.53857400000015,62.30761700000039,135.2563479999999,126.9228520000006,136.9228520000006,139.48730499999965,132.43603499999972,144.23095699999976,89.48730499999965,96.0258789999998,-985.0,108.9741210000002
261,-175.64111300000013,-337.9487299999996,118.0771479999994,63.20507799999996,138.84619099999964,126.0258789999998,133.0771479999994,135.0,131.15380900000036,140.2563479999999,85.12841800000024,91.53857400000015,-988.076904,106.79492200000004
262,-175.76928699999962,-337.3076170000004,115.38476599999922,64.10253900000043,139.61523400000078,123.9741210000002,129.3588869999994,130.51269500000035,129.87158199999976,136.9228520000006,80.38476599999922,87.69238299999961,-991.025635,108.7177729999994
263,-174.23071300000038,-337.6923829999996,113.58984400000008,63.7177729999994,135.76904300000024,121.2822270000006,128.0771479999994,128.20507799999996,128.20507799999996,134.10253900000043,75.89746099999957,85.12841800000024,-992.179443,112.82031300000017
264,-172.820557,-338.076904,112.82031300000017,62.69238299999961,130.0,120.38476599999922,130.12841800000024,129.3588869999994,126.9228520000006,132.43603499999972,72.94873000000007,84.61523400000078,-990.5129390000002,112.56396500000028
265,-171.923096,-336.66674799999964,113.84619099999964,63.20507799999996,127.05126999999993,122.69238299999961,134.3588869999994,133.3334960000002,127.05126999999993,133.20507799999996,72.94873000000007,86.15380900000036,-985.5129390000002,108.46142599999985
266,-171.15380900000036,-333.076904,116.15380900000036,66.2822270000006,129.48730499999965,127.17968800000017,138.20507799999996,138.0771479999994,128.9741210000002,136.6665039999998,76.2822270000006,88.7177729999994,-978.5898440000001,107.30761700000039
267,-169.4870609999998,-327.6923829999996,119.10253900000043,71.15380900000036,135.89746099999957,130.76904300000024,139.23095699999976,141.15380900000036,132.05126999999993,141.53857400000015,82.69238299999961,91.0258789999998,-970.7692870000001,110.89746099999957
268,-165.1281740000004,-321.15380900000036,121.79492200000004,75.76904300000024,142.82031300000017,131.15380900000036,137.82031300000017,142.05126999999993,135.12841800000024,146.15380900000036,90.64111300000059,93.3334960000002,-962.5642090000001,112.94873000000007
269,-158.33325200000036,-314.4870609999998,124.61523400000078,78.20507799999996,146.15380900000036,128.46142599999985,135.2563479999999,141.53857400000015,137.82031300000017,149.48730499999965,97.94873000000007,96.6665039999998,-953.718018,110.51269500000035
270,-151.41015600000037,-309.35888699999987,127.05126999999993,77.69238299999961,143.7177729999994,123.84619099999964,133.3334960000002,140.6411130000006,139.23095699999976,150.89746099999957,102.05126999999993,101.0258789999998,-945.897461,108.20507799999996
271,-147.56420900000057,-307.3076170000004,128.20507799999996,75.12841800000024,136.79492200000004,119.23095699999976,132.05126999999993,139.3588869999994,138.7177729999994,150.51269500000035,101.9228520000006,104.87158199999976,-941.1538089999999,109.48730499999965
272,-147.3076170000004,-307.5642090000006,127.17968800000017,72.69238299999961,129.7436520000001,116.53857400000015,130.76904300000024,137.56396500000028,136.2822270000006,148.84619099999964,98.9741210000002,106.6665039999998,-940.0,110.51269500000035
273,-149.23071300000038,-307.6923829999996,125.0,72.17968800000017,126.79492200000004,116.15380900000036,128.46142599999985,135.12841800000024,133.3334960000002,146.79492200000004,95.76904300000024,106.2822270000006,-940.897461,108.0771479999994
274,-151.02563499999997,-306.02563499999997,122.56396500000028,73.84619099999964,129.48730499999965,117.30761700000039,125.64111300000059,132.56396500000028,131.0258789999998,145.38476599999922,94.10253900000043,105.0,-941.794922,106.6665039999998
275,-151.41015600000037,-302.5642090000006,121.15380900000036,76.41015599999992,134.7436520000001,118.58984400000008,123.20507799999996,130.38476599999922,130.0,144.3588869999994,94.23095699999976,104.74365200000011,-941.025635,109.74365200000011
276,-149.8718259999996,-298.46142599999985,121.2822270000006,78.58984400000008,138.84619099999964,119.87158199999976,122.82031300000017,129.3588869999994,130.38476599999922,143.20507799999996,94.74365200000011,106.41015599999992,-937.820557,112.56396500000028
277,-146.66674799999964,-294.35888699999987,122.94873000000007,79.61523400000078,138.84619099999964,121.2822270000006,124.74365200000011,129.61523400000078,132.05126999999993,141.41015599999992,94.74365200000011,109.35888699999941,-932.820557,109.87158199999976
278,-143.71801800000003,-291.41015600000037,125.51269500000035,79.10253900000043,135.0,122.69238299999961,127.82031300000017,130.6411130000006,133.7177729999994,138.3334960000002,93.58984400000008,111.53857400000015,-927.820557,105.25634799999989
279,-142.3076170000004,-290.1281740000004,127.69238299999961,77.69238299999961,129.61523400000078,123.0771479999994,129.7436520000001,131.0258789999998,134.10253900000043,134.23095699999976,91.53857400000015,111.53857400000015,-924.7436520000001,105.51269500000035
280,-142.179443,-290.1281740000004,127.94873000000007,76.15380900000036,125.51269500000035,121.6665039999998,129.23095699999976,130.51269500000035,132.43603499999972,130.76904300000024,90.0,109.23095699999976,-923.3332519999999,109.61523400000078
281,-142.179443,-289.8718259999996,126.2822270000006,75.89746099999957,124.74365200000011,119.48730499999965,127.43603499999972,129.3588869999994,129.7436520000001,130.0,90.12841800000024,105.76904300000024,-921.6667480000001,111.0258789999998
282,-142.0512700000004,-289.35888699999987,123.20507799999996,76.79492200000004,126.15380900000036,117.82031300000017,125.89746099999957,128.58984400000008,127.69238299999961,132.6923829999996,91.41015599999992,103.46142599999985,-918.076904,109.10253900000043
283,-142.6923829999996,-289.102539,120.12841800000024,77.43603499999972,127.43603499999972,117.56396500000028,126.15380900000036,128.58984400000008,127.17968800000017,136.9228520000006,92.43603499999972,103.0771479999994,-912.9487300000001,109.10253900000043
284,-143.97436500000003,-289.2307130000004,117.69238299999961,77.30761700000039,127.43603499999972,118.9741210000002,128.46142599999985,129.7436520000001,128.58984400000008,140.51269500000035,93.0771479999994,104.61523400000078,-906.5385739999997,111.41015599999992
285,-143.97436500000003,-287.4357909999994,117.17968800000017,77.05126999999993,127.43603499999972,122.43603499999972,132.17968800000017,132.05126999999993,131.6665039999998,142.17968800000017,94.23095699999976,107.30761700000039,-899.7436520000001,111.6665039999998
286,-141.53857400000015,-282.4357909999994,119.23095699999976,77.82031300000017,128.58984400000008,127.05126999999993,136.0258789999998,135.0,135.2563479999999,142.05126999999993,96.53857400000015,110.51269500000035,-893.5898440000001,109.35888699999941
287,-137.6923829999996,-276.28198199999997,122.82031300000017,79.61523400000078,129.48730499999965,129.87158199999976,137.82031300000017,136.79492200000004,137.3076170000004,141.2822270000006,98.3334960000002,112.69238299999961,-890.6411129999997,109.48730499999965
288,-135.2563479999999,-273.33325200000036,125.64111300000059,81.15380900000036,128.20507799999996,128.7177729999994,136.15380900000036,136.2822270000006,137.05126999999993,140.0,97.69238299999961,112.30761700000039,-892.3076170000004,112.82031300000017
289,-135.76928699999962,-275.38452099999995,125.76904300000024,81.2822270000006,124.48730499999965,124.48730499999965,131.79492200000004,134.10253900000043,135.12841800000024,138.3334960000002,94.23095699999976,108.58984400000008,-896.6667480000001,113.84619099999964
290,-138.076904,-280.0,123.9741210000002,80.12841800000024,120.76904300000024,120.12841800000024,127.43603499999972,132.17968800000017,133.20507799999996,136.2822270000006,90.76904300000024,103.7177729999994,-899.102539,110.12841800000024
291,-140.0,-282.5642090000006,122.56396500000028,78.46142599999985,120.0,118.7177729999994,125.76904300000024,131.9228520000006,132.3076170000004,134.7436520000001,90.12841800000024,101.79492200000004,-895.897461,107.69238299999961
292,-139.4870609999998,-280.2563479999999,123.3334960000002,77.56396500000028,123.0771479999994,120.76904300000024,127.43603499999972,133.58984400000008,132.94873000000007,135.38476599999922,93.0771479999994,104.74365200000011,-886.923096,111.0258789999998
293,-135.2563479999999,-273.33325200000036,126.0258789999998,77.82031300000017,128.58984400000008,124.87158199999976,130.76904300000024,136.79492200000004,134.87158199999976,138.84619099999964,97.94873000000007,111.6665039999998,-874.7436520000001,114.48730499999965
294,-128.71801800000003,-265.5129390000002,128.7177729999994,79.23095699999976,133.58984400000008,128.7177729999994,133.7177729999994,140.2563479999999,137.43603499999972,143.58984400000008,102.30761700000039,118.7177729999994,-863.5898440000001,112.17968800000017
295,-123.33325200000036,-261.02563499999997,129.3588869999994,80.76904300000024,134.3588869999994,129.7436520000001,134.3588869999994,141.9228520000006,139.48730499999965,146.41015599999992,103.9741210000002,122.05126999999993,-856.6667480000001,107.56396500000028
296,-122.05127000000039,-261.66674799999964,126.79492200000004,81.15380900000036,130.2563479999999,126.53857400000015,132.17968800000017,140.89746099999957,139.7436520000001,145.2563479999999,102.30761700000039,120.12841800000024,-855.0,107.30761700000039
297,-124.8718259999996,-264.61547900000005,122.17968800000017,80.0,124.61523400000078,120.25634799999989,127.69238299999961,137.6923829999996,138.20507799999996,141.41015599999992,98.9741210000002,114.23095699999976,-856.025635,110.51269500000035
298,-128.46142599999985,-265.38452099999995,118.58984400000008,78.58984400000008,122.69238299999961,114.61523400000078,122.94873000000007,134.23095699999976,135.6411130000006,138.3334960000002,96.79492200000004,108.46142599999985,-856.1538089999999,111.9228520000006
299,-129.8718259999996,-262.3076170000004,118.20507799999996,78.46142599999985,125.38476599999922,112.43603499999972,119.23095699999976,132.17968800000017,132.94873000000007,138.20507799999996,97.17968800000017,106.2822270000006,-853.718018,111.53857400000015
300,-128.20507799999996,-257.3076170000004,121.0258789999998,80.0,128.84619099999964,113.58984400000008,117.82031300000017,131.2822270000006,130.6411130000006,140.0,99.23095699999976,108.58984400000008,-849.871826,113.46142599999985
301,-124.35888699999987,-253.33325200000036,124.35888699999941,82.82031300000017,128.3334960000002,116.6665039999998,118.84619099999964,131.6665039999998,129.3588869999994,141.15380900000036,100.76904300000024,113.0771479999994,-845.897461,116.2822270000006
302,-119.10253899999998,-251.02563499999997,125.89746099999957,85.76904300000024,123.84619099999964,120.12841800000024,122.30761700000039,133.20507799999996,129.3588869999994,140.76904300000024,101.15380900000036,116.9228520000006,-841.4101559999999,114.35888699999941
303,-114.10253899999998,-250.0,125.51269500000035,88.20507799999996,119.23095699999976,122.69238299999961,127.05126999999993,136.0258789999998,130.0,140.0,101.2822270000006,118.0771479999994,-835.6411129999997,108.84619099999964
304,-111.53857400000015,-250.0,124.35888699999941,89.10253900000043,117.94873000000007,123.20507799999996,131.15380900000036,139.10253900000043,130.6411130000006,140.2563479999999,102.05126999999993,116.6665039999998,-829.102539,107.17968800000017
305,-113.20507799999996,-251.15380900000036,122.69238299999961,87.30761700000039,120.25634799999989,121.53857400000015,132.56396500000028,140.76904300000024,131.0258789999998,141.0258789999998,102.94873000000007,113.7177729999994,-823.5898440000001,110.76904300000024
306,-117.82055700000001,-252.820557,120.51269500000035,82.94873000000007,124.48730499999965,118.7177729999994,130.76904300000024,140.12841800000024,131.41015599999992,141.2822270000006,102.82031300000017,110.76904300000024,-820.6411129999997,113.3334960000002
307,-122.17944299999999,-253.84619099999964,117.94873000000007,78.3334960000002,127.94873000000007,116.6665039999998,127.17968800000017,137.56396500000028,131.41015599999992,139.48730499999965,101.2822270000006,109.10253900000043,-820.2563479999999,111.2822270000006
308,-123.33325200000036,-253.20507799999996,116.41015599999992,76.0258789999998,128.3334960000002,115.76904300000024,123.58984400000008,133.46142599999985,129.87158199999976,136.0258789999998,98.7177729999994,109.35888699999941,-820.897461,109.61523400000078
309,-120.51293900000019,-250.89746100000002,116.9228520000006,77.56396500000028,125.89746099999957,115.89746099999957,121.6665039999998,128.7177729999994,127.05126999999993,132.3076170000004,95.89746099999957,110.76904300000024,-820.6411129999997,111.9228520000006
310,-115.1281740000004,-247.0512700000004,118.84619099999964,82.05126999999993,123.3334960000002,116.6665039999998,121.79492200000004,125.0,124.35888699999941,130.51269500000035,93.7177729999994,112.05126999999993,-817.179443,113.84619099999964
311,-109.8718259999996,-242.6923829999996,121.0258789999998,86.53857400000015,123.20507799999996,117.94873000000007,123.0771479999994,124.23095699999976,123.7177729999994,131.2822270000006,92.69238299999961,112.82031300000017,-810.6411129999997,111.2822270000006
312,-108.20507799999996,-240.1281740000004,122.43603499999972,88.3334960000002,124.61523400000078,118.7177729999994,124.23095699999976,126.53857400000015,125.0,132.43603499999972,92.17968800000017,112.69238299999961,-804.3588870000003,108.3334960000002
313,-111.41015600000037,-240.89746100000002,122.17968800000017,86.6665039999998,124.87158199999976,118.0771479999994,124.23095699999976,130.0,125.89746099999957,131.6665039999998,90.76904300000024,111.41015599999992,-802.0512699999999,109.87158199999976
314,-117.43579099999943,-243.71801800000003,120.0,82.94873000000007,122.56396500000028,116.0258789999998,122.94873000000007,131.53857400000015,124.61523400000078,128.46142599999985,87.82031300000017,108.58984400000008,-803.974365,113.0771479999994
315,-122.17944299999999,-246.41015600000037,116.6665039999998,79.48730499999965,119.23095699999976,113.46142599999985,120.64111300000059,129.48730499999965,120.76904300000024,124.74365200000011,84.48730499999965,104.74365200000011,-806.6667480000001,112.43603499999972
316,-123.71801800000003,-248.076904,114.10253900000043,77.94873000000007,116.41015599999992,111.0258789999998,118.58984400000008,124.87158199999976,115.89746099999957,122.82031300000017,82.30761700000039,101.41015599999992,-805.897461,110.12841800000024
317,-122.56420900000057,-249.61547900000005,113.20507799999996,77.82031300000017,113.9741210000002,109.10253900000043,117.43603499999972,120.38476599999922,111.9228520000006,122.82031300000017,82.17968800000017,99.61523400000078,-800.7692870000001,111.2822270000006
318,-121.28198199999997,-252.0512700000004,113.20507799999996,78.20507799999996,111.41015599999992,108.46142599999985,118.20507799999996,118.84619099999964,110.76904300000024,123.58984400000008,84.23095699999976,99.35888699999941,-792.9487300000001,114.61523400000078
319,-121.02563499999997,-253.84619099999964,112.94873000000007,78.7177729999994,109.48730499999965,109.48730499999965,120.64111300000059,121.15380900000036,112.69238299999961,123.84619099999964,87.05126999999993,100.12841800000024,-785.384521,114.10253900000043
320,-121.66674799999964,-253.46142599999985,112.82031300000017,79.48730499999965,109.87158199999976,111.41015599999992,123.58984400000008,125.12841800000024,116.2822270000006,123.58984400000008,88.20507799999996,100.25634799999989,-781.1538089999999,110.38476599999922
321,-122.94872999999961,-250.89746100000002,112.69238299999961,80.12841800000024,113.3334960000002,112.43603499999972,125.0,127.43603499999972,118.58984400000008,123.20507799999996,86.79492200000004,98.9741210000002,-780.7692870000001,109.35888699999941
322,-123.46142599999985,-247.6923829999996,112.56396500000028,80.38476599999922,118.9741210000002,111.9228520000006,123.9741210000002,126.2822270000006,118.3334960000002,123.58984400000008,84.10253900000043,96.53857400000015,-781.281982,111.2822270000006
323,-121.28198199999997,-245.0,112.05126999999993,80.64111300000059,124.61523400000078,110.76904300000024,121.53857400000015,122.94873000000007,117.17968800000017,124.87158199999976,83.20507799999996,95.25634799999989,-777.5642090000001,110.12841800000024
324,-116.15380900000036,-243.33325200000036,111.15380900000036,81.41015599999992,127.69238299999961,110.64111300000059,120.0,120.0,117.82031300000017,126.53857400000015,86.15380900000036,96.9228520000006,-767.4357909999999,105.38476599999922
325,-110.64111300000013,-242.9487299999996,110.51269500000035,82.94873000000007,126.41015599999992,111.0258789999998,120.0,119.74365200000011,120.64111300000059,127.17968800000017,91.2822270000006,100.89746099999957,-755.0,103.7177729999994
326,-107.56420900000057,-243.33325200000036,110.64111300000059,84.61523400000078,121.79492200000004,111.2822270000006,121.15380900000036,122.05126999999993,123.58984400000008,126.6665039999998,95.25634799999989,105.0,-746.4101559999999,108.20507799999996
327,-107.30761700000039,-242.3076170000004,112.05126999999993,86.53857400000015,118.20507799999996,111.9228520000006,122.30761700000039,125.12841800000024,124.35888699999941,126.0258789999998,95.64111300000059,107.43603499999972,-744.3588869999999,112.69238299999961
328,-107.17944299999999,-238.84619099999964,114.74365200000011,88.0771479999994,118.7177729999994,114.23095699999976,122.94873000000007,127.17968800000017,122.82031300000017,126.15380900000036,93.84619099999964,108.20507799999996,-745.7692870000001,112.05126999999993
329,-105.1281740000004,-234.7436520000001,117.30761700000039,88.20507799999996,121.9228520000006,117.30761700000039,122.82031300000017,127.05126999999993,120.64111300000059,126.79492200000004,92.05126999999993,107.82031300000017,-745.5129390000002,110.38476599999922
330,-101.79492200000004,-233.46142599999985,117.43603499999972,86.2822270000006,122.94873000000007,118.20507799999996,121.53857400000015,125.0,118.9741210000002,126.2822270000006,91.9228520000006,107.05126999999993,-741.025635,112.17968800000017
331,-98.97436500000003,-236.923096,114.48730499999965,82.56396500000028,118.84619099999964,115.12841800000024,119.35888699999941,121.9228520000006,117.94873000000007,124.10253900000043,93.3334960000002,105.76904300000024,-733.205078,114.48730499999965
332,-98.20507799999996,-242.820557,110.25634799999989,79.48730499999965,112.05126999999993,109.87158199999976,117.69238299999961,119.61523400000078,117.30761700000039,121.41015599999992,94.87158199999976,104.35888699999941,-724.3588869999999,112.43603499999972
333,-98.71801800000003,-247.179443,107.69238299999961,78.9741210000002,107.82031300000017,106.2822270000006,118.0771479999994,118.84619099999964,116.9228520000006,120.12841800000024,95.25634799999989,103.3334960000002,-716.281982,108.9741210000002
334,-98.33325200000036,-246.15380900000036,108.84619099999964,81.6665039999998,110.12841800000024,106.53857400000015,121.15380900000036,119.87158199999976,116.9228520000006,121.53857400000015,94.87158199999976,103.46142599999985,-709.615479,109.23095699999976
335,-94.8718259999996,-239.7436520000001,113.3334960000002,86.2822270000006,118.7177729999994,110.89746099999957,126.41015599999992,122.43603499999972,118.3334960000002,125.25634799999989,95.89746099999957,105.51269500000035,-703.4614259999998,111.2822270000006
336,-87.69238299999961,-230.38452099999995,118.9741210000002,91.2822270000006,129.3588869999994,117.17968800000017,132.82031300000017,127.05126999999993,121.41015599999992,130.12841800000024,100.0,108.9741210000002,-696.794922,109.61523400000078
337,-80.0,-223.20507799999996,123.7177729999994,94.48730499999965,136.0258789999998,121.9228520000006,137.94873000000007,133.0771479999994,125.38476599999922,134.23095699999976,105.89746099999957,112.69238299999961,-689.7436520000001,105.76904300000024
338,-75.76928699999962,-221.41015600000037,125.51269500000035,94.35888699999941,135.76904300000024,122.94873000000007,139.48730499999965,138.58984400000008,128.20507799999996,136.53857400000015,109.87158199999976,114.87158199999976,-683.974365,106.15380900000036
339,-76.28198199999997,-223.71801800000003,124.48730499999965,91.53857400000015,130.38476599999922,121.0258789999998,137.3076170000004,141.15380900000036,128.84619099999964,137.43603499999972,109.61523400000078,115.12841800000024,-680.897461,110.76904300000024
340,-78.46142599999985,-225.89746100000002,122.05126999999993,88.3334960000002,125.12841800000024,119.48730499999965,134.10253900000043,140.12841800000024,128.0771479999994,137.6923829999996,106.79492200000004,114.74365200000011,-678.8461909999996,112.94873000000007
341,-78.20507799999996,-224.61547900000005,120.38476599999922,87.43603499999972,123.58984400000008,120.38476599999922,133.0771479999994,136.9228520000006,127.05126999999993,138.3334960000002,105.12841800000024,115.25634799999989,-675.1281740000004,110.89746099999957
342,-75.0,-220.89746100000002,119.48730499999965,89.10253900000043,125.51269500000035,122.56396500000028,135.12841800000024,134.3588869999994,126.79492200000004,139.3588869999994,106.6665039999998,116.53857400000015,-668.974365,110.38476599999922
343,-71.53857400000015,-217.820557,118.20507799999996,91.2822270000006,127.43603499999972,123.46142599999985,137.94873000000007,133.3334960000002,126.9228520000006,139.3588869999994,109.74365200000011,117.17968800000017,-662.4357909999994,113.3334960000002
344,-71.53857400000015,-217.820557,115.64111300000059,91.79492200000004,126.9228520000006,121.79492200000004,138.3334960000002,133.7177729999994,126.79492200000004,137.56396500000028,110.89746099999957,115.51269500000035,-658.5898439999996,114.61523400000078
345,-75.38452099999995,-220.5129390000002,112.94873000000007,90.12841800000024,123.7177729999994,118.84619099999964,135.12841800000024,134.10253900000043,126.15380900000036,134.3588869999994,108.7177729999994,112.05126999999993,-658.205078,110.89746099999957
346,-80.38452099999995,-223.58984399999963,111.15380900000036,86.79492200000004,119.10253900000043,116.2822270000006,129.7436520000001,133.0771479999994,125.25634799999989,130.76904300000024,103.9741210000002,108.7177729999994,-659.7436520000001,106.9228520000006
347,-83.20507799999996,-225.1281740000004,110.89746099999957,83.7177729999994,115.0,115.38476599999922,124.87158199999976,130.12841800000024,124.23095699999976,127.94873000000007,99.35888699999941,106.9228520000006,-659.7436520000001,107.56396500000028
348,-82.30761700000039,-224.23071300000038,111.41015599999992,82.43603499999972,112.69238299999961,116.0258789999998,122.69238299999961,126.6665039999998,123.46142599999985,126.6665039999998,97.69238299999961,107.17968800000017,-655.7692869999996,109.61523400000078
349,-78.58984399999963,-222.0512700000004,112.05126999999993,84.10253900000043,112.94873000000007,117.56396500000028,123.46142599999985,124.61523400000078,123.20507799999996,126.6665039999998,100.12841800000024,108.46142599999985,-648.3332520000004,109.10253900000043
350,-74.74365200000011,-220.0,112.17968800000017,87.56396500000028,115.0,118.58984400000008,125.38476599999922,124.74365200000011,122.94873000000007,127.30761700000039,104.48730499999965,109.61523400000078,-640.384521,108.58984400000008
351,-72.69238299999961,-219.4870609999998,111.79492200000004,90.38476599999922,117.30761700000039,118.3334960000002,126.9228520000006,126.2822270000006,122.30761700000039,127.43603499999972,107.17968800000017,110.0,-634.3588869999999,111.6665039999998
352,-72.43579099999943,-219.8718259999996,110.76904300000024,90.89746099999957,119.48730499999965,117.30761700000039,127.30761700000039,127.43603499999972,121.53857400000015,126.79492200000004,106.53857400000015,109.61523400000078,-629.615479,114.74365200000011
353,-72.05127000000039,-219.7436520000001,110.38476599999922,89.74365200000011,121.79492200000004,116.79492200000004,127.43603499999972,127.69238299999961,121.53857400000015,126.6665039999998,103.9741210000002,109.23095699999976,-623.5898439999996,113.0771479999994
354,-70.89746100000002,-219.23071300000038,110.76904300000024,88.0771479999994,123.84619099999964,117.30761700000039,128.20507799999996,127.82031300000017,122.82031300000017,127.30761700000039,102.56396500000028,109.35888699999941,-615.5129390000002,109.61523400000078
355,-70.0,-219.8718259999996,111.41015599999992,87.17968800000017,124.74365200000011,118.46142599999985,129.48730499999965,127.69238299999961,123.9741210000002,128.58984400000008,102.82031300000017,109.35888699999941,-607.820557,110.89746099999957
356,-70.25634799999989,-221.53857400000015,111.15380900000036,87.30761700000039,123.7177729999994,120.25634799999989,129.87158199999976,127.05126999999993,123.84619099999964,129.23095699999976,103.46142599999985,108.3334960000002,-603.076904,115.38476599999922
357,-70.89746100000002,-222.56420900000057,110.12841800000024,88.46142599999985,121.79492200000004,122.43603499999972,128.20507799999996,125.89746099999957,122.17968800000017,129.48730499999965,103.20507799999996,106.41015599999992,-601.923096,115.38476599999922
358,-70.76928699999962,-221.28198199999997,109.10253900000043,90.51269500000035,120.38476599999922,124.23095699999976,125.25634799999989,124.74365200000011,120.12841800000024,129.61523400000078,102.43603499999972,105.0,-602.4357909999994,110.0
359,-69.35888699999987,-217.9487299999996,108.3334960000002,92.94873000000007,119.74365200000011,124.10253900000043,122.69238299999961,124.61523400000078,118.58984400000008,129.7436520000001,101.53857400000015,105.25634799999989,-602.4357909999994,106.0258789999998
360,-67.30761700000039,-214.23071300000038,107.82031300000017,94.48730499999965,119.48730499999965,122.17968800000017,121.79492200000004,126.15380900000036,118.3334960000002,130.0,101.2822270000006,107.05126999999993,-600.0,107.05126999999993
361,-64.74365200000011,-211.41015600000037,107.56396500000028,94.61523400000078,120.51269500000035,120.12841800000024,122.82031300000017,129.3588869999994,119.61523400000078,130.12841800000024,101.9228520000006,109.23095699999976,-594.8718259999996,108.84619099999964
362,-62.564209000000574,-209.8718259999996,107.69238299999961,93.58984400000008,123.3334960000002,119.87158199999976,124.48730499999965,132.56396500000028,122.30761700000039,130.12841800000024,103.20507799999996,110.38476599999922,-589.2307130000004,108.9741210000002
363,-61.53857400000015,-209.61547900000005,108.0771479999994,91.2822270000006,126.15380900000036,121.15380900000036,125.38476599999922,133.46142599999985,124.74365200000011,129.48730499999965,104.35888699999941,110.0,-585.897461,110.51269500000035
364,-62.435790999999426,-210.2563479999999,107.82031300000017,88.3334960000002,125.89746099999957,121.9228520000006,124.35888699999941,131.15380900000036,124.87158199999976,128.0771479999994,104.10253900000043,107.94873000000007,-586.025635,114.61523400000078
365,-64.10253899999998,-210.64111300000013,106.53857400000015,86.15380900000036,120.89746099999957,120.89746099999957,122.30761700000039,127.17968800000017,122.17968800000017,126.6665039999998,102.56396500000028,105.76904300000024,-586.6667479999996,115.89746099999957
366,-64.48706099999981,-209.7436520000001,105.51269500000035,85.76904300000024,113.0771479999994,118.3334960000002,120.51269500000035,123.9741210000002,118.46142599999985,126.0258789999998,101.15380900000036,105.25634799999989,-584.3588869999999,111.53857400000015
367,-63.58984399999963,-207.9487299999996,105.89746099999957,87.43603499999972,106.79492200000004,115.76904300000024,120.25634799999989,123.0771479999994,115.38476599999922,125.38476599999922,100.51269500000035,106.6665039999998,-578.4614259999998,107.69238299999961
368,-62.564209000000574,-206.66674799999964,107.30761700000039,89.48730499999965,105.64111300000059,114.61523400000078,121.2822270000006,123.58984400000008,114.61523400000078,123.84619099999964,100.12841800000024,108.20507799999996,-572.3076170000004,110.25634799999989
369,-62.30761700000039,-206.41015600000037,108.58984400000008,91.0258789999998,110.89746099999957,115.76904300000024,122.43603499999972,123.84619099999964,116.41015599999992,121.41015599999992,99.48730499999965,108.0771479999994,-568.3332520000004,114.48730499999965
370,-62.051270000000386,-205.5129390000002,109.23095699999976,91.79492200000004,119.61523400000078,118.84619099999964,123.7177729999994,123.58984400000008,119.87158199999976,119.61523400000078,98.58984400000008,106.53857400000015,-566.281982,113.7177729999994
371,-60.89746100000002,-202.9487299999996,109.61523400000078,92.43603499999972,126.41015599999992,121.6665039999998,124.61523400000078,123.20507799999996,123.20507799999996,119.87158199999976,98.46142599999985,105.76904300000024,-563.718018,109.35888699999941
372,-59.35888699999987,-199.8718259999996,110.0,93.20507799999996,126.2822270000006,121.9228520000006,124.87158199999976,123.3334960000002,124.48730499999965,121.6665039999998,99.10253900000043,106.41015599999992,-560.1281740000004,108.0771479999994
373,-57.82055700000001,-198.20507799999996,109.61523400000078,93.9741210000002,119.35888699999941,119.35888699999941,124.61523400000078,124.23095699999976,123.46142599999985,122.94873000000007,100.25634799999989,107.17968800000017,-556.794922,110.25634799999989
374,-56.41015600000037,-198.71801800000003,108.46142599999985,94.48730499999965,111.0258789999998,116.2822270000006,124.10253900000043,125.64111300000059,122.05126999999993,122.56396500000028,101.41015599999992,106.15380900000036,-554.8718259999996,110.38476599999922
375,-55.0,-200.2563479999999,107.30761700000039,94.35888699999941,108.0771479999994,115.25634799999989,123.7177729999994,126.6665039999998,121.79492200000004,121.15380900000036,101.6665039999998,103.58984400000008,-554.3588869999999,108.3334960000002
376,-53.58984399999963,-201.15380900000036,106.53857400000015,93.46142599999985,112.69238299999961,116.53857400000015,123.3334960000002,126.53857400000015,122.56396500000028,120.25634799999989,100.51269500000035,100.76904300000024,-553.974365,108.9741210000002
377,-52.564209000000574,-199.61547900000005,106.0258789999998,92.56396500000028,121.0258789999998,118.46142599999985,122.94873000000007,125.51269500000035,123.20507799999996,120.25634799999989,98.20507799999996,99.10253900000043,-552.4357909999994,112.56396500000028
378,-51.66674799999964,-195.5129390000002,105.38476599999922,92.30761700000039,126.9228520000006,119.48730499999965,122.82031300000017,124.87158199999976,123.46142599999985,120.76904300000024,95.89746099999957,98.9741210000002,-548.8461909999996,113.3334960000002
379,-50.89746100000002,-190.64111300000013,104.35888699999941,92.94873000000007,125.25634799999989,119.10253900000043,122.43603499999972,125.89746099999957,123.84619099999964,120.89746099999957,94.87158199999976,100.0,-543.8461909999996,109.87158199999976
380,-50.76928699999962,-187.9487299999996,103.20507799999996,93.46142599999985,116.41015599999992,116.6665039999998,120.51269500000035,127.82031300000017,124.23095699999976,120.12841800000024,95.0,101.0258789999998,-539.3588869999999,107.69238299999961
381,-51.41015600000037,-188.97436500000003,101.0258789999998,93.0771479999994,105.76904300000024,113.0771479999994,116.53857400000015,128.84619099999964,124.35888699999941,118.9741210000002,95.76904300000024,101.2822270000006,-536.025635,109.48730499999965
382,-51.66674799999964,-191.79492200000004,97.69238299999961,92.17968800000017,100.12841800000024,110.0,111.9228520000006,128.0771479999994,123.84619099999964,118.46142599999985,96.79492200000004,100.38476599999922,-532.0512700000004,110.51269500000035
383,-50.25634799999989,-193.20507799999996,94.35888699999941,91.9228520000006,103.20507799999996,109.48730499999965,109.74365200000011,126.15380900000036,122.94873000000007,119.10253900000043,98.46142599999985,100.0,-525.5129390000002,107.94873000000007
