,EEG.AF3,EEG.F7,EEG.F3,EEG.FC5,EEG.T7,EEG.P7,EEG.O1,EEG.O2,EEG.P8,EEG.T8,EEG.FC6,EEG.F4,EEG.F8,EEG.AF4
0,994.8715819999998,1145.256348,85.64111300000059,168.7177729999994,87.43603499999972,93.84619099999964,81.41015599999992,77.56396500000028,81.9228520000006,47.69238299999961,128.46142599999985,180.0,3019.615234000001,112.56396500000028
1,1036.2822270000006,1176.5385740000002,87.82031300000017,170.2563479999999,88.20507799999996,94.23095699999976,81.79492200000004,76.53857400000015,82.30761700000039,46.79492200000004,134.23095699999976,181.53857400000015,3051.6665040000007,115.0
2,1054.2309569999998,1206.0258789999998,87.56396500000028,171.2822270000006,88.3334960000002,94.23095699999976,81.2822270000006,76.0258789999998,82.82031300000017,47.05126999999993,136.79492200000004,178.7177729999994,3072.5639650000003,110.89746099999957
3,1060.6411130000006,1231.410156,84.87158199999976,172.3076170000004,87.30761700000039,93.20507799999996,80.38476599999922,76.53857400000015,83.20507799999996,48.333496000000196,137.94873000000007,173.84619099999964,3079.4873049999997,105.38476599999922
4,1076.2822270000006,1254.3588869999994,82.82031300000017,174.23095699999976,85.25634799999989,90.12841800000024,78.9741210000002,77.17968800000017,82.94873000000007,49.74365200000011,140.0,171.79492200000004,3075.6411129999997,105.64111300000059
5,1110.5126950000003,1278.9741210000002,83.58984400000008,177.3076170000004,83.3334960000002,86.41015599999992,77.17968800000017,77.05126999999993,81.9228520000006,50.25634799999989,143.84619099999964,174.48730499999965,3067.3076170000004,109.10253900000043
6,1151.410156,1306.1538090000004,86.79492200000004,180.12841800000024,82.94873000000007,84.23095699999976,75.89746099999957,75.76904300000024,80.64111300000059,49.102539000000434,147.56396500000028,179.87158199999976,3056.794922,109.87158199999976
7,1177.1796880000002,1329.3588869999994,90.0,179.7436520000001,83.84619099999964,84.61523400000078,75.76904300000024,73.46142599999985,79.87158199999976,46.2822270000006,148.20507799999996,182.56396500000028,3040.8974609999996,108.46142599999985
8,1176.794922,1340.1284180000002,90.25634799999989,175.0,83.7177729999994,85.76904300000024,76.41015599999992,70.89746099999957,79.48730499999965,42.05126999999993,144.87158199999976,179.48730499999965,3018.589844,109.35888699999941
9,1160.3847659999992,1335.6411130000006,87.69238299999961,167.94873000000007,81.53857400000015,85.64111300000059,76.79492200000004,68.58984400000008,79.35888699999941,37.56396500000028,139.7436520000001,172.3076170000004,2998.205078,111.53857400000015
10,1149.4873049999997,1323.3334960000002,85.12841800000024,163.58984400000008,78.58984400000008,83.7177729999994,76.2822270000006,67.69238299999961,79.35888699999941,35.0,136.15380900000036,165.51269500000035,2992.1796879999993,110.25634799999989
11,1157.94873,1314.8715819999998,84.74365200000011,164.61523400000078,77.30761700000039,80.89746099999957,75.25634799999989,69.10253900000043,79.23095699999976,35.51269500000035,135.6411130000006,162.6923829999996,3004.3588870000003,106.53857400000015
12,1182.8203130000002,1315.8974609999996,86.9228520000006,169.3588869999994,78.58984400000008,78.9741210000002,74.10253900000043,72.43603499999972,78.58984400000008,38.589844000000085,137.6923829999996,163.58984400000008,3024.871581999999,106.6665039999998
13,1211.6665039999998,1323.3334960000002,90.76904300000024,173.20507799999996,81.41015599999992,79.48730499999965,73.3334960000002,76.15380900000036,77.82031300000017,41.9228520000006,141.0258789999998,165.89746099999957,3039.1025390000004,110.25634799999989
14,1235.1284180000002,1329.6152340000008,95.12841800000024,173.0771479999994,84.48730499999965,82.69238299999961,73.84619099999964,78.7177729999994,77.56396500000028,43.589844000000085,145.2563479999999,167.82031300000017,3040.0,111.0258789999998
15,1253.4614259999998,1330.3847659999992,99.35888699999941,170.38476599999922,87.17968800000017,86.79492200000004,75.51269500000035,79.10253900000043,77.82031300000017,43.7177729999994,149.3588869999994,169.3588869999994,3032.6923829999996,107.17968800000017
16,1270.3847659999992,1326.5385740000002,102.69238299999961,168.20507799999996,89.23095699999976,89.10253900000043,77.17968800000017,77.69238299999961,77.94873000000007,43.46142599999985,152.05126999999993,171.2822270000006,3028.205078,105.0
17,1286.0258789999998,1321.9228520000006,105.12841800000024,168.20507799999996,91.15380900000036,88.7177729999994,78.3334960000002,75.89746099999957,77.94873000000007,44.35888699999941,152.05126999999993,173.84619099999964,3032.05127,107.30761700000039
18,1295.1284180000002,1318.589844,106.79492200000004,169.7436520000001,93.3334960000002,86.41015599999992,78.58984400000008,75.0,78.3334960000002,46.410155999999915,149.23095699999976,176.0258789999998,3038.3334959999993,108.84619099999964
19,1291.6665039999998,1314.743652,107.56396500000028,170.6411130000006,95.38476599999922,84.74365200000011,79.10253900000043,75.89746099999957,79.48730499999965,48.20507799999996,144.48730499999965,176.15380900000036,3033.3334959999993,105.51269500000035
20,1275.7690430000002,1306.0258789999998,107.05126999999993,169.3588869999994,96.15380900000036,84.35888699999941,79.87158199999976,77.94873000000007,80.0,47.56396500000028,138.58984400000008,173.20507799999996,3005.128418000001,102.30761700000039
21,1255.256348,1290.5126950000003,105.38476599999922,166.6665039999998,94.87158199999976,85.12841800000024,81.15380900000036,79.35888699999941,78.9741210000002,44.35888699999941,133.20507799999996,167.94873000000007,2954.871581999999,104.48730499999965
22,1239.3588869999994,1272.6923829999996,103.84619099999964,164.3588869999994,92.43603499999972,86.41015599999992,82.56396500000028,79.35888699999941,76.6665039999998,40.897460999999566,131.15380900000036,164.23095699999976,2897.05127,108.84619099999964
23,1229.1025390000004,1259.8715819999998,104.48730499999965,163.58984400000008,91.2822270000006,87.43603499999972,83.7177729999994,78.0771479999994,75.12841800000024,39.61523400000078,134.3588869999994,164.10253900000043,2847.5639650000003,110.25634799999989
24,1214.743652,1254.8715819999998,106.79492200000004,163.0771479999994,92.17968800000017,87.30761700000039,84.35888699999941,76.2822270000006,75.12841800000024,41.53857400000015,140.6411130000006,166.41015599999992,2810.6411129999997,110.12841800000024
25,1186.794922,1253.589844,108.58984400000008,160.6411130000006,92.94873000000007,85.38476599999922,84.10253900000043,74.87158199999976,76.2822270000006,44.61523400000078,145.2563479999999,167.6923829999996,2777.94873,111.9228520000006
26,1147.5639650000003,1248.205078,107.94873000000007,156.0258789999998,91.6665039999998,81.53857400000015,82.43603499999972,74.48730499999965,77.17968800000017,46.2822270000006,145.38476599999922,165.6411130000006,2737.94873,113.20507799999996
27,1109.3588869999994,1235.0,105.76904300000024,151.53857400000015,88.7177729999994,77.69238299999961,80.0,75.0,77.43603499999972,45.51269500000035,142.05126999999993,161.79492200000004,2686.5385739999992,109.61523400000078
28,1083.3334960000002,1215.6411130000006,104.48730499999965,149.7436520000001,86.15380900000036,75.38476599999922,77.56396500000028,75.89746099999957,77.05126999999993,43.46142599999985,138.84619099999964,158.7177729999994,2627.6923829999996,104.23095699999976
29,1071.410156,1195.5126950000003,105.38476599999922,151.2822270000006,85.38476599999922,74.87158199999976,76.0258789999998,76.2822270000006,76.0258789999998,42.05126999999993,138.46142599999985,158.58984400000008,2567.5639650000003,104.48730499999965
30,1068.7177729999994,1178.9741210000002,107.56396500000028,153.9741210000002,86.6665039999998,76.0258789999998,76.15380900000036,75.76904300000024,74.74365200000011,42.94873000000007,141.41015599999992,161.41015599999992,2508.0771479999994,110.0
31,1068.4614259999998,1166.410156,110.12841800000024,155.6411130000006,89.35888699999941,78.0771479999994,78.58984400000008,75.12841800000024,73.9741210000002,46.410155999999915,147.43603499999972,166.53857400000015,2447.5639650000003,113.0771479999994
32,1064.1025390000004,1153.589844,112.94873000000007,154.48730499999965,92.30761700000039,80.0,83.0771479999994,75.51269500000035,75.25634799999989,50.897460999999566,154.23095699999976,172.43603499999972,2382.94873,110.89746099999957
33,1049.743652,1135.256348,115.89746099999957,150.76904300000024,93.9741210000002,80.25634799999989,86.9228520000006,76.53857400000015,77.94873000000007,53.589844000000085,158.20507799999996,175.76904300000024,2311.410156,108.0771479999994
34,1023.205078,1109.3588869999994,117.82031300000017,145.6411130000006,93.58984400000008,78.58984400000008,87.94873000000007,77.05126999999993,80.25634799999989,53.20507799999996,156.53857400000015,174.10253900000043,2232.3076170000004,107.56396500000028
35,988.8461909999996,1078.205078,118.0771479999994,141.2822270000006,92.69238299999961,76.79492200000004,85.64111300000059,76.79492200000004,80.89746099999957,50.51269500000035,150.12841800000024,167.6923829999996,2147.820313,106.41015599999992
36,955.6411130000006,1046.1538090000004,117.56396500000028,138.58984400000008,92.82031300000017,77.30761700000039,82.69238299999961,77.05126999999993,81.0258789999998,48.974121000000196,143.58984400000008,159.61523400000078,2062.179688,103.46142599999985
37,931.5385740000002,1015.6411130000006,118.0771479999994,136.79492200000004,94.35888699999941,80.64111300000059,82.05126999999993,78.7177729999994,82.30761700000039,50.51269500000035,141.0258789999998,153.9741210000002,1979.743652,103.3334960000002
38,918.205078,986.9228520000006,120.25634799999989,134.48730499999965,96.0258789999998,84.35888699999941,84.23095699999976,82.17968800000017,85.0,54.87158199999976,142.94873000000007,151.9228520000006,1902.1796880000002,107.56396500000028
39,911.0258789999998,958.8461909999996,123.0771479999994,131.15380900000036,97.56396500000028,85.89746099999957,87.94873000000007,86.41015599999992,88.7177729999994,59.87158199999976,146.79492200000004,152.3076170000004,1830.1284180000002,109.87158199999976
40,901.5385740000002,929.8715819999998,125.51269500000035,127.05126999999993,98.7177729999994,84.35888699999941,91.79492200000004,90.76904300000024,92.82031300000017,63.7177729999994,150.38476599999922,153.7177729999994,1763.7177729999994,106.2822270000006
41,883.5898440000001,899.2309569999998,127.05126999999993,122.43603499999972,99.10253900000043,81.2822270000006,94.23095699999976,93.9741210000002,96.9228520000006,66.2822270000006,152.56396500000028,155.12841800000024,1702.6923829999996,101.6665039999998
42,856.1538090000004,867.1796880000002,127.05126999999993,116.53857400000015,98.20507799999996,78.9741210000002,94.61523400000078,94.87158199999976,100.76904300000024,67.82031300000017,153.3334960000002,155.2563479999999,1646.2822270000006,102.69238299999961
43,824.2309569999998,836.4101559999999,125.38476599999922,110.0,96.6665039999998,79.48730499999965,93.20507799999996,93.58984400000008,103.46142599999985,69.35888699999941,153.20507799999996,152.82031300000017,1594.3588869999994,107.56396500000028
44,794.6152340000008,810.8974609999996,123.46142599999985,104.23095699999976,97.43603499999972,82.94873000000007,91.15380900000036,91.6665039999998,104.74365200000011,71.53857400000015,152.82031300000017,148.7177729999994,1547.1796880000002,109.87158199999976
45,770.2563479999999,792.6923829999996,123.20507799999996,100.25634799999989,101.79492200000004,87.17968800000017,89.23095699999976,91.0258789999998,104.74365200000011,73.84619099999964,151.9228520000006,145.0,1505.0,109.48730499999965
46,748.5898440000001,780.3847659999992,125.51269500000035,97.94873000000007,107.94873000000007,89.10253900000043,87.69238299999961,91.9228520000006,103.3334960000002,74.48730499999965,150.51269500000035,143.0771479999994,1467.5639650000003,110.76904300000024
47,724.7436520000001,771.2822270000006,129.23095699999976,96.0258789999998,112.69238299999961,88.58984400000008,87.43603499999972,93.20507799999996,101.15380900000036,73.0771479999994,148.9741210000002,142.3076170000004,1433.9741210000002,112.82031300000017
48,696.9228520000006,763.0771479999994,132.94873000000007,93.58984400000008,114.10253900000043,88.58984400000008,89.10253900000043,94.23095699999976,100.38476599999922,71.2822270000006,148.58984400000008,142.17968800000017,1404.3588869999994,111.0258789999998
49,666.0258789999998,754.8715819999998,135.89746099999957,90.76904300000024,112.82031300000017,91.79492200000004,92.30761700000039,95.12841800000024,102.56396500000028,71.6665039999998,150.76904300000024,142.82031300000017,1378.4614259999998,107.17968800000017
50,634.8715819999998,746.794922,137.94873000000007,87.56396500000028,110.64111300000059,96.9228520000006,95.25634799999989,96.15380900000036,106.6665039999998,74.87158199999976,154.7436520000001,144.3588869999994,1354.743652,107.43603499999972
51,606.0258789999998,740.2563479999999,138.84619099999964,83.46142599999985,109.23095699999976,100.76904300000024,96.2822270000006,97.69238299999961,110.12841800000024,79.23095699999976,158.20507799999996,145.89746099999957,1331.5385740000002,111.9228520000006
52,581.794922,736.2822270000006,138.46142599999985,78.9741210000002,109.35888699999941,101.2822270000006,95.25634799999989,99.35888699999941,110.89746099999957,82.30761700000039,158.84619099999964,145.76904300000024,1307.4360349999997,113.84619099999964
53,563.8461909999996,734.4873049999997,137.05126999999993,75.0,110.51269500000035,98.9741210000002,93.20507799999996,100.25634799999989,109.35888699999941,83.0771479999994,156.2822270000006,143.58984400000008,1282.5639650000003,110.25634799999989
54,551.2822270000006,732.8203130000002,135.0,72.30761700000039,111.2822270000006,95.89746099999957,91.2822270000006,99.35888699999941,106.6665039999998,82.17968800000017,151.2822270000006,139.87158199999976,1257.3076170000004,106.9228520000006
55,542.5639650000003,729.2309569999998,132.6923829999996,70.76904300000024,110.64111300000059,93.7177729999994,90.12841800000024,96.79492200000004,104.48730499999965,80.89746099999957,145.6411130000006,135.51269500000035,1232.4360349999997,107.56396500000028
56,536.4101559999999,724.2309569999998,131.0258789999998,70.12841800000024,109.48730499999965,93.20507799999996,90.0,93.58984400000008,103.46142599999985,80.25634799999989,140.38476599999922,131.15380900000036,1208.8461909999996,108.46142599999985
57,532.1796880000002,719.4873049999997,131.0258789999998,70.0,109.48730499999965,93.46142599999985,90.51269500000035,90.89746099999957,103.3334960000002,80.89746099999957,136.2822270000006,127.43603499999972,1186.9228520000006,106.53857400000015
58,530.0,715.6411130000006,132.05126999999993,69.35888699999941,110.76904300000024,92.82031300000017,90.64111300000059,89.48730499999965,102.82031300000017,82.05126999999993,133.20507799999996,124.87158199999976,1165.7690430000002,105.89746099999957
59,529.3588869999994,712.5639650000003,132.94873000000007,67.82031300000017,112.17968800000017,90.76904300000024,89.74365200000011,88.9741210000002,101.53857400000015,82.94873000000007,131.0258789999998,123.58984400000008,1144.6152340000008,110.38476599999922
60,530.3847659999992,710.7690430000002,132.56396500000028,65.89746099999957,113.3334960000002,89.35888699999941,89.10253900000043,89.74365200000011,100.51269500000035,83.84619099999964,130.6411130000006,123.46142599999985,1123.8461909999996,115.0
61,532.1796880000002,711.4101559999999,132.3076170000004,65.38476599999922,115.0,91.2822270000006,90.12841800000024,91.9228520000006,101.6665039999998,86.2822270000006,132.82031300000017,123.9741210000002,1105.1284180000002,113.46142599999985
62,533.4614259999998,713.9741210000002,133.7177729999994,66.9228520000006,117.69238299999961,96.9228520000006,93.20507799999996,95.38476599999922,105.51269500000035,91.0258789999998,136.79492200000004,124.48730499999965,1089.2309569999998,108.46142599999985
63,532.1796880000002,715.6411130000006,136.6665039999998,69.48730499999965,120.38476599999922,102.17968800000017,97.30761700000039,99.23095699999976,110.0,97.05126999999993,140.12841800000024,123.7177729999994,1074.4873049999997,107.43603499999972
64,528.3334960000002,713.7177729999994,139.48730499999965,71.79492200000004,121.41015599999992,103.58984400000008,100.89746099999957,102.30761700000039,112.30761700000039,101.9228520000006,140.6411130000006,120.25634799999989,1058.7177729999994,110.25634799999989
65,523.3334960000002,708.5898440000001,139.61523400000078,72.94873000000007,120.51269500000035,101.2822270000006,102.94873000000007,104.23095699999976,112.05126999999993,104.10253900000043,138.3334960000002,113.9741210000002,1040.256348,111.2822270000006
66,518.4614259999998,702.0512699999999,137.17968800000017,72.43603499999972,118.84619099999964,98.7177729999994,103.46142599999985,104.87158199999976,110.25634799999989,103.0771479999994,134.3588869999994,106.53857400000015,1019.4873049999997,110.25634799999989
67,513.9741210000002,696.2822270000006,133.46142599999985,70.64111300000059,117.69238299999961,98.9741210000002,103.0771479999994,104.61523400000078,109.10253900000043,100.51269500000035,130.76904300000024,99.87158199999976,997.9487300000001,111.53857400000015
68,509.6152340000008,692.8203130000002,130.89746099999957,68.3334960000002,118.20507799999996,101.79492200000004,102.30761700000039,104.35888699999941,109.61523400000078,98.7177729999994,128.7177729999994,95.76904300000024,978.0771479999994,114.87158199999976
69,506.53857400000015,692.3076170000004,131.15380900000036,67.43603499999972,120.76904300000024,105.51269500000035,102.56396500000028,105.25634799999989,112.17968800000017,100.25634799999989,129.3588869999994,94.87158199999976,961.9228520000006,114.61523400000078
70,505.12841800000024,693.7177729999994,133.9741210000002,69.23095699999976,124.48730499999965,107.94873000000007,103.84619099999964,107.56396500000028,115.51269500000035,105.89746099999957,132.17968800000017,96.79492200000004,949.4873049999997,110.38476599999922
71,503.9741210000002,694.3588869999994,137.56396500000028,72.94873000000007,127.17968800000017,108.0771479999994,105.76904300000024,110.0,117.94873000000007,112.94873000000007,135.0,99.48730499999965,938.205078,108.46142599999985
72,500.76904300000024,691.6665039999998,139.48730499999965,75.64111300000059,127.43603499999972,106.6665039999998,107.05126999999993,111.15380900000036,118.20507799999996,116.9228520000006,135.12841800000024,100.51269500000035,924.8715819999998,111.6665039999998
73,494.7436520000001,685.7690430000002,138.9741210000002,75.25634799999989,126.0258789999998,105.64111300000059,107.56396500000028,110.89746099999957,116.53857400000015,115.12841800000024,131.6665039999998,98.3334960000002,908.9741210000002,114.48730499999965
74,486.6665039999998,679.4873049999997,136.9228520000006,71.79492200000004,124.61523400000078,106.41015599999992,108.0771479999994,110.51269500000035,114.48730499999965,108.9741210000002,126.53857400000015,93.3334960000002,891.6665039999998,113.3334960000002
75,477.94873000000007,674.6152340000008,134.87158199999976,67.30761700000039,123.84619099999964,108.20507799999996,108.58984400000008,110.76904300000024,113.0771479999994,102.69238299999961,121.6665039999998,87.17968800000017,874.1025390000004,112.30761700000039
76,469.10253900000043,670.8974609999996,133.0771479999994,64.10253900000043,122.94873000000007,108.46142599999985,108.7177729999994,111.0258789999998,112.94873000000007,100.25634799999989,117.82031300000017,81.6665039999998,856.2822270000006,115.0
77,460.2563479999999,666.9228520000006,131.0258789999998,63.974121000000196,120.76904300000024,105.89746099999957,107.69238299999961,110.76904300000024,113.7177729999994,102.17968800000017,115.0,77.30761700000039,837.9487300000001,117.56396500000028
78,451.6665039999998,661.4101559999999,128.7177729999994,66.53857400000015,118.0771479999994,101.6665039999998,105.89746099999957,110.0,113.9741210000002,106.2822270000006,112.69238299999961,75.0,820.3847659999992,115.38476599999922
79,443.3334960000002,654.8715819999998,127.17968800000017,69.74365200000011,115.76904300000024,98.84619099999964,104.35888699999941,109.23095699999976,112.94873000000007,109.35888699999941,111.15380900000036,74.61523400000078,805.2563479999999,112.05126999999993
80,436.15380900000036,649.2309569999998,127.43603499999972,72.05126999999993,115.51269500000035,99.48730499999965,104.61523400000078,108.9741210000002,110.89746099999957,110.25634799999989,110.89746099999957,75.89746099999957,793.9741210000002,112.69238299999961
81,432.17968800000017,646.4101559999999,130.51269500000035,73.7177729999994,118.58984400000008,103.58984400000008,107.17968800000017,109.23095699999976,109.87158199999976,110.0,112.82031300000017,78.58984400000008,786.1538090000004,115.25634799999989
82,433.3334960000002,647.0512699999999,135.6411130000006,76.0258789999998,125.0,109.23095699999976,111.15380900000036,109.87158199999976,111.2822270000006,110.38476599999922,116.9228520000006,81.9228520000006,779.6152340000008,114.10253900000043
83,437.17968800000017,648.205078,140.89746099999957,79.35888699999941,132.17968800000017,113.46142599999985,114.74365200000011,111.15380900000036,113.9741210000002,111.53857400000015,120.64111300000059,85.25634799999989,770.0,110.64111300000059
84,438.0771479999994,645.3847659999992,143.3334960000002,81.9228520000006,135.89746099999957,114.48730499999965,115.89746099999957,112.17968800000017,115.0,111.6665039999998,120.25634799999989,86.53857400000015,753.9741210000002,110.89746099999957
85,432.17968800000017,636.1538090000004,142.17968800000017,82.05126999999993,134.10253900000043,113.0771479999994,114.35888699999941,111.9228520000006,112.69238299999961,109.74365200000011,115.12841800000024,84.87158199999976,732.5639650000003,114.23095699999976
86,421.79492200000004,623.7177729999994,139.10253900000043,80.0,128.9741210000002,112.05126999999993,111.79492200000004,110.51269500000035,108.7177729999994,106.6665039999998,108.46142599999985,80.89746099999957,711.9228520000006,113.9741210000002
87,413.3334960000002,613.9741210000002,136.79492200000004,77.69238299999961,124.48730499999965,112.94873000000007,110.38476599999922,109.48730499999965,105.89746099999957,104.74365200000011,105.0,77.17968800000017,697.6923829999996,109.35888699999941
88,410.3847659999992,609.7436520000001,137.05126999999993,76.9228520000006,123.0771479999994,115.25634799999989,110.64111300000059,109.23095699999976,105.64111300000059,105.25634799999989,106.53857400000015,75.64111300000059,689.2309569999998,106.53857400000015
89,411.2822270000006,608.5898440000001,138.9741210000002,77.94873000000007,125.12841800000024,117.82031300000017,112.05126999999993,109.61523400000078,107.94873000000007,107.69238299999961,110.12841800000024,76.53857400000015,679.4873049999997,108.46142599999985
90,409.6152340000008,604.7436520000001,140.89746099999957,79.35888699999941,128.7177729999994,119.74365200000011,113.84619099999964,109.87158199999976,110.89746099999957,109.23095699999976,111.0258789999998,77.94873000000007,661.5385740000002,110.25634799999989
91,400.89746099999957,594.1025390000004,141.2822270000006,79.48730499999965,131.0258789999998,120.51269500000035,115.64111300000059,109.87158199999976,112.56396500000028,107.94873000000007,106.6665039999998,77.43603499999972,635.3847659999992,109.10253900000043
92,386.0258789999998,576.9228520000006,139.7436520000001,76.9228520000006,129.7436520000001,119.23095699999976,116.79492200000004,109.61523400000078,111.53857400000015,103.58984400000008,98.84619099999964,73.84619099999964,609.1025390000004,108.58984400000008
93,372.17968800000017,558.9741210000002,136.53857400000015,73.46142599999985,125.51269500000035,116.53857400000015,117.43603499999972,109.74365200000011,109.10253900000043,99.35888699999941,93.46142599999985,68.7177729999994,593.4614259999998,111.2822270000006
94,368.20507799999996,546.4101559999999,133.9741210000002,71.9228520000006,121.9228520000006,114.74365200000011,117.94873000000007,111.2822270000006,108.46142599999985,99.35888699999941,96.2822270000006,66.0258789999998,595.2563479999999,112.94873000000007
95,377.4360349999997,541.5385740000002,134.10253900000043,73.3334960000002,122.05126999999993,115.51269500000035,119.74365200000011,115.12841800000024,111.9228520000006,105.64111300000059,108.20507799999996,69.35888699999941,612.0512699999999,110.51269500000035
96,394.48730499999965,539.7436520000001,137.6923829999996,76.2822270000006,125.0,118.3334960000002,122.69238299999961,120.51269500000035,118.3334960000002,116.53857400000015,124.48730499999965,78.46142599999985,633.205078,108.84619099999964
97,408.5898440000001,533.7177729999994,142.6923829999996,78.3334960000002,127.94873000000007,121.53857400000015,125.12841800000024,124.61523400000078,124.61523400000078,127.56396500000028,138.20507799999996,88.7177729999994,647.1796880000002,112.30761700000039
98,413.20507799999996,520.1284180000002,146.79492200000004,78.3334960000002,128.9741210000002,124.23095699999976,125.89746099999957,125.76904300000024,128.3334960000002,135.76904300000024,145.6411130000006,95.76904300000024,650.1284180000002,116.6665039999998
99,409.87158199999976,501.79492200000004,149.10253900000043,77.30761700000039,128.84619099999964,126.79492200000004,125.38476599999922,125.12841800000024,130.38476599999922,141.41015599999992,148.58984400000008,98.84619099999964,647.3076170000004,115.25634799999989
100,405.12841800000024,484.3588869999994,150.51269500000035,76.53857400000015,129.3588869999994,129.3588869999994,125.38476599999922,125.76904300000024,132.82031300000017,146.41015599999992,150.89746099999957,100.12841800000024,646.0258789999998,110.64111300000059
101,403.84619099999964,470.51269500000035,151.79492200000004,76.15380900000036,130.76904300000024,131.0258789999998,126.6665039999998,129.10253900000043,136.41015599999992,151.79492200000004,154.87158199999976,102.56396500000028,648.7177729999994,110.0
102,405.51269500000035,460.0,153.20507799999996,75.38476599999922,132.43603499999972,131.53857400000015,128.7177729999994,133.9741210000002,139.87158199999976,157.6923829999996,159.3588869999994,105.89746099999957,651.4101559999999,113.7177729999994
103,405.2563479999999,450.51269500000035,153.84619099999964,73.9741210000002,133.46142599999985,131.79492200000004,130.38476599999922,137.6923829999996,141.2822270000006,162.05126999999993,161.53857400000015,108.3334960000002,648.205078,115.0
104,398.5898440000001,440.51269500000035,152.82031300000017,72.56396500000028,133.3334960000002,132.3076170000004,131.2822270000006,137.82031300000017,140.0,162.82031300000017,159.10253900000043,107.56396500000028,636.0258789999998,112.43603499999972
105,385.89746099999957,430.3847659999992,150.0,71.41015599999992,132.05126999999993,132.43603499999972,130.6411130000006,134.48730499999965,136.6665039999998,159.61523400000078,152.3076170000004,102.69238299999961,616.794922,111.0258789999998
106,371.79492200000004,422.17968800000017,145.6411130000006,70.76904300000024,130.0,130.76904300000024,128.58984400000008,129.87158199999976,132.82031300000017,153.7177729999994,143.84619099999964,95.51269500000035,596.6665039999998,112.56396500000028
107,361.53857400000015,416.79492200000004,141.2822270000006,70.51269500000035,127.94873000000007,127.17968800000017,125.51269500000035,126.79492200000004,130.2563479999999,147.94873000000007,137.94873000000007,89.48730499999965,581.2822270000006,112.56396500000028
108,356.6665039999998,412.94873000000007,138.9741210000002,70.51269500000035,125.89746099999957,122.94873000000007,122.05126999999993,126.0258789999998,129.61523400000078,144.7436520000001,136.9228520000006,87.82031300000017,571.794922,109.87158199999976
109,353.5898440000001,407.17968800000017,139.48730499999965,70.38476599999922,123.20507799999996,119.61523400000078,119.35888699999941,126.15380900000036,129.87158199999976,144.23095699999976,139.48730499999965,90.38476599999922,563.9741210000002,109.23095699999976
110,347.94873000000007,398.20507799999996,141.53857400000015,70.0,119.87158199999976,118.0771479999994,117.69238299999961,125.0,128.9741210000002,145.0,142.3076170000004,93.58984400000008,553.3334960000002,112.05126999999993
111,338.20507799999996,387.5639650000003,143.58984400000008,70.38476599999922,116.79492200000004,118.7177729999994,117.43603499999972,122.30761700000039,126.53857400000015,145.0,142.05126999999993,93.58984400000008,538.5898440000001,113.0771479999994
112,326.9228520000006,378.7177729999994,144.10253900000043,72.05126999999993,116.0258789999998,121.15380900000036,118.46142599999985,119.74365200000011,123.9741210000002,143.46142599999985,138.3334960000002,90.25634799999989,521.9228520000006,109.48730499999965
113,317.6923829999996,372.94873000000007,143.20507799999996,74.74365200000011,118.20507799999996,123.3334960000002,120.38476599999922,119.23095699999976,123.20507799999996,141.41015599999992,132.82031300000017,86.6665039999998,506.6665039999998,106.9228520000006
114,311.9228520000006,369.48730499999965,141.9228520000006,77.05126999999993,122.17968800000017,123.3334960000002,122.17968800000017,121.15380900000036,124.74365200000011,140.51269500000035,127.94873000000007,85.89746099999957,495.2563479999999,110.0
115,308.7177729999994,366.6665039999998,141.0258789999998,78.0771479999994,125.89746099999957,121.0258789999998,122.94873000000007,123.84619099999964,127.43603499999972,141.6665039999998,125.76904300000024,87.69238299999961,487.82031300000017,114.10253900000043
116,306.0258789999998,363.3334960000002,141.15380900000036,77.82031300000017,128.58984400000008,118.58984400000008,122.82031300000017,125.0,129.10253900000043,143.7177729999994,126.15380900000036,89.74365200000011,481.9228520000006,112.69238299999961
117,301.4101559999999,357.6923829999996,142.17968800000017,77.30761700000039,130.0,118.3334960000002,122.56396500000028,123.7177729999994,128.84619099999964,144.48730499999965,127.30761700000039,89.61523400000078,473.5898440000001,108.0771479999994
118,293.7177729999994,349.23095699999976,142.56396500000028,77.30761700000039,130.2563479999999,120.51269500000035,123.3334960000002,121.41015599999992,126.79492200000004,143.0771479999994,127.43603499999972,87.05126999999993,460.6411130000006,106.6665039999998
119,284.10253900000043,338.9741210000002,141.53857400000015,77.56396500000028,129.7436520000001,123.9741210000002,126.0258789999998,121.0258789999998,124.74365200000011,141.15380900000036,126.6665039999998,84.35888699999941,445.0,108.84619099999964
120,274.87158199999976,329.87158199999976,139.48730499999965,78.20507799999996,129.3588869999994,126.53857400000015,130.0,124.23095699999976,125.12841800000024,141.0258789999998,126.9228520000006,83.7177729999994,431.2822270000006,109.35888699999941
121,266.9228520000006,323.3334960000002,138.20507799999996,78.46142599999985,129.3588869999994,126.79492200000004,132.94873000000007,129.61523400000078,128.46142599999985,143.58984400000008,128.84619099999964,86.0258789999998,422.6923829999996,107.82031300000017
122,260.12841800000024,318.46142599999985,139.10253900000043,78.0771479999994,128.7177729999994,124.23095699999976,132.17968800000017,133.46142599999985,132.6923829999996,147.94873000000007,131.0258789999998,89.48730499999965,417.82031300000017,108.7177729999994
123,253.9741210000002,314.3588869999994,142.3076170000004,77.69238299999961,127.43603499999972,120.64111300000059,128.0771479999994,133.3334960000002,135.12841800000024,151.79492200000004,131.41015599999992,92.05126999999993,413.46142599999985,111.6665039999998
124,248.9741210000002,310.76904300000024,146.6665039999998,78.58984400000008,126.15380900000036,119.35888699999941,123.84619099999964,130.12841800000024,134.87158199999976,154.23095699999976,130.38476599999922,92.82031300000017,407.4360349999997,111.9228520000006
125,245.76904300000024,307.94873000000007,150.2563479999999,81.41015599999992,126.15380900000036,121.6665039999998,123.20507799999996,127.43603499999972,132.94873000000007,155.2563479999999,129.87158199999976,93.20507799999996,399.87158199999976,109.35888699999941
126,242.56396500000028,304.87158199999976,151.79492200000004,85.0,127.05126999999993,126.0258789999998,126.6665039999998,127.69238299999961,131.0258789999998,155.38476599999922,130.51269500000035,94.10253900000043,391.6665039999998,110.12841800000024
127,237.3076170000004,300.6411130000006,150.38476599999922,87.30761700000039,127.94873000000007,129.10253900000043,132.05126999999993,130.76904300000024,130.38476599999922,154.10253900000043,130.89746099999957,94.87158199999976,383.20507799999996,115.51269500000035
128,228.9741210000002,294.6152340000008,147.3076170000004,87.17968800000017,128.3334960000002,129.10253900000043,136.2822270000006,134.23095699999976,131.41015599999992,151.41015599999992,129.3588869999994,93.84619099999964,374.23095699999976,118.9741210000002
129,218.7177729999994,286.53857400000015,144.3588869999994,84.61523400000078,127.56396500000028,126.9228520000006,137.56396500000028,135.89746099999957,133.20507799999996,147.56396500000028,125.51269500000035,90.12841800000024,363.46142599999985,116.53857400000015
130,207.94873000000007,275.76904300000024,142.56396500000028,80.89746099999957,125.12841800000024,123.84619099999964,135.38476599999922,135.2563479999999,133.84619099999964,143.46142599999985,120.38476599999922,84.23095699999976,349.7436520000001,112.82031300000017
131,197.17968800000017,263.0771479999994,141.15380900000036,77.17968800000017,120.89746099999957,121.41015599999992,131.15380900000036,132.56396500000028,131.6665039999998,140.0,115.64111300000059,78.0771479999994,333.5898440000001,112.69238299999961
132,187.43603499999972,250.89746099999957,138.84619099999964,75.0,117.05126999999993,120.76904300000024,127.43603499999972,129.7436520000001,127.30761700000039,137.82031300000017,113.0771479999994,74.35888699999941,318.5898440000001,113.84619099999964
133,179.87158199999976,243.3334960000002,136.15380900000036,75.25634799999989,116.15380900000036,122.56396500000028,126.9228520000006,128.7177729999994,123.58984400000008,137.43603499999972,113.3334960000002,74.48730499999965,308.9741210000002,112.30761700000039
134,174.61523400000078,241.0258789999998,134.61523400000078,77.56396500000028,118.7177729999994,125.64111300000059,130.12841800000024,130.38476599999922,123.20507799999996,138.46142599999985,115.51269500000035,78.0771479999994,305.51269500000035,110.89746099999957
135,170.51269500000035,241.2822270000006,135.51269500000035,80.0,122.30761700000039,127.05126999999993,134.10253900000043,133.58984400000008,125.89746099999957,139.87158199999976,117.30761700000039,82.05126999999993,304.48730499999965,113.46142599999985
136,166.6665039999998,240.6411130000006,138.3334960000002,81.0258789999998,124.23095699999976,125.76904300000024,135.89746099999957,135.89746099999957,129.87158199999976,140.76904300000024,117.94873000000007,84.35888699999941,300.2563479999999,116.53857400000015
137,163.0771479999994,237.94873000000007,141.41015599999992,81.0258789999998,124.48730499999965,123.20507799999996,135.2563479999999,136.79492200000004,133.0771479999994,141.53857400000015,118.20507799999996,85.12841800000024,290.76904300000024,114.74365200000011
138,160.12841800000024,235.0,144.10253900000043,81.53857400000015,124.87158199999976,121.79492200000004,133.84619099999964,136.2822270000006,134.7436520000001,143.0771479999994,119.87158199999976,85.64111300000059,278.20507799999996,110.51269500000035
139,157.43603499999972,233.84619099999964,145.38476599999922,83.84619099999964,126.6665039999998,122.43603499999972,133.58984400000008,134.7436520000001,134.48730499999965,144.61523400000078,122.94873000000007,86.15380900000036,266.0258789999998,110.64111300000059
140,154.48730499999965,235.2563479999999,145.38476599999922,87.56396500000028,130.51269500000035,124.87158199999976,134.61523400000078,132.17968800000017,132.6923829999996,144.61523400000078,126.2822270000006,86.6665039999998,256.6665039999998,114.35888699999941
141,151.41015599999992,237.56396500000028,144.87158199999976,91.15380900000036,135.12841800000024,128.46142599999985,136.2822270000006,129.3588869999994,131.0258789999998,142.6923829999996,128.46142599999985,86.9228520000006,250.89746099999957,115.0
142,148.0771479999994,237.6923829999996,144.3588869999994,92.69238299999961,138.20507799999996,131.2822270000006,136.79492200000004,127.30761700000039,130.38476599999922,140.38476599999922,129.23095699999976,87.30761700000039,247.43603499999972,111.0258789999998
143,142.82031300000017,232.82031300000017,143.58984400000008,90.76904300000024,137.56396500000028,131.53857400000015,135.38476599999922,126.15380900000036,130.2563479999999,139.23095699999976,128.3334960000002,86.79492200000004,243.0771479999994,108.7177729999994
144,134.7436520000001,223.58984400000008,141.9228520000006,86.0258789999998,132.94873000000007,128.20507799999996,131.9228520000006,125.64111300000059,129.61523400000078,139.3588869999994,126.79492200000004,84.23095699999976,235.76904300000024,111.15380900000036
145,125.0,213.84619099999964,139.61523400000078,81.79492200000004,127.69238299999961,123.46142599999985,128.46142599999985,125.76904300000024,128.0771479999994,140.38476599999922,125.25634799999989,79.74365200000011,226.0258789999998,113.3334960000002
146,116.41015599999992,207.94873000000007,138.20507799999996,81.41015599999992,125.12841800000024,120.12841800000024,126.79492200000004,127.17968800000017,126.79492200000004,141.6665039999998,124.23095699999976,76.41015599999992,216.6665039999998,111.9228520000006
147,110.76904300000024,206.9228520000006,138.84619099999964,84.61523400000078,126.15380900000036,120.12841800000024,126.9228520000006,129.87158199999976,127.30761700000039,143.20507799999996,123.46142599999985,77.05126999999993,210.12841800000024,110.76904300000024
148,107.56396500000028,208.3334960000002,141.15380900000036,88.7177729999994,129.10253900000043,122.69238299999961,127.94873000000007,132.94873000000007,130.0,144.87158199999976,123.20507799999996,82.05126999999993,205.76904300000024,112.82031300000017
149,104.74365200000011,208.7177729999994,143.20507799999996,90.64111300000059,131.15380900000036,125.25634799999989,128.7177729999994,134.61523400000078,133.84619099999964,146.79492200000004,123.46142599999985,88.46142599999985,201.6665039999998,113.84619099999964
150,100.76904300000024,205.89746099999957,143.58984400000008,90.0,130.89746099999957,125.51269500000035,128.20507799999996,133.9741210000002,136.9228520000006,149.10253900000043,124.35888699999941,92.82031300000017,195.76904300000024,110.76904300000024
151,94.10253900000043,199.23095699999976,141.79492200000004,87.43603499999972,127.94873000000007,122.43603499999972,126.2822270000006,131.41015599999992,137.43603499999972,151.0258789999998,125.25634799999989,92.43603499999972,187.05126999999993,107.94873000000007
152,85.12841800000024,190.0,138.58984400000008,84.23095699999976,123.7177729999994,117.17968800000017,123.20507799999996,128.20507799999996,135.0,151.41015599999992,125.38476599999922,87.82031300000017,176.15380900000036,110.64111300000059
153,76.2822270000006,181.0258789999998,135.89746099999957,81.79492200000004,120.25634799999989,113.0771479999994,120.38476599999922,127.05126999999993,131.79492200000004,150.2563479999999,125.0,82.17968800000017,165.6411130000006,114.61523400000078
154,70.89746099999957,175.89746099999957,135.76904300000024,81.41015599999992,120.0,113.0771479999994,118.9741210000002,128.9741210000002,130.6411130000006,149.61523400000078,124.61523400000078,79.48730499999965,158.20507799999996,113.3334960000002
155,70.0,176.0258789999998,138.3334960000002,83.46142599999985,123.20507799999996,116.41015599999992,119.23095699999976,132.6923829999996,132.82031300000017,150.76904300000024,124.87158199999976,81.9228520000006,153.7177729999994,108.84619099999964
156,71.2822270000006,179.7436520000001,142.3076170000004,86.9228520000006,127.69238299999961,120.0,120.51269500000035,134.7436520000001,136.79492200000004,153.20507799999996,125.25634799999989,87.56396500000028,149.7436520000001,108.0771479999994
157,71.9228520000006,183.9741210000002,145.51269500000035,89.87158199999976,130.76904300000024,120.89746099999957,122.17968800000017,133.84619099999964,140.12841800000024,155.2563479999999,124.87158199999976,92.43603499999972,144.10253900000043,111.41015599999992
158,69.87158199999976,185.89746099999957,146.79492200000004,91.15380900000036,131.9228520000006,119.23095699999976,123.9741210000002,131.15380900000036,141.0258789999998,155.2563479999999,123.84619099999964,93.3334960000002,136.6665039999998,112.94873000000007
159,64.48730499999965,184.3588869999994,146.0258789999998,90.64111300000059,131.53857400000015,116.53857400000015,125.0,128.7177729999994,139.23095699999976,152.82031300000017,122.43603499999972,90.25634799999989,128.20507799999996,111.41015599999992
160,56.666503999999804,179.23095699999976,143.84619099999964,88.7177729999994,130.2563479999999,115.0,124.48730499999965,127.43603499999972,136.15380900000036,148.9741210000002,120.76904300000024,85.12841800000024,119.35888699999941,111.2822270000006
161,48.46142599999985,172.82031300000017,140.6411130000006,86.9228520000006,128.84619099999964,115.64111300000059,123.0771479999994,126.9228520000006,133.20507799999996,145.2563479999999,119.23095699999976,80.89746099999957,111.0258789999998,113.0771479999994
162,42.43603499999972,168.7177729999994,137.43603499999972,87.05126999999993,128.46142599999985,117.82031300000017,122.30761700000039,126.6665039999998,131.9228520000006,143.3334960000002,118.46142599999985,78.9741210000002,103.58984400000008,112.43603499999972
163,39.35888699999941,168.3334960000002,135.12841800000024,89.10253900000043,129.10253900000043,120.0,122.69238299999961,126.0258789999998,131.53857400000015,142.94873000000007,118.20507799999996,79.10253900000043,96.41015599999992,108.7177729999994
164,36.79492200000004,169.7436520000001,133.84619099999964,91.2822270000006,129.48730499999965,119.61523400000078,123.58984400000008,124.48730499999965,130.38476599999922,142.43603499999972,116.9228520000006,79.74365200000011,88.20507799999996,107.43603499999972
165,32.82031300000017,169.48730499999965,133.46142599999985,91.79492200000004,128.9741210000002,116.6665039999998,123.7177729999994,122.82031300000017,127.69238299999961,140.6411130000006,113.58984400000008,79.87158199999976,79.23095699999976,110.76904300000024
166,27.69238299999961,166.6665039999998,133.84619099999964,91.0258789999998,128.3334960000002,113.9741210000002,123.3334960000002,122.69238299999961,124.87158199999976,138.7177729999994,110.0,80.12841800000024,72.30761700000039,112.94873000000007
167,24.358886999999413,163.3334960000002,135.89746099999957,90.89746099999957,129.3588869999994,114.48730499999965,123.46142599999985,124.61523400000078,124.48730499999965,138.84619099999964,109.87158199999976,81.9228520000006,69.74365200000011,110.25634799999989
168,23.589844000000085,161.0258789999998,139.10253900000043,92.17968800000017,131.53857400000015,118.0771479999994,124.74365200000011,127.56396500000028,127.30761700000039,141.6665039999998,114.48730499999965,85.38476599999922,70.76904300000024,107.43603499999972
169,23.717772999999397,159.3588869999994,141.79492200000004,93.84619099999964,132.94873000000007,121.79492200000004,126.15380900000036,129.3588869999994,131.41015599999992,145.0,120.89746099999957,88.84619099999964,71.53857400000015,109.35888699999941
170,22.17968800000017,157.17968800000017,141.9228520000006,94.48730499999965,132.6923829999996,122.94873000000007,126.41015599999992,128.84619099999964,134.23095699999976,146.6665039999998,124.74365200000011,90.25634799999989,69.23095699999976,112.56396500000028
171,18.205077999999958,154.48730499999965,139.87158199999976,93.46142599999985,131.41015599999992,121.41015599999992,124.87158199999976,127.05126999999993,134.61523400000078,145.76904300000024,124.23095699999976,88.84619099999964,63.974121000000196,111.53857400000015
172,12.82031300000017,152.43603499999972,137.94873000000007,91.53857400000015,131.15380900000036,118.9741210000002,122.30761700000039,125.25634799999989,132.82031300000017,143.58984400000008,120.64111300000059,85.76904300000024,57.30761700000039,108.58984400000008
173,7.307617000000391,151.53857400000015,137.82031300000017,90.64111300000059,132.6923829999996,117.43603499999972,120.51269500000035,123.7177729999994,130.0,141.79492200000004,116.6665039999998,83.0771479999994,50.64111300000059,109.35888699999941
174,3.2050779999999577,151.9228520000006,138.84619099999964,91.6665039999998,135.0,117.69238299999961,119.87158199999976,122.17968800000017,127.94873000000007,141.41015599999992,114.10253900000043,81.6665039999998,44.35888699999941,112.43603499999972
175,0.38476599999921746,153.0771479999994,138.9741210000002,93.9741210000002,136.2822270000006,119.10253900000043,120.12841800000024,120.38476599999922,127.17968800000017,141.79492200000004,113.3334960000002,81.0258789999998,37.94873000000007,112.56396500000028
176,-2.4360349999997197,153.58984400000008,137.3076170000004,95.12841800000024,134.48730499999965,120.12841800000024,119.48730499999965,118.9741210000002,126.79492200000004,140.89746099999957,113.20507799999996,80.0,31.025878999999804,110.25634799999989
177,-7.307617000000391,151.15380900000036,134.23095699999976,93.58984400000008,130.2563479999999,118.9741210000002,117.43603499999972,117.56396500000028,125.38476599999922,137.82031300000017,112.30761700000039,77.43603499999972,23.077147999999397,110.89746099999957
178,-14.102538999999979,146.0258789999998,131.15380900000036,90.76904300000024,126.2822270000006,116.41015599999992,114.35888699999941,116.15380900000036,122.82031300000017,133.84619099999964,110.25634799999989,74.35888699999941,15.384765999999217,113.84619099999964
179,-20.769286999999622,140.38476599999922,129.87158199999976,89.10253900000043,125.64111300000059,114.48730499999965,111.79492200000004,114.74365200000011,120.38476599999922,131.6665039999998,108.58984400000008,72.30761700000039,10.512695000000349,113.46142599999985
180,-25.0,137.17968800000017,130.89746099999957,90.0,128.3334960000002,114.35888699999941,110.64111300000059,114.35888699999941,119.87158199999976,132.56396500000028,108.46142599999985,72.30761700000039,9.102539000000434,109.23095699999976
181,-27.179442999999992,136.0258789999998,132.56396500000028,91.9228520000006,130.89746099999957,114.74365200000011,110.51269500000035,115.0,121.15380900000036,135.0,108.58984400000008,73.46142599999985,8.461425999999847,107.82031300000017
182,-29.8718259999996,135.12841800000024,132.43603499999972,92.69238299999961,129.87158199999976,113.9741210000002,109.74365200000011,115.38476599999922,122.43603499999972,136.2822270000006,106.6665039999998,73.7177729999994,3.9741210000001956,111.53857400000015
183,-35.38452099999995,132.43603499999972,129.87158199999976,91.79492200000004,125.38476599999922,112.17968800000017,108.46142599999985,115.0,122.30761700000039,134.23095699999976,101.53857400000015,71.9228520000006,-6.666747999999643,114.61523400000078
184,-43.71801800000003,127.56396500000028,126.2822270000006,89.87158199999976,120.76904300000024,110.89746099999957,108.20507799999996,114.48730499999965,120.38476599999922,129.23095699999976,95.12841800000024,68.58984400000008,-21.28198199999997,113.0771479999994
185,-52.30761700000039,122.05126999999993,124.48730499999965,88.58984400000008,119.23095699999976,111.6665039999998,110.25634799999989,114.74365200000011,117.82031300000017,123.20507799999996,90.51269500000035,65.76904300000024,-34.48706099999981,110.89746099999957
186,-57.82055700000001,117.43603499999972,125.12841800000024,88.7177729999994,120.64111300000059,113.84619099999964,113.84619099999964,115.64111300000059,116.0258789999998,118.9741210000002,90.12841800000024,65.25634799999989,-40.51293900000019,111.9228520000006
187,-57.948729999999614,115.51269500000035,127.17968800000017,90.12841800000024,122.56396500000028,116.0258789999998,116.9228520000006,116.41015599999992,116.0258789999998,118.46142599999985,94.48730499999965,67.56396500000028,-36.92309599999999,112.94873000000007
188,-53.71801800000003,116.41015599999992,129.23095699999976,91.9228520000006,122.30761700000039,116.9228520000006,117.56396500000028,116.79492200000004,117.69238299999961,122.17968800000017,101.53857400000015,72.30761700000039,-26.28198199999997,110.51269500000035
189,-48.846190999999635,117.56396500000028,130.6411130000006,92.56396500000028,119.48730499999965,116.0258789999998,115.51269500000035,117.05126999999993,119.87158199999976,128.7177729999994,107.94873000000007,77.82031300000017,-15.38452099999995,108.3334960000002
190,-47.564209000000574,116.15380900000036,131.53857400000015,91.6665039999998,116.0258789999998,113.9741210000002,112.43603499999972,117.82031300000017,121.41015599999992,135.2563479999999,111.0258789999998,82.05126999999993,-10.897461000000021,110.76904300000024
191,-51.28198199999997,111.15380900000036,132.3076170000004,90.38476599999922,115.25634799999989,112.56396500000028,111.15380900000036,119.23095699999976,122.05126999999993,139.10253900000043,110.64111300000059,83.84619099999964,-14.8718259999996,113.84619099999964
192,-57.69238299999961,105.12841800000024,133.0771479999994,90.25634799999989,119.23095699999976,113.58984400000008,113.7177729999994,121.15380900000036,122.30761700000039,140.0,108.9741210000002,83.46142599999985,-23.461425999999847,111.53857400000015
193,-63.20507799999996,101.53857400000015,132.94873000000007,92.30761700000039,126.41015599999992,117.17968800000017,119.10253900000043,122.82031300000017,122.56396500000028,139.10253900000043,108.58984400000008,81.9228520000006,-31.025634999999966,106.15380900000036
194,-65.1281740000004,102.30761700000039,132.05126999999993,95.0,132.17968800000017,121.79492200000004,123.9741210000002,123.7177729999994,123.20507799999996,138.20507799999996,110.89746099999957,80.89746099999957,-34.10253899999998,104.61523400000078
195,-62.17944299999999,106.79492200000004,131.2822270000006,96.53857400000015,133.9741210000002,125.38476599999922,125.89746099999957,124.35888699999941,124.23095699999976,138.46142599999985,115.64111300000059,81.79492200000004,-32.564209000000574,107.69238299999961
196,-55.89746100000002,112.30761700000039,132.82031300000017,96.53857400000015,132.82031300000017,127.30761700000039,125.64111300000059,125.38476599999922,126.2822270000006,140.6411130000006,121.2822270000006,85.64111300000059,-28.71801800000003,109.74365200000011
197,-50.25634799999989,115.38476599999922,136.9228520000006,96.2822270000006,131.6665039999998,128.20507799999996,125.12841800000024,127.05126999999993,128.84619099999964,144.23095699999976,125.0,91.2822270000006,-25.769286999999622,109.48730499999965
198,-49.35888699999987,113.84619099999964,140.89746099999957,96.9228520000006,132.05126999999993,128.20507799999996,125.38476599999922,127.82031300000017,130.2563479999999,147.17968800000017,124.61523400000078,95.64111300000059,-26.538574000000153,110.76904300000024
199,-54.74365200000011,108.58984400000008,141.41015599999992,98.46142599999985,133.46142599999985,127.30761700000039,125.25634799999989,126.53857400000015,128.7177729999994,147.05126999999993,120.12841800000024,95.25634799999989,-31.923095999999987,113.84619099999964
200,-63.71801800000003,102.43603499999972,137.05126999999993,100.25634799999989,134.61523400000078,125.76904300000024,123.58984400000008,123.84619099999964,124.87158199999976,142.82031300000017,113.84619099999964,89.74365200000011,-40.51293900000019,113.58984400000008
201,-72.17944299999999,97.94873000000007,130.2563479999999,101.15380900000036,134.3588869999994,123.58984400000008,120.76904300000024,121.2822270000006,120.76904300000024,136.41015599999992,108.46142599999985,82.17968800000017,-49.8718259999996,109.10253900000043
202,-77.94872999999961,95.12841800000024,124.61523400000078,100.64111300000059,132.6923829999996,121.15380900000036,118.0771479999994,120.12841800000024,118.84619099999964,131.15380900000036,105.12841800000024,76.2822270000006,-58.33325200000036,107.17968800000017
203,-81.28198199999997,92.56396500000028,122.30761700000039,99.10253900000043,130.2563479999999,118.7177729999994,117.17968800000017,121.2822270000006,119.61523400000078,129.7436520000001,104.23095699999976,74.10253900000043,-64.8718259999996,111.0258789999998
204,-83.07690400000001,89.61523400000078,123.58984400000008,97.56396500000028,129.23095699999976,117.56396500000028,119.35888699999941,124.74365200000011,122.69238299999961,132.6923829999996,105.64111300000059,75.25634799999989,-68.33325200000036,114.61523400000078
205,-83.71801800000003,86.9228520000006,127.05126999999993,97.30761700000039,130.51269500000035,118.58984400000008,123.9741210000002,128.7177729999994,126.6665039999998,137.6923829999996,108.3334960000002,78.3334960000002,-68.46142599999985,113.0771479999994
206,-84.74365200000011,84.35888699999941,130.0,97.94873000000007,132.17968800000017,120.38476599999922,127.69238299999961,130.89746099999957,129.48730499999965,141.15380900000036,110.64111300000059,81.53857400000015,-67.43579099999943,110.12841800000024
207,-87.82055700000001,80.76904300000024,130.6411130000006,97.56396500000028,131.53857400000015,119.74365200000011,126.9228520000006,129.87158199999976,129.3588869999994,140.38476599999922,111.0258789999998,82.69238299999961,-68.58984399999963,111.6665039999998
208,-93.71801800000003,75.38476599999922,128.46142599999985,95.12841800000024,127.30761700000039,115.25634799999989,121.53857400000015,126.6665039999998,126.41015599999992,135.6411130000006,109.61523400000078,80.64111300000059,-73.71801800000003,114.87158199999976
209,-100.76928699999962,69.23095699999976,125.38476599999922,91.2822270000006,121.0258789999998,108.7177729999994,114.23095699999976,123.7177729999994,123.20507799999996,130.12841800000024,107.56396500000028,77.05126999999993,-81.53857400000015,114.35888699999941
210,-106.15380900000036,64.23095699999976,123.20507799999996,88.20507799999996,115.76904300000024,103.20507799999996,109.35888699999941,122.30761700000039,122.30761700000039,127.69238299999961,106.2822270000006,74.74365200000011,-88.71801800000003,111.15380900000036
211,-108.84619099999964,61.666503999999804,122.69238299999961,87.43603499999972,113.7177729999994,101.53857400000015,109.35888699999941,122.56396500000028,124.48730499999965,129.87158199999976,106.15380900000036,75.25634799999989,-92.82055700000001,110.38476599999922
212,-109.10253899999998,62.17968800000017,123.3334960000002,89.23095699999976,116.0258789999998,104.48730499999965,114.10253900000043,123.7177729999994,128.20507799999996,135.51269500000035,106.79492200000004,78.20507799999996,-93.20507799999996,111.6665039999998
213,-107.69238299999961,64.61523400000078,124.23095699999976,92.30761700000039,121.0258789999998,110.89746099999957,120.89746099999957,125.64111300000059,131.2822270000006,141.15380900000036,108.0771479999994,81.79492200000004,-91.41015600000037,110.76904300000024
214,-106.53857400000015,66.79492200000004,124.74365200000011,94.35888699999941,124.87158199999976,116.6665039999998,125.89746099999957,127.43603499999972,131.9228520000006,143.46142599999985,109.35888699999941,84.61523400000078,-90.25634799999989,108.3334960000002
215,-107.56420900000057,66.79492200000004,125.0,94.35888699999941,124.10253900000043,117.56396500000028,126.41015599999992,128.20507799999996,129.3588869999994,141.53857400000015,109.87158199999976,85.89746099999957,-92.30761700000039,109.74365200000011
216,-111.28198199999997,64.61523400000078,124.87158199999976,92.82031300000017,119.61523400000078,113.20507799999996,122.69238299999961,127.30761700000039,125.0,137.43603499999972,109.10253900000043,85.76904300000024,-97.30761700000039,114.35888699999941
217,-114.74365200000011,63.0771479999994,125.25634799999989,92.17968800000017,115.76904300000024,107.69238299999961,118.58984400000008,125.89746099999957,121.9228520000006,134.61523400000078,108.46142599999985,84.74365200000011,-101.92309599999999,115.12841800000024
218,-114.48706099999981,63.974121000000196,126.6665039999998,93.46142599999985,117.17968800000017,105.64111300000059,117.56396500000028,125.0,122.69238299999961,135.2563479999999,109.74365200000011,84.23095699999976,-103.07690400000001,110.38476599999922
219,-110.64111300000013,65.64111300000059,128.84619099999964,95.76904300000024,122.82031300000017,107.82031300000017,120.0,125.12841800000024,126.6665039999998,138.3334960000002,112.94873000000007,84.87158199999976,-100.64111300000013,106.79492200000004
220,-106.02563499999997,65.51269500000035,130.89746099999957,97.05126999999993,128.20507799999996,111.15380900000036,123.0771479999994,125.25634799999989,130.89746099999957,141.41015599999992,116.41015599999992,86.2822270000006,-97.56420900000057,107.82031300000017
221,-102.56420900000057,63.0771479999994,131.79492200000004,96.79492200000004,129.3588869999994,112.30761700000039,124.23095699999976,124.35888699999941,132.94873000000007,142.82031300000017,118.46142599999985,87.94873000000007,-96.66674799999964,109.35888699999941
222,-100.76928699999962,61.025878999999804,131.9228520000006,96.53857400000015,126.53857400000015,111.0258789999998,122.69238299999961,123.3334960000002,132.05126999999993,142.3076170000004,118.3334960000002,89.35888699999941,-99.23071300000038,107.94873000000007
223,-101.15380900000036,60.51269500000035,131.9228520000006,97.30761700000039,122.82031300000017,108.0771479999994,120.12841800000024,123.0771479999994,129.87158199999976,141.0258789999998,116.15380900000036,90.0,-104.74365200000011,107.56396500000028
224,-103.71801800000003,60.25634799999989,131.41015599999992,98.7177729999994,120.89746099999957,105.25634799999989,118.0771479999994,123.46142599999985,127.69238299999961,139.48730499999965,112.94873000000007,89.10253900000043,-110.76928699999962,111.41015599999992
225,-104.35888699999987,58.974121000000196,130.0,100.0,121.2822270000006,103.3334960000002,117.56396500000028,123.58984400000008,126.53857400000015,138.20507799999996,110.89746099999957,87.94873000000007,-113.97436500000003,115.0
226,-96.02563499999997,57.82031300000017,128.9741210000002,100.64111300000059,122.94873000000007,102.94873000000007,118.46142599999985,122.43603499999972,126.0258789999998,137.3076170000004,112.05126999999993,88.9741210000002,-113.07690400000001,113.3334960000002
227,-75.64111300000013,59.102539000000434,130.2563479999999,101.41015599999992,123.84619099999964,103.46142599999985,119.48730499999965,119.87158199999976,125.51269500000035,136.41015599999992,116.6665039999998,93.9741210000002,-110.38452099999995,109.87158199999976
228,-48.974365000000034,62.82031300000017,134.23095699999976,102.82031300000017,122.43603499999972,104.10253900000043,119.48730499999965,116.9228520000006,125.0,136.0258789999998,122.05126999999993,101.9228520000006,-109.35888699999987,111.2822270000006
229,-30.512939000000188,66.2822270000006,139.10253900000043,104.61523400000078,120.51269500000035,105.38476599999922,118.84619099999964,115.12841800000024,125.25634799999989,137.05126999999993,125.89746099999957,109.35888699999941,-111.15380900000036,115.64111300000059
230,-34.35888699999987,66.53857400000015,141.6665039999998,105.76904300000024,121.53857400000015,108.3334960000002,119.23095699999976,115.89746099999957,126.9228520000006,139.7436520000001,127.05126999999993,112.17968800000017,-113.46142599999985,116.79492200000004
231,-60.25634799999989,61.53857400000015,140.0,105.51269500000035,126.53857400000015,113.58984400000008,121.2822270000006,119.35888699999941,129.23095699999976,142.56396500000028,126.2822270000006,107.94873000000007,-113.71801800000003,114.61523400000078
232,-87.94872999999961,52.69238299999961,134.61523400000078,103.58984400000008,132.6923829999996,118.84619099999964,123.9741210000002,123.3334960000002,130.12841800000024,142.94873000000007,124.35888699999941,98.7177729999994,-112.30761700000039,114.35888699999941
233,-88.46142599999985,44.48730499999965,128.46142599999985,101.6665039999998,135.6411130000006,121.6665039999998,125.89746099999957,125.38476599999922,128.84619099999964,139.61523400000078,122.05126999999993,90.51269500000035,-112.17944299999999,116.2822270000006
234,-48.33325200000036,42.17968800000017,124.87158199999976,102.43603499999972,133.7177729999994,121.0258789999998,126.79492200000004,125.64111300000059,126.6665039999998,134.23095699999976,119.74365200000011,88.7177729999994,-116.41015600000037,115.38476599999922
235,15.128418000000238,45.64111300000059,124.74365200000011,106.79492200000004,128.7177729999994,117.82031300000017,126.9228520000006,125.51269500000035,125.38476599999922,129.61523400000078,116.9228520000006,93.0771479999994,-126.28198199999997,111.9228520000006
236,64.61523400000078,49.87158199999976,125.12841800000024,112.30761700000039,124.10253900000043,114.10253900000043,126.6665039999998,125.76904300000024,125.25634799999989,127.69238299999961,112.82031300000017,97.43603499999972,-140.5129390000002,112.05126999999993
237,72.69238299999961,48.46142599999985,122.05126999999993,115.64111300000059,121.6665039999998,111.2822270000006,126.0258789999998,125.38476599999922,125.51269500000035,128.0771479999994,107.69238299999961,95.76904300000024,-154.4870609999998,117.43603499999972
238,46.53857400000015,41.2822270000006,115.51269500000035,115.89746099999957,121.6665039999998,109.87158199999976,125.0,123.3334960000002,125.38476599999922,129.23095699999976,103.3334960000002,88.58984400000008,-161.53857400000015,121.0258789999998
239,22.43603499999972,33.974121000000196,109.74365200000011,115.89746099999957,122.56396500000028,109.23095699999976,124.61523400000078,120.38476599999922,125.0,130.38476599999922,102.17968800000017,83.58984400000008,-157.0512700000004,118.46142599999985
240,34.61523400000078,34.102539000000434,110.0,119.10253900000043,122.82031300000017,108.0771479999994,126.2822270000006,118.3334960000002,124.74365200000011,131.6665039999998,104.87158199999976,88.58984400000008,-141.02563499999997,114.61523400000078
241,87.17968800000017,44.87158199999976,117.17968800000017,126.15380900000036,121.6665039999998,106.15380900000036,130.38476599999922,118.58984400000008,124.23095699999976,133.3334960000002,110.12841800000024,104.23095699999976,-118.20507799999996,114.48730499999965
242,151.9228520000006,62.94873000000007,127.05126999999993,134.7436520000001,119.61523400000078,103.9741210000002,136.0258789999998,120.89746099999957,123.58984400000008,134.87158199999976,116.15380900000036,124.10253900000043,-93.33325200000036,114.87158199999976
243,192.3076170000004,79.87158199999976,133.58984400000008,141.15380900000036,117.43603499999972,102.43603499999972,141.0258789999998,123.0771479999994,122.69238299999961,135.12841800000024,121.15380900000036,139.3588869999994,-67.82055700000001,111.6665039999998
244,193.46142599999985,88.9741210000002,133.58984400000008,142.94873000000007,115.51269500000035,101.0258789999998,143.0771479999994,123.20507799999996,121.41015599999992,132.82031300000017,124.10253900000043,145.2563479999999,-40.1281740000004,108.58984400000008
245,171.79492200000004,89.87158199999976,128.3334960000002,141.41015599999992,113.84619099999964,99.10253900000043,141.53857400000015,121.0258789999998,119.61523400000078,128.58984400000008,124.61523400000078,143.9741210000002,-7.307617000000391,110.51269500000035
246,158.46142599999985,89.48730499999965,122.56396500000028,140.6411130000006,112.69238299999961,97.69238299999961,138.84619099999964,117.94873000000007,117.69238299999961,123.9741210000002,123.9741210000002,141.6665039999998,32.05126999999993,115.0
247,171.79492200000004,95.51269500000035,121.0258789999998,143.7177729999994,113.0771479999994,97.82031300000017,137.82031300000017,116.41015599999992,116.9228520000006,121.15380900000036,124.23095699999976,143.9741210000002,77.43603499999972,115.89746099999957
248,201.53857400000015,110.38476599999922,124.35888699999941,150.38476599999922,114.48730499999965,98.7177729999994,139.48730499999965,116.41015599999992,117.30761700000039,120.25634799999989,125.76904300000024,151.2822270000006,126.41015599999992,113.46142599999985
249,218.46142599999985,130.76904300000024,129.23095699999976,156.9228520000006,115.25634799999989,98.0771479999994,142.05126999999993,115.89746099999957,117.43603499999972,119.48730499999965,127.05126999999993,160.0,176.0258789999998,113.58984400000008
250,200.0,151.53857400000015,131.2822270000006,159.7436520000001,114.48730499999965,94.87158199999976,142.82031300000017,113.7177729999994,116.2822270000006,116.79492200000004,126.41015599999992,165.6411130000006,226.2822270000006,115.89746099999957
251,149.87158199999976,169.23095699999976,128.9741210000002,158.58984400000008,112.56396500000028,90.51269500000035,141.15380900000036,110.76904300000024,114.61523400000078,112.17968800000017,124.61523400000078,167.05126999999993,280.89746099999957,115.0
252,96.53857400000015,182.82031300000017,124.61523400000078,156.41015599999992,110.38476599999922,86.9228520000006,138.20507799999996,108.46142599999985,113.58984400000008,107.69238299999961,123.84619099999964,167.17968800000017,344.7436520000001,110.51269500000035
253,71.15380900000036,194.61523400000078,121.2822270000006,155.89746099999957,107.56396500000028,84.74365200000011,135.76904300000024,107.69238299999961,113.0771479999994,105.12841800000024,125.89746099999957,170.0,419.7436520000001,108.20507799999996
254,85.25634799999989,208.20507799999996,120.64111300000059,158.20507799999996,104.10253900000043,83.9741210000002,134.7436520000001,107.69238299999961,112.69238299999961,105.38476599999922,130.89746099999957,177.43603499999972,504.23095699999976,110.12841800000024
255,125.12841800000024,226.0258789999998,122.43603499999972,163.0771479999994,101.0258789999998,84.48730499999965,135.12841800000024,107.94873000000007,111.9228520000006,107.17968800000017,137.56396500000028,187.6923829999996,592.5639650000003,110.64111300000059
256,163.84619099999964,248.20507799999996,124.74365200000011,168.84619099999964,99.10253900000043,85.64111300000059,135.51269500000035,107.94873000000007,111.0258789999998,108.84619099999964,142.94873000000007,197.3076170000004,677.6923829999996,107.30761700000039
257,179.61523400000078,272.17968800000017,126.15380900000036,173.58984400000008,98.3334960000002,86.0258789999998,134.23095699999976,107.82031300000017,110.0,108.3334960000002,144.87158199999976,203.46142599999985,754.3588869999994,105.25634799999989
258,167.17968800000017,294.87158199999976,125.64111300000059,176.53857400000015,98.20507799999996,84.61523400000078,131.0258789999998,107.05126999999993,108.46142599999985,104.74365200000011,142.82031300000017,204.87158199999976,820.8974609999996,107.56396500000028
259,137.6923829999996,316.0258789999998,123.7177729999994,177.94873000000007,98.46142599999985,82.43603499999972,127.56396500000028,105.76904300000024,106.79492200000004,99.74365200000011,139.10253900000043,202.43603499999972,881.5385740000002,109.61523400000078
260,110.38476599999922,336.4101559999999,122.05126999999993,179.3588869999994,99.87158199999976,81.2822270000006,125.64111300000059,104.35888699999941,105.76904300000024,96.53857400000015,137.6923829999996,198.84619099999964,941.5385740000002,107.82031300000017
261,100.76904300000024,356.79492200000004,122.30761700000039,181.79492200000004,101.53857400000015,81.79492200000004,126.2822270000006,103.0771479999994,105.89746099999957,96.9228520000006,140.89746099999957,197.17968800000017,1003.0771479999994,105.76904300000024
262,111.15380900000036,375.89746099999957,124.48730499999965,184.61523400000078,102.69238299999961,83.20507799999996,128.20507799999996,102.30761700000039,106.9228520000006,100.64111300000059,147.6923829999996,198.9741210000002,1064.2309569999998,107.69238299999961
263,131.79492200000004,392.5639650000003,126.9228520000006,186.2822270000006,102.94873000000007,84.35888699999941,130.12841800000024,102.69238299999961,108.20507799999996,105.38476599999922,154.23095699999976,203.58984400000008,1121.410156,110.25634799999989
264,148.3334960000002,407.3076170000004,127.94873000000007,185.6411130000006,102.94873000000007,84.61523400000078,130.6411130000006,104.23095699999976,108.9741210000002,108.46142599999985,157.6923829999996,208.46142599999985,1173.3334960000002,108.58984400000008
265,151.6665039999998,421.2822270000006,126.9228520000006,183.0771479999994,102.82031300000017,83.9741210000002,129.61523400000078,105.76904300000024,108.7177729999994,107.30761700000039,156.53857400000015,211.2822270000006,1221.410156,106.15380900000036
266,140.12841800000024,433.9741210000002,124.10253900000043,179.7436520000001,101.79492200000004,82.82031300000017,127.56396500000028,105.38476599999922,106.9228520000006,102.30761700000039,151.6665039999998,209.87158199999976,1267.4360349999997,108.7177729999994
267,118.46142599999985,443.0771479999994,120.12841800000024,176.9228520000006,100.0,81.9228520000006,125.89746099999957,102.82031300000017,104.74365200000011,96.9228520000006,145.38476599999922,203.84619099999964,1312.1796880000002,114.10253900000043
268,96.2822270000006,446.15380900000036,116.53857400000015,175.38476599999922,98.84619099999964,82.30761700000039,125.76904300000024,100.12841800000024,103.58984400000008,95.25634799999989,141.0258789999998,195.76904300000024,1355.7690430000002,115.38476599999922
269,87.82031300000017,443.3334960000002,115.64111300000059,174.7436520000001,98.9741210000002,83.3334960000002,126.9228520000006,100.0,104.48730499999965,98.3334960000002,141.15380900000036,190.89746099999957,1398.8461909999996,112.05126999999993
270,106.53857400000015,438.84619099999964,118.9741210000002,174.61523400000078,98.84619099999964,82.94873000000007,127.56396500000028,102.05126999999993,105.76904300000024,103.46142599999985,146.15380900000036,194.23095699999976,1441.6665039999998,110.25634799999989
271,152.56396500000028,438.9741210000002,125.76904300000024,175.2563479999999,97.17968800000017,80.25634799999989,126.6665039999998,103.84619099999964,105.38476599999922,105.64111300000059,153.84619099999964,205.6411130000006,1481.794922,111.41015599999992
272,206.6665039999998,448.3334960000002,132.56396500000028,176.9228520000006,94.23095699999976,76.9228520000006,124.74365200000011,103.20507799999996,102.69238299999961,102.82031300000017,160.2563479999999,218.7177729999994,1514.743652,110.64111300000059
273,239.48730499999965,464.10253900000043,135.2563479999999,178.9741210000002,92.43603499999972,75.51269500000035,124.10253900000043,100.89746099999957,99.10253900000043,97.05126999999993,161.6665039999998,224.10253900000043,1534.8715819999998,106.9228520000006
274,233.20507799999996,477.05126999999993,132.17968800000017,179.7436520000001,92.56396500000028,76.53857400000015,125.38476599999922,99.10253900000043,97.30761700000039,92.30761700000039,157.3076170000004,216.41015599999992,1541.410156,105.51269500000035
275,197.6923829999996,479.48730499999965,124.35888699999941,177.94873000000007,93.9741210000002,78.20507799999996,127.69238299999961,99.48730499999965,98.20507799999996,90.51269500000035,149.61523400000078,199.3588869999994,1541.9228520000006,108.46142599999985
276,165.2563479999999,472.05126999999993,115.89746099999957,173.9741210000002,95.0,78.46142599999985,129.23095699999976,101.79492200000004,101.0258789999998,91.2822270000006,143.58984400000008,183.46142599999985,1549.4873049999997,110.51269500000035
277,165.6411130000006,464.23095699999976,111.53857400000015,170.38476599999922,95.0,76.79492200000004,128.9741210000002,104.35888699999941,103.46142599999985,92.30761700000039,143.46142599999985,178.3334960000002,1574.6152340000008,108.46142599999985
278,203.9741210000002,465.3847659999992,113.9741210000002,168.9741210000002,93.58984400000008,73.7177729999994,127.56396500000028,104.74365200000011,103.3334960000002,91.41015599999992,148.84619099999964,186.0258789999998,1615.8974609999996,106.79492200000004
279,258.46142599999985,477.17968800000017,120.51269500000035,170.76904300000024,90.89746099999957,70.51269500000035,126.0258789999998,101.6665039999998,100.12841800000024,87.30761700000039,155.2563479999999,198.9741210000002,1660.3847659999992,109.23095699999976
280,298.9741210000002,492.82031300000017,125.76904300000024,174.48730499999965,88.3334960000002,68.84619099999964,125.12841800000024,96.2822270000006,95.25634799999989,81.15380900000036,157.56396500000028,206.79492200000004,1693.0771479999994,111.0258789999998
281,309.6152340000008,502.6923829999996,126.15380900000036,177.94873000000007,87.43603499999972,69.48730499999965,124.74365200000011,91.53857400000015,91.53857400000015,76.0258789999998,154.3588869999994,203.84619099999964,1707.3076170000004,107.94873000000007
282,297.5639650000003,501.9228520000006,121.6665039999998,178.46142599999985,88.7177729999994,71.6665039999998,124.61523400000078,89.74365200000011,90.51269500000035,73.9741210000002,148.20507799999996,192.6923829999996,1708.9741210000002,104.23095699999976
283,283.0771479999994,494.10253900000043,115.38476599999922,175.76904300000024,91.6665039999998,73.46142599999985,124.10253900000043,91.0258789999998,91.6665039999998,75.0,143.20507799999996,181.15380900000036,1712.3076170000004,106.41015599999992
284,283.0771479999994,488.5898440000001,110.38476599999922,171.79492200000004,95.25634799999989,74.10253900000043,123.7177729999994,93.46142599999985,92.94873000000007,77.43603499999972,141.6665039999998,175.2563479999999,1729.1025390000004,112.05126999999993
285,298.46142599999985,492.05126999999993,108.20507799999996,169.3588869999994,98.46142599999985,74.61523400000078,124.10253900000043,94.74365200000011,93.0771479999994,78.9741210000002,143.0771479999994,175.2563479999999,1761.2822270000006,113.9741210000002
286,317.94873000000007,502.05126999999993,108.58984400000008,168.9741210000002,99.87158199999976,76.0258789999998,125.25634799999989,94.23095699999976,92.05126999999993,78.7177729999994,144.87158199999976,175.89746099999957,1801.0258789999998,111.53857400000015
287,332.17968800000017,509.48730499999965,110.0,169.3588869999994,98.84619099999964,77.43603499999972,126.15380900000036,92.82031300000017,91.15380900000036,77.69238299999961,145.0,173.58984400000008,1839.1025390000004,109.87158199999976
288,343.84619099999964,507.5639650000003,111.9228520000006,169.61523400000078,95.64111300000059,77.82031300000017,125.64111300000059,92.30761700000039,92.05126999999993,77.94873000000007,145.0,170.0,1872.5639650000003,110.38476599999922
289,361.15380900000036,497.4360349999997,115.25634799999989,170.51269500000035,93.0771479999994,77.82031300000017,124.35888699999941,93.7177729999994,95.12841800000024,81.15380900000036,148.46142599999985,170.38476599999922,1903.8461909999996,109.61523400000078
290,385.51269500000035,485.0,120.76904300000024,172.82031300000017,92.94873000000007,78.84619099999964,123.46142599999985,96.15380900000036,98.9741210000002,86.9228520000006,156.0258789999998,177.6923829999996,1932.4360349999997,107.30761700000039
291,407.5639650000003,475.0,126.9228520000006,175.76904300000024,95.38476599999922,81.2822270000006,124.10253900000043,97.69238299999961,101.0258789999998,92.56396500000028,164.23095699999976,188.7177729999994,1950.1284180000002,107.30761700000039
292,415.76904300000024,467.3076170000004,131.0258789999998,176.9228520000006,97.94873000000007,82.82031300000017,125.51269500000035,97.17968800000017,100.12841800000024,94.23095699999976,167.17968800000017,195.6411130000006,1946.9228520000006,109.87158199999976
293,406.2822270000006,459.7436520000001,130.2563479999999,174.3588869999994,98.46142599999985,82.05126999999993,126.53857400000015,95.64111300000059,97.82031300000017,90.25634799999989,162.17968800000017,193.0771479999994,1919.743652,109.35888699999941
294,384.7436520000001,449.7436520000001,125.12841800000024,168.46142599999985,95.76904300000024,79.10253900000043,126.15380900000036,94.10253900000043,95.76904300000024,82.56396500000028,151.6665039999998,181.2822270000006,1876.5385740000002,104.87158199999976
295,361.2822270000006,438.0771479999994,118.20507799999996,161.6665039999998,90.76904300000024,75.76904300000024,124.74365200000011,92.69238299999961,94.48730499999965,75.25634799999989,141.9228520000006,167.17968800000017,1832.5639650000003,103.3334960000002
296,346.0258789999998,427.4360349999997,113.3334960000002,156.53857400000015,86.0258789999998,74.10253900000043,123.46142599999985,90.76904300000024,93.3334960000002,71.9228520000006,138.9741210000002,158.84619099999964,1803.0771479999994,108.46142599999985
297,345.6411130000006,421.15380900000036,113.20507799999996,155.38476599999922,84.10253900000043,74.87158199999976,123.20507799999996,88.3334960000002,92.17968800000017,73.84619099999964,145.76904300000024,160.6411130000006,1795.3847659999992,113.9741210000002
298,359.48730499999965,419.3588869999994,118.20507799999996,157.94873000000007,85.89746099999957,77.43603499999972,123.7177729999994,86.79492200000004,91.6665039999998,78.20507799999996,159.23095699999976,170.76904300000024,1804.743652,113.46142599999985
299,377.94873000000007,418.3334960000002,125.38476599999922,161.2822270000006,89.35888699999941,79.48730499999965,123.3334960000002,86.79492200000004,92.05126999999993,80.89746099999957,171.6665039999998,182.17968800000017,1815.7690430000002,109.87158199999976
300,388.46142599999985,413.9741210000002,130.2563479999999,161.6665039999998,91.2822270000006,78.9741210000002,120.64111300000059,87.94873000000007,92.30761700000039,79.48730499999965,175.89746099999957,187.05126999999993,1813.205078,109.48730499999965
301,383.5898440000001,405.6411130000006,129.87158199999976,158.20507799999996,90.25634799999989,76.0258789999998,116.9228520000006,88.84619099999964,91.6665039999998,75.12841800000024,170.2563479999999,182.6923829999996,1792.1796880000002,111.15380900000036
302,366.15380900000036,397.17968800000017,125.51269500000035,153.7177729999994,87.82031300000017,72.56396500000028,115.0,88.7177729999994,90.0,70.51269500000035,159.61523400000078,173.46142599999985,1761.6665039999998,110.51269500000035
303,344.23095699999976,391.4101559999999,121.15380900000036,151.41015599999992,86.2822270000006,70.64111300000059,116.53857400000015,87.69238299999961,88.0771479999994,68.3334960000002,151.15380900000036,166.41015599999992,1735.7690430000002,108.84619099999964
304,324.3588869999994,387.17968800000017,120.25634799999989,152.17968800000017,86.6665039999998,71.15380900000036,120.76904300000024,87.94873000000007,87.05126999999993,69.23095699999976,149.7436520000001,165.12841800000024,1723.589844,110.25634799999989
305,308.9741210000002,381.2822270000006,122.94873000000007,153.9741210000002,89.23095699999976,73.7177729999994,125.51269500000035,91.41015599999992,88.84619099999964,72.69238299999961,155.12841800000024,167.82031300000017,1724.743652,112.69238299999961
306,298.7177729999994,372.5639650000003,127.43603499999972,155.0,93.0771479999994,77.69238299999961,129.23095699999976,98.58984400000008,94.35888699999941,77.56396500000028,163.58984400000008,171.41015599999992,1731.410156,110.64111300000059
307,293.3334960000002,363.3334960000002,131.15380900000036,155.12841800000024,97.17968800000017,81.2822270000006,131.0258789999998,106.0258789999998,101.53857400000015,82.30761700000039,170.51269500000035,173.84619099999964,1735.1284180000002,105.38476599999922
308,290.76904300000024,357.05126999999993,132.43603499999972,154.87158199999976,99.61523400000078,82.94873000000007,130.76904300000024,108.84619099999964,105.64111300000059,85.38476599999922,172.56396500000028,174.87158199999976,1730.8974609999996,104.61523400000078
309,287.17968800000017,355.2563479999999,131.0258789999998,154.3588869999994,100.12841800000024,82.94873000000007,128.84619099999964,104.61523400000078,103.3334960000002,85.51269500000035,169.3588869999994,174.7436520000001,1719.1025390000004,109.74365200000011
310,280.6411130000006,355.6411130000006,128.9741210000002,153.58984400000008,100.25634799999989,82.94873000000007,127.17968800000017,97.05126999999993,96.2822270000006,83.3334960000002,164.10253900000043,174.23095699999976,1704.4873049999997,113.46142599999985
311,271.4101559999999,353.5898440000001,127.82031300000017,151.79492200000004,101.6665039999998,84.87158199999976,127.43603499999972,91.79492200000004,89.87158199999976,81.41015599999992,160.76904300000024,174.61523400000078,1691.6665039999998,111.53857400000015
312,260.3847659999992,344.7436520000001,128.20507799999996,148.84619099999964,103.84619099999964,88.0771479999994,130.0,92.17968800000017,88.9741210000002,81.6665039999998,161.6665039999998,175.51269500000035,1680.8974609999996,108.46142599999985
313,248.0771479999994,329.48730499999965,129.10253900000043,145.6411130000006,105.25634799999989,91.15380900000036,132.82031300000017,96.0258789999998,93.0771479999994,84.48730499999965,165.51269500000035,175.38476599999922,1668.7177729999994,108.20507799999996
314,236.15380900000036,313.3334960000002,129.3588869999994,143.58984400000008,105.25634799999989,92.56396500000028,133.9741210000002,98.7177729999994,98.46142599999985,87.94873000000007,169.23095699999976,173.0771479999994,1650.3847659999992,107.94873000000007
315,225.6411130000006,303.0771479999994,128.84619099999964,143.7177729999994,104.61523400000078,91.53857400000015,133.0771479999994,97.82031300000017,101.53857400000015,88.84619099999964,169.7436520000001,169.10253900000043,1623.4614259999998,105.89746099999957
316,214.87158199999976,300.3847659999992,127.82031300000017,144.3588869999994,103.84619099999964,87.94873000000007,130.51269500000035,94.10253900000043,100.76904300000024,85.64111300000059,165.38476599999922,164.48730499999965,1588.4614259999998,106.15380900000036
317,199.87158199999976,301.15380900000036,125.64111300000059,143.84619099999964,102.56396500000028,83.46142599999985,127.94873000000007,91.0258789999998,96.9228520000006,79.87158199999976,156.9228520000006,159.3588869999994,1548.589844,111.2822270000006
318,180.38476599999922,299.6152340000008,122.43603499999972,141.53857400000015,101.0258789999998,81.2822270000006,127.43603499999972,91.79492200000004,92.94873000000007,75.51269500000035,148.20507799999996,154.23095699999976,1509.8715819999998,115.25634799999989
319,163.46142599999985,293.0771479999994,119.61523400000078,138.84619099999964,100.0,83.3334960000002,129.61523400000078,97.43603499999972,91.79492200000004,76.0258789999998,143.9741210000002,150.38476599999922,1479.2309569999998,112.43603499999972
320,156.9228520000006,283.20507799999996,119.74365200000011,137.6923829999996,100.51269500000035,88.20507799999996,133.7177729999994,105.0,94.48730499999965,81.2822270000006,146.6665039999998,150.0,1460.6411130000006,107.05126999999993
321,160.51269500000035,274.23095699999976,123.46142599999985,138.46142599999985,102.17968800000017,92.43603499999972,137.3076170000004,110.51269500000035,99.35888699999941,87.82031300000017,154.3588869999994,152.6923829999996,1451.2822270000006,106.6665039999998
322,165.6411130000006,270.2563479999999,128.9741210000002,140.12841800000024,104.48730499999965,92.94873000000007,138.84619099999964,111.2822270000006,103.20507799999996,91.0258789999998,162.17968800000017,156.41015599999992,1442.94873,110.38476599999922
323,163.58984400000008,272.3076170000004,133.46142599999985,141.41015599999992,106.53857400000015,90.25634799999989,138.84619099999964,108.7177729999994,104.10253900000043,89.48730499999965,165.76904300000024,158.7177729999994,1427.94873,111.41015599999992
324,153.20507799999996,277.3076170000004,135.6411130000006,141.41015599999992,107.43603499999972,86.6665039999998,138.46142599999985,106.15380900000036,101.79492200000004,85.12841800000024,163.58984400000008,159.23095699999976,1402.94873,109.35888699999941
325,141.15380900000036,278.9741210000002,135.12841800000024,140.0,105.76904300000024,83.58984400000008,138.0771479999994,105.64111300000059,97.43603499999972,80.89746099999957,157.3076170000004,158.84619099999964,1370.8974609999996,109.23095699999976
326,134.3588869999994,273.84619099999964,133.20507799999996,137.82031300000017,102.30761700000039,82.05126999999993,137.17968800000017,106.53857400000015,93.46142599999985,78.7177729999994,151.41015599999992,158.7177729999994,1337.5639650000003,111.6665039999998
327,134.61523400000078,263.84619099999964,131.9228520000006,135.76904300000024,99.23095699999976,82.05126999999993,135.51269500000035,106.9228520000006,91.6665039999998,78.7177729999994,149.61523400000078,158.84619099999964,1307.6923829999996,111.53857400000015
328,136.79492200000004,253.9741210000002,132.94873000000007,135.0,98.84619099999964,83.3334960000002,133.0771479999994,105.25634799999989,92.69238299999961,80.0,152.3076170000004,159.3588869999994,1280.8974609999996,108.46142599999985
329,132.82031300000017,247.05126999999993,135.51269500000035,134.87158199999976,100.51269500000035,84.74365200000011,130.51269500000035,101.6665039999998,95.12841800000024,80.89746099999957,156.2822270000006,159.48730499999965,1252.94873,107.82031300000017
330,118.84619099999964,242.43603499999972,137.3076170000004,134.87158199999976,102.17968800000017,85.25634799999989,128.20507799999996,97.05126999999993,96.15380900000036,80.38476599999922,157.82031300000017,158.58984400000008,1219.4873049999997,111.15380900000036
331,98.7177729999994,237.82031300000017,136.9228520000006,134.10253900000043,102.17968800000017,85.25634799999989,126.2822270000006,93.20507799999996,94.35888699999941,78.3334960000002,156.41015599999992,156.6665039999998,1180.3847659999992,112.82031300000017
332,80.51269500000035,231.41015599999992,135.12841800000024,132.94873000000007,100.89746099999957,85.76904300000024,124.87158199999976,91.41015599999992,91.2822270000006,75.89746099999957,154.23095699999976,154.10253900000043,1138.8461909999996,109.87158199999976
333,68.20507799999996,223.46142599999985,133.9741210000002,131.41015599999992,99.87158199999976,87.05126999999993,123.7177729999994,91.53857400000015,89.48730499999965,74.23095699999976,153.46142599999985,151.53857400000015,1098.205078,107.82031300000017
334,61.666503999999804,215.89746099999957,134.61523400000078,129.87158199999976,100.76904300000024,88.84619099999964,123.46142599999985,92.69238299999961,90.64111300000059,74.10253900000043,154.61523400000078,149.48730499999965,1060.0,111.15380900000036
335,59.87158199999976,212.17968800000017,136.9228520000006,129.7436520000001,103.84619099999964,91.0258789999998,124.61523400000078,93.58984400000008,94.48730499999965,75.76904300000024,157.43603499999972,149.23095699999976,1024.3588869999994,115.0
336,63.20507799999996,213.46142599999985,140.0,132.3076170000004,108.20507799999996,94.23095699999976,127.05126999999993,94.23095699999976,98.58984400000008,78.9741210000002,161.0258789999998,151.79492200000004,990.6411130000006,113.84619099999964
337,70.89746099999957,217.56396500000028,143.58984400000008,137.05126999999993,111.79492200000004,98.20507799999996,129.3588869999994,95.51269500000035,100.51269500000035,82.82031300000017,163.9741210000002,156.6665039999998,957.6923829999996,110.51269500000035
338,78.58984400000008,219.48730499999965,146.9228520000006,141.0258789999998,113.20507799999996,101.79492200000004,130.12841800000024,97.69238299999961,99.61523400000078,86.0258789999998,165.2563479999999,161.6665039999998,923.7177729999994,110.64111300000059
339,80.38476599999922,215.51269500000035,149.10253900000043,141.79492200000004,113.3334960000002,103.58984400000008,129.61523400000078,100.89746099999957,98.20507799999996,88.0771479999994,165.12841800000024,164.48730499999965,887.9487300000001,112.69238299999961
340,73.0771479999994,205.76904300000024,149.48730499999965,139.10253900000043,113.84619099999964,103.7177729999994,129.61523400000078,104.23095699999976,98.9741210000002,89.74365200000011,165.12841800000024,164.7436520000001,850.6411130000006,111.2822270000006
341,57.56396500000028,192.82031300000017,148.20507799999996,134.3588869999994,115.38476599999922,103.3334960000002,131.53857400000015,106.6665039999998,102.17968800000017,92.30761700000039,166.15380900000036,163.0771479999994,812.1796880000002,107.69238299999961
342,40.0,179.23095699999976,146.0258789999998,129.23095699999976,117.05126999999993,102.56396500000028,135.12841800000024,107.30761700000039,106.0258789999998,95.38476599999922,167.3076170000004,160.76904300000024,772.4360349999997,107.30761700000039
343,28.461425999999847,165.6411130000006,143.58984400000008,124.74365200000011,117.69238299999961,102.17968800000017,138.46142599999985,106.6665039999998,108.20507799999996,97.69238299999961,167.3076170000004,158.7177729999994,732.6923829999996,109.48730499999965
344,28.589844000000085,152.6923829999996,142.82031300000017,122.30761700000039,117.94873000000007,102.82031300000017,140.0,106.15380900000036,109.10253900000043,98.84619099999964,166.0258789999998,157.6923829999996,695.3847659999992,109.10253900000043
345,37.82031300000017,140.6411130000006,144.48730499999965,121.79492200000004,118.9741210000002,104.61523400000078,139.3588869999994,106.6665039999998,110.12841800000024,99.10253900000043,165.0,157.94873000000007,661.9228520000006,106.2822270000006
346,46.2822270000006,129.7436520000001,147.3076170000004,121.2822270000006,120.64111300000059,105.89746099999957,136.9228520000006,107.43603499999972,111.79492200000004,98.84619099999964,165.12841800000024,158.3334960000002,630.6411130000006,106.41015599999992
347,44.48730499999965,119.35888699999941,148.9741210000002,118.9741210000002,121.9228520000006,105.76904300000024,134.3588869999994,107.69238299999961,113.20507799999996,97.94873000000007,165.12841800000024,157.3076170000004,599.1025390000004,110.51269500000035
348,30.641113000000587,109.35888699999941,147.82031300000017,114.35888699999941,122.43603499999972,104.74365200000011,133.46142599999985,107.82031300000017,113.7177729999994,96.9228520000006,163.3334960000002,154.23095699999976,566.2822270000006,112.43603499999972
349,11.282227000000603,98.58984400000008,144.7436520000001,108.58984400000008,122.17968800000017,103.9741210000002,134.61523400000078,108.58984400000008,113.46142599999985,96.6665039999998,159.10253900000043,150.0,533.3334960000002,109.87158199999976
350,-5.641113000000132,86.6665039999998,141.53857400000015,103.46142599999985,121.41015599999992,103.46142599999985,136.6665039999998,109.35888699999941,113.58984400000008,98.0771479999994,153.0771479999994,145.76904300000024,502.05126999999993,107.82031300000017
351,-16.41015600000037,74.35888699999941,139.7436520000001,100.38476599999922,120.64111300000059,102.69238299999961,137.94873000000007,109.35888699999941,114.48730499999965,100.89746099999957,147.05126999999993,142.17968800000017,473.3334960000002,109.87158199999976
352,-22.30761700000039,64.23095699999976,140.12841800000024,99.74365200000011,120.89746099999957,101.9228520000006,137.94873000000007,108.20507799999996,116.2822270000006,103.9741210000002,142.94873000000007,139.7436520000001,447.3076170000004,112.05126999999993
353,-27.051270000000386,58.20507799999996,142.17968800000017,100.64111300000059,122.43603499999972,101.79492200000004,137.82031300000017,107.05126999999993,117.94873000000007,105.76904300000024,142.17968800000017,139.10253900000043,423.3334960000002,111.0258789999998
354,-34.23071300000038,55.51269500000035,144.7436520000001,100.76904300000024,123.9741210000002,102.30761700000039,138.0771479999994,106.79492200000004,118.20507799999996,105.0,143.7177729999994,140.2563479999999,399.7436520000001,110.38476599999922
355,-46.025634999999966,53.333496000000196,146.0258789999998,98.46142599999985,123.58984400000008,102.30761700000039,138.20507799999996,107.82031300000017,116.2822270000006,101.2822270000006,144.48730499999965,141.9228520000006,374.7436520000001,113.3334960000002
356,-61.66674799999964,49.48730499999965,145.0,94.35888699999941,121.6665039999998,101.53857400000015,137.6923829999996,109.61523400000078,113.58984400000008,96.6665039999998,142.17968800000017,141.9228520000006,347.82031300000017,115.51269500000035
357,-78.46142599999985,44.102539000000434,142.43603499999972,90.51269500000035,121.0258789999998,101.15380900000036,137.17968800000017,111.2822270000006,112.17968800000017,93.9741210000002,136.53857400000015,139.10253900000043,320.76904300000024,111.79492200000004
358,-94.23071300000038,38.46142599999985,139.7436520000001,88.58984400000008,122.94873000000007,102.05126999999993,137.56396500000028,112.05126999999993,112.94873000000007,95.25634799999989,129.3588869999994,134.10253900000043,295.6411130000006,106.15380900000036
359,-107.94872999999961,33.589844000000085,138.20507799999996,88.7177729999994,126.9228520000006,104.48730499999965,139.3588869999994,111.2822270000006,115.25634799999989,99.61523400000078,124.10253900000043,128.7177729999994,273.3334960000002,106.15380900000036
360,-118.58984399999963,30.51269500000035,138.58984400000008,89.74365200000011,130.51269500000035,107.69238299999961,142.3076170000004,109.48730499999965,117.56396500000028,105.25634799999989,123.3334960000002,124.87158199999976,254.23095699999976,110.89746099999957
361,-125.1281740000004,29.871581999999762,140.89746099999957,91.0258789999998,132.6923829999996,111.2822270000006,145.51269500000035,108.3334960000002,119.74365200000011,110.38476599999922,127.43603499999972,123.9741210000002,238.3334960000002,113.0771479999994
362,-126.79492200000004,31.410155999999915,143.9741210000002,92.05126999999993,133.7177729999994,114.61523400000078,147.6923829999996,108.58984400000008,122.17968800000017,113.46142599999985,134.61523400000078,125.89746099999957,225.12841800000024,111.2822270000006
363,-124.35888699999987,33.20507799999996,146.41015599999992,92.94873000000007,133.84619099999964,116.0258789999998,147.43603499999972,109.35888699999941,124.10253900000043,114.23095699999976,141.0258789999998,129.10253900000043,212.43603499999972,110.38476599999922
364,-120.38452099999995,33.0771479999994,146.79492200000004,93.9741210000002,133.84619099999964,114.61523400000078,144.87158199999976,109.35888699999941,124.10253900000043,112.56396500000028,143.46142599999985,130.89746099999957,198.46142599999985,112.30761700000039
365,-117.56420900000057,29.74365200000011,145.51269500000035,94.61523400000078,133.9741210000002,111.15380900000036,141.79492200000004,108.20507799999996,121.41015599999992,109.74365200000011,141.15380900000036,130.0,182.56396500000028,112.30761700000039
366,-118.71801800000003,22.94873000000007,143.9741210000002,94.48730499999965,133.7177729999994,107.56396500000028,140.0,106.79492200000004,117.17968800000017,107.30761700000039,136.0258789999998,127.30761700000039,165.76904300000024,109.48730499999965
367,-124.23071300000038,13.846190999999635,143.3334960000002,93.3334960000002,132.17968800000017,105.51269500000035,140.0,105.89746099999957,112.82031300000017,106.0258789999998,130.76904300000024,124.35888699999941,148.9741210000002,108.7177729999994
368,-131.923096,4.6152340000007825,143.58984400000008,91.9228520000006,129.61523400000078,105.51269500000035,141.2822270000006,105.76904300000024,109.87158199999976,106.2822270000006,127.82031300000017,122.43603499999972,133.7177729999994,111.2822270000006
369,-138.076904,-1.2822270000006029,144.23095699999976,91.53857400000015,127.56396500000028,107.56396500000028,142.82031300000017,106.6665039999998,109.87158199999976,107.82031300000017,128.7177729999994,121.9228520000006,121.53857400000015,111.6665039999998
370,-140.76928699999962,-2.4360349999997197,144.23095699999976,92.43603499999972,127.56396500000028,110.64111300000059,143.3334960000002,108.0771479999994,112.43603499999972,110.12841800000024,132.05126999999993,122.43603499999972,112.30761700000039,107.17968800000017
371,-142.0512700000004,-0.8974609999995664,143.3334960000002,93.0771479999994,129.61523400000078,113.3334960000002,142.82031300000017,109.35888699999941,115.25634799999989,112.17968800000017,134.7436520000001,122.43603499999972,103.84619099999964,103.9741210000002
372,-144.7436520000001,-0.8974609999995664,141.6665039999998,92.05126999999993,132.17968800000017,114.35888699999941,141.53857400000015,109.74365200000011,116.15380900000036,112.82031300000017,133.58984400000008,120.38476599999922,92.69238299999961,107.30761700000039
373,-149.8718259999996,-4.487060999999812,140.38476599999922,89.48730499999965,133.84619099999964,114.23095699999976,141.15380900000036,109.23095699999976,114.87158199999976,111.6665039999998,128.9741210000002,116.6665039999998,78.20507799999996,112.94873000000007
374,-155.5129390000002,-10.512939000000188,140.89746099999957,87.17968800000017,134.23095699999976,114.74365200000011,142.56396500000028,108.3334960000002,112.94873000000007,109.61523400000078,123.7177729999994,113.20507799999996,61.79492200000004,114.10253900000043
375,-159.35888699999987,-16.41015600000037,143.20507799999996,86.79492200000004,133.84619099999964,115.76904300000024,145.0,107.94873000000007,111.6665039999998,107.43603499999972,120.64111300000059,111.41015599999992,45.51269500000035,111.9228520000006
376,-159.8718259999996,-20.641113000000132,145.89746099999957,88.0771479999994,132.56396500000028,115.51269500000035,146.2822270000006,107.43603499999972,110.89746099999957,105.64111300000059,119.61523400000078,111.15380900000036,30.128418000000238,111.9228520000006
377,-157.56420900000057,-23.076904000000013,146.53857400000015,89.35888699999941,130.6411130000006,112.82031300000017,145.38476599999922,107.05126999999993,109.74365200000011,104.35888699999941,118.84619099999964,111.2822270000006,15.641113000000587,113.0771479999994
378,-154.23071300000038,-24.487060999999812,145.12841800000024,89.48730499999965,128.84619099999964,108.20507799999996,142.94873000000007,107.17968800000017,108.20507799999996,103.9741210000002,116.6665039999998,110.38476599999922,2.0512699999999313,111.15380900000036
379,-153.46142599999985,-26.794922000000042,143.3334960000002,88.9741210000002,127.56396500000028,103.84619099999964,140.2563479999999,108.46142599999985,106.79492200000004,104.10253900000043,113.3334960000002,108.58984400000008,-10.897461000000021,108.0771479999994
380,-157.3076170000004,-32.051270000000386,142.94873000000007,88.0771479999994,126.79492200000004,101.41015599999992,138.9741210000002,110.38476599999922,106.2822270000006,104.35888699999941,109.74365200000011,106.53857400000015,-23.974365000000034,109.48730499999965
381,-163.97436500000003,-40.38452099999995,144.7436520000001,87.43603499999972,126.15380900000036,101.2822270000006,139.3588869999994,111.6665039999998,106.9228520000006,103.9741210000002,107.05126999999993,105.64111300000059,-36.41015600000037,114.35888699999941
382,-169.61547900000005,-49.23071300000038,147.6923829999996,87.94873000000007,126.15380900000036,102.82031300000017,140.76904300000024,111.53857400000015,108.3334960000002,102.43603499999972,106.0258789999998,106.15380900000036,-47.17944299999999,115.12841800000024
383,-171.79492200000004,-57.17944299999999,150.2563479999999,89.48730499999965,126.6665039999998,104.23095699999976,141.15380900000036,109.61523400000078,109.23095699999976,99.35888699999941,105.89746099999957,107.43603499999972,-56.025634999999966,110.64111300000059
