,EEG.AF3,EEG.F7,EEG.F3,EEG.FC5,EEG.T7,EEG.P7,EEG.O1,EEG.O2,EEG.P8,EEG.T8,EEG.FC6,EEG.F4,EEG.F8,EEG.AF4
0,57.56396500000028,63.333496000000196,103.58984400000008,111.0258789999998,99.35888699999941,102.05126999999993,117.94873000000007,113.46142599999985,108.84619099999964,122.82031300000017,107.17968800000017,106.53857400000015,28.717772999999397,105.38476599999922
1,57.17968800000017,63.20507799999996,103.7177729999994,110.12841800000024,101.41015599999992,105.25634799999989,116.0258789999998,112.17968800000017,109.48730499999965,121.2822270000006,105.89746099999957,105.89746099999957,25.25634799999989,108.0771479999994
2,58.7177729999994,63.333496000000196,104.23095699999976,108.9741210000002,104.35888699999941,108.20507799999996,111.6665039999998,110.0,109.23095699999976,120.12841800000024,105.12841800000024,106.79492200000004,23.717772999999397,110.0
3,60.897460999999566,63.333496000000196,105.12841800000024,107.82031300000017,106.79492200000004,109.74365200000011,108.0771479999994,108.46142599999985,108.58984400000008,119.10253900000043,104.48730499999965,108.0771479999994,25.25634799999989,108.3334960000002
4,60.64111300000059,61.9228520000006,105.0,106.41015599999992,107.05126999999993,108.58984400000008,106.6665039999998,108.20507799999996,107.43603499999972,116.79492200000004,103.0771479999994,107.17968800000017,27.69238299999961,107.69238299999961
5,57.05126999999993,58.974121000000196,102.43603499999972,104.61523400000078,104.35888699999941,105.25634799999989,106.6665039999998,108.20507799999996,105.51269500000035,112.69238299999961,100.0,102.94873000000007,27.17968800000017,110.89746099999957
6,55.0,55.897460999999566,97.82031300000017,103.3334960000002,100.76904300000024,101.9228520000006,106.79492200000004,107.69238299999961,103.58984400000008,108.20507799999996,96.6665039999998,97.56396500000028,23.333496000000196,112.17968800000017
7,61.2822270000006,54.74365200000011,93.84619099999964,103.46142599999985,98.46142599999985,101.2822270000006,106.79492200000004,107.05126999999993,102.82031300000017,105.12841800000024,95.38476599999922,95.25634799999989,19.230956999999762,107.82031300000017
8,77.30761700000039,55.897460999999566,93.46142599999985,105.25634799999989,98.46142599999985,102.82031300000017,106.6665039999998,106.2822270000006,102.69238299999961,103.46142599999985,96.0258789999998,97.94873000000007,17.82031300000017,103.7177729999994
9,97.82031300000017,58.333496000000196,96.9228520000006,107.56396500000028,99.74365200000011,104.35888699999941,105.89746099999957,105.12841800000024,101.53857400000015,101.53857400000015,96.9228520000006,103.84619099999964,19.615234000000783,105.89746099999957
10,114.74365200000011,61.53857400000015,102.17968800000017,108.9741210000002,100.64111300000059,103.9741210000002,104.23095699999976,103.3334960000002,98.46142599999985,97.94873000000007,97.05126999999993,108.7177729999994,23.461425999999847,111.2822270000006
11,122.82031300000017,66.2822270000006,106.0258789999998,109.10253900000043,100.64111300000059,102.30761700000039,101.9228520000006,102.17968800000017,95.12841800000024,94.48730499999965,96.6665039999998,109.87158199999976,27.82031300000017,112.69238299999961
12,123.7177729999994,72.82031300000017,107.17968800000017,108.84619099999964,100.25634799999989,101.0258789999998,100.0,102.56396500000028,94.23095699999976,93.9741210000002,97.17968800000017,108.20507799999996,32.43603499999972,110.89746099999957
13,124.48730499999965,80.25634799999989,106.2822270000006,109.10253900000043,99.61523400000078,100.89746099999957,99.35888699999941,103.84619099999964,96.0258789999998,97.43603499999972,98.46142599999985,106.41015599999992,37.05126999999993,110.89746099999957
14,133.3334960000002,86.0258789999998,105.0,110.51269500000035,99.61523400000078,101.79492200000004,100.89746099999957,104.87158199999976,98.7177729999994,102.69238299999961,99.35888699999941,106.9228520000006,41.410155999999915,111.9228520000006
15,154.10253900000043,87.56396500000028,104.48730499999965,112.30761700000039,100.51269500000035,103.46142599999985,104.61523400000078,104.74365200000011,100.76904300000024,106.41015599999992,99.74365200000011,110.64111300000059,44.87158199999976,109.35888699999941
16,183.58984400000008,82.69238299999961,105.0,112.69238299999961,102.17968800000017,104.87158199999976,109.10253900000043,103.9741210000002,101.9228520000006,107.30761700000039,100.64111300000059,116.0258789999998,46.666503999999804,104.87158199999976
17,215.2563479999999,72.30761700000039,105.51269500000035,111.15380900000036,103.3334960000002,105.12841800000024,112.56396500000028,103.20507799999996,102.30761700000039,106.2822270000006,102.82031300000017,120.64111300000059,47.94873000000007,105.38476599999922
18,244.48730499999965,61.410155999999915,105.51269500000035,108.84619099999964,103.20507799999996,104.10253900000043,113.58984400000008,102.69238299999961,101.6665039999998,104.61523400000078,106.0258789999998,122.82031300000017,50.51269500000035,111.0258789999998
19,272.94873000000007,57.69238299999961,105.38476599999922,109.10253900000043,102.17968800000017,102.82031300000017,112.30761700000039,102.69238299999961,100.25634799999989,103.46142599999985,108.9741210000002,122.82031300000017,56.410155999999915,114.35888699999941
20,305.76904300000024,64.61523400000078,105.89746099999957,113.84619099999964,100.64111300000059,101.79492200000004,109.87158199999976,102.94873000000007,98.58984400000008,102.82031300000017,110.25634799999989,122.05126999999993,65.25634799999989,112.30761700000039
21,345.12841800000024,78.0771479999994,106.6665039999998,121.41015599999992,97.82031300000017,100.76904300000024,107.17968800000017,102.94873000000007,97.17968800000017,102.43603499999972,108.84619099999964,121.9228520000006,74.74365200000011,110.76904300000024
22,388.0771479999994,89.87158199999976,107.17968800000017,128.0771479999994,93.9741210000002,98.84619099999964,104.48730499999965,102.43603499999972,96.6665039999998,101.6665039999998,105.38476599999922,122.94873000000007,82.69238299999961,113.20507799999996
23,428.7177729999994,95.38476599999922,107.05126999999993,130.76904300000024,90.51269500000035,96.2822270000006,102.30761700000039,101.2822270000006,97.17968800000017,99.74365200000011,102.43603499999972,125.12841800000024,89.74365200000011,115.0
24,464.3588869999994,96.41015599999992,106.9228520000006,129.87158199999976,89.35888699999941,93.7177729999994,100.25634799999989,100.25634799999989,98.0771479999994,97.56396500000028,102.17968800000017,128.58984400000008,98.84619099999964,112.17968800000017
25,495.6411130000006,99.48730499999965,107.43603499999972,127.82031300000017,89.87158199999976,91.0258789999998,98.46142599999985,99.35888699999941,98.0771479999994,96.15380900000036,105.12841800000024,133.46142599999985,112.69238299999961,108.84619099999964
26,521.794922,109.74365200000011,108.46142599999985,127.43603499999972,89.61523400000078,87.56396500000028,96.15380900000036,97.82031300000017,96.53857400000015,96.41015599999992,109.48730499999965,138.46142599999985,131.2822270000006,109.61523400000078
27,540.5126950000003,126.9228520000006,108.9741210000002,129.87158199999976,87.30761700000039,83.9741210000002,93.7177729999994,96.0258789999998,93.9741210000002,97.82031300000017,112.17968800000017,141.41015599999992,151.2822270000006,111.6665039999998
28,552.3076170000004,145.2563479999999,108.46142599999985,134.61523400000078,84.87158199999976,82.17968800000017,91.9228520000006,94.87158199999976,92.05126999999993,99.23095699999976,112.17968800000017,141.9228520000006,170.0,110.51269500000035
29,563.7177729999994,157.05126999999993,108.0771479999994,139.10253900000043,84.48730499999965,83.58984400000008,91.9228520000006,95.12841800000024,91.6665039999998,100.12841800000024,110.38476599999922,142.17968800000017,188.0771479999994,109.10253900000043
30,582.8203130000002,158.9741210000002,108.9741210000002,141.41015599999992,86.53857400000015,87.56396500000028,94.35888699999941,97.05126999999993,92.82031300000017,100.64111300000059,109.74365200000011,146.0258789999998,211.0258789999998,112.30761700000039
31,611.0258789999998,156.0258789999998,112.05126999999993,141.6665039999998,90.12841800000024,92.17968800000017,98.7177729999994,99.48730499999965,94.61523400000078,101.0258789999998,112.30761700000039,154.87158199999976,244.48730499999965,116.53857400000015
32,638.4614259999998,156.9228520000006,116.2822270000006,141.41015599999992,93.3334960000002,95.38476599999922,103.46142599999985,101.53857400000015,96.41015599999992,101.41015599999992,117.17968800000017,165.89746099999957,288.84619099999964,115.38476599999922
33,650.8974609999996,166.53857400000015,119.48730499999965,141.41015599999992,94.61523400000078,95.64111300000059,106.53857400000015,102.43603499999972,97.56396500000028,100.76904300000024,121.0258789999998,173.84619099999964,336.79492200000004,110.51269500000035
34,641.6665039999998,181.15380900000036,118.7177729999994,140.38476599999922,92.43603499999972,92.82031300000017,105.89746099999957,102.30761700000039,97.56396500000028,99.48730499999965,120.51269500000035,174.7436520000001,378.7177729999994,109.10253900000043
35,619.8715819999998,193.3334960000002,113.46142599999985,137.56396500000028,87.43603499999972,88.3334960000002,101.53857400000015,101.53857400000015,96.79492200000004,98.46142599999985,115.38476599999922,169.3588869999994,410.51269500000035,112.30761700000039
36,606.794922,200.51269500000035,107.05126999999993,135.0,82.30761700000039,84.35888699999941,94.87158199999976,100.38476599999922,95.25634799999989,97.82031300000017,109.10253900000043,162.94873000000007,437.6923829999996,113.3334960000002
37,619.7436520000001,209.10253900000043,103.84619099999964,136.53857400000015,79.23095699999976,81.6665039999998,88.58984400000008,98.3334960000002,92.56396500000028,95.64111300000059,105.51269500000035,161.6665039999998,470.76904300000024,109.74365200000011
38,654.2309569999998,227.82031300000017,106.41015599999992,143.7177729999994,79.10253900000043,79.87158199999976,84.61523400000078,94.61523400000078,88.20507799999996,90.64111300000059,107.05126999999993,167.05126999999993,516.2822270000006,107.05126999999993
39,684.2309569999998,258.5898440000001,112.17968800000017,153.46142599999985,80.76904300000024,78.58984400000008,83.9741210000002,89.87158199999976,84.10253900000043,85.0,112.82031300000017,174.87158199999976,572.1796880000002,108.3334960000002
40,682.5639650000003,292.17968800000017,116.15380900000036,160.12841800000024,83.58984400000008,79.10253900000043,87.05126999999993,86.9228520000006,83.3334960000002,83.58984400000008,119.61523400000078,179.10253900000043,631.2822270000006,109.48730499999965
41,646.0258789999998,314.7436520000001,115.38476599999922,159.61523400000078,86.0258789999998,81.6665039999998,92.56396500000028,88.0771479999994,87.17968800000017,88.84619099999964,123.84619099999964,177.17968800000017,685.6411130000006,108.0771479999994
42,600.8974609999996,318.46142599999985,111.41015599999992,152.82031300000017,86.6665039999998,84.61523400000078,97.56396500000028,92.94873000000007,92.94873000000007,98.20507799999996,123.9741210000002,172.56396500000028,732.4360349999997,108.20507799999996
43,581.1538090000004,309.6152340000008,107.43603499999972,144.7436520000001,85.12841800000024,85.76904300000024,98.7177729999994,98.46142599999985,96.53857400000015,105.76904300000024,121.0258789999998,170.0,773.8461909999996,111.41015599999992
44,598.0771479999994,303.46142599999985,105.51269500000035,140.51269500000035,82.69238299999961,84.87158199999976,96.0258789999998,101.79492200000004,96.0258789999998,107.82031300000017,118.3334960000002,171.53857400000015,814.7436520000001,112.69238299999961
45,632.6923829999996,312.3076170000004,105.51269500000035,142.43603499999972,82.05126999999993,83.84619099999964,92.17968800000017,102.17968800000017,92.82031300000017,104.35888699999941,118.20507799999996,175.0,856.794922,108.46142599999985
46,654.7436520000001,335.76904300000024,106.41015599999992,148.20507799999996,83.9741210000002,84.48730499999965,90.64111300000059,100.38476599999922,89.61523400000078,98.3334960000002,120.64111300000059,176.6665039999998,897.3076170000004,104.61523400000078
47,650.7690430000002,362.6923829999996,106.53857400000015,153.46142599999985,86.9228520000006,86.15380900000036,91.9228520000006,97.43603499999972,88.0771479999994,93.46142599999985,123.58984400000008,174.87158199999976,931.9228520000006,107.56396500000028
48,631.794922,382.05126999999993,105.76904300000024,155.12841800000024,88.9741210000002,87.82031300000017,94.23095699999976,94.74365200000011,88.0771479999994,92.82031300000017,125.64111300000059,171.15380900000036,959.7436520000001,113.9741210000002
49,617.4360349999997,390.76904300000024,104.35888699999941,153.9741210000002,89.48730499999965,88.7177729999994,94.87158199999976,93.3334960000002,89.48730499999965,96.0258789999998,126.2822270000006,168.0771479999994,982.6923829999996,115.76904300000024
50,614.8715819999998,394.23095699999976,102.82031300000017,152.05126999999993,88.46142599999985,88.20507799999996,92.69238299999961,93.46142599999985,91.2822270000006,99.74365200000011,125.25634799999989,165.76904300000024,1000.7690430000002,112.82031300000017
51,616.0258789999998,398.20507799999996,100.51269500000035,150.38476599999922,86.2822270000006,86.41015599999992,88.7177729999994,94.23095699999976,91.79492200000004,99.61523400000078,122.05126999999993,161.9228520000006,1012.0512699999999,110.89746099999957
52,611.9228520000006,405.0,97.17968800000017,148.58984400000008,84.10253900000043,83.9741210000002,85.76904300000024,94.61523400000078,90.12841800000024,94.74365200000011,117.17968800000017,155.38476599999922,1017.5639650000003,110.89746099999957
53,604.8715819999998,411.79492200000004,93.58984400000008,146.53857400000015,82.69238299999961,82.43603499999972,86.2822270000006,94.35888699999941,87.05126999999993,88.9741210000002,114.10253900000043,149.10253900000043,1023.8461909999996,109.10253900000043
54,606.0258789999998,415.2563479999999,91.79492200000004,145.12841800000024,82.17968800000017,82.43603499999972,90.0,93.3334960000002,84.48730499999965,86.0258789999998,115.0,147.56396500000028,1038.8461909999996,106.41015599999992
55,622.5639650000003,415.76904300000024,92.56396500000028,145.76904300000024,81.79492200000004,82.94873000000007,93.7177729999994,91.53857400000015,83.46142599999985,86.15380900000036,118.9741210000002,151.6665039999998,1063.3334960000002,107.82031300000017
56,649.3588869999994,418.3334960000002,94.74365200000011,148.46142599999985,80.89746099999957,83.46142599999985,94.87158199999976,89.74365200000011,83.46142599999985,86.41015599999992,122.30761700000039,157.82031300000017,1090.0,112.17968800000017
57,673.205078,427.5639650000003,96.6665039999998,152.17968800000017,80.51269500000035,84.10253900000043,93.58984400000008,89.10253900000043,83.7177729999994,85.0,122.69238299999961,161.41015599999992,1109.3588869999994,112.69238299999961
58,682.9487300000001,441.79492200000004,97.17968800000017,154.7436520000001,81.15380900000036,85.51269500000035,91.79492200000004,90.25634799999989,84.23095699999976,82.94873000000007,121.0258789999998,160.6411130000006,1117.1796880000002,107.69238299999961
59,676.1538090000004,454.3588869999994,96.41015599999992,154.48730499999965,82.30761700000039,86.53857400000015,90.89746099999957,91.6665039999998,85.38476599999922,82.43603499999972,120.0,156.79492200000004,1115.8974609999996,104.61523400000078
60,658.5898440000001,460.2563479999999,94.61523400000078,151.15380900000036,82.56396500000028,86.15380900000036,91.2822270000006,92.56396500000028,86.41015599999992,83.9741210000002,120.89746099999957,151.9228520000006,1112.3076170000004,107.56396500000028
61,637.8203130000002,461.2822270000006,92.17968800000017,146.9228520000006,82.43603499999972,85.25634799999989,92.05126999999993,92.56396500000028,86.79492200000004,86.79492200000004,123.58984400000008,146.9228520000006,1113.3334960000002,111.0258789999998
62,619.1025390000004,464.7436520000001,89.61523400000078,144.3588869999994,83.0771479999994,85.51269500000035,92.69238299999961,92.43603499999972,86.41015599999992,89.74365200000011,126.53857400000015,141.6665039999998,1121.9228520000006,110.12841800000024
63,607.5639650000003,476.79492200000004,88.3334960000002,145.2563479999999,84.48730499999965,87.17968800000017,93.3334960000002,92.05126999999993,85.64111300000059,91.79492200000004,128.46142599999985,137.3076170000004,1136.410156,108.0771479999994
64,612.6923829999996,498.46142599999985,89.35888699999941,149.87158199999976,85.38476599999922,88.46142599999985,93.46142599999985,91.53857400000015,84.23095699999976,92.17968800000017,130.12841800000024,136.2822270000006,1153.4614259999998,109.61523400000078
65,642.5639650000003,525.6411130000006,93.7177729999994,156.9228520000006,85.12841800000024,87.56396500000028,93.0771479999994,90.89746099999957,82.69238299999961,90.76904300000024,135.12841800000024,141.53857400000015,1171.1538090000004,111.53857400000015
66,689.8715819999998,551.9228520000006,99.87158199999976,163.9741210000002,84.48730499999965,84.35888699999941,92.17968800000017,90.64111300000059,81.6665039999998,88.20507799999996,145.2563479999999,151.53857400000015,1188.8461909999996,108.9741210000002
67,727.5639650000003,571.1538090000004,103.7177729999994,167.43603499999972,84.10253900000043,80.76904300000024,90.64111300000059,90.38476599999922,81.9228520000006,85.25634799999989,158.20507799999996,159.7436520000001,1202.94873,105.25634799999989
68,729.2309569999998,580.5126950000003,101.79492200000004,165.38476599999922,83.84619099999964,78.46142599999985,88.58984400000008,90.12841800000024,82.94873000000007,82.30761700000039,168.20507799999996,158.9741210000002,1207.94873,106.6665039999998
69,694.8715819999998,582.4360349999997,95.12841800000024,159.87158199999976,83.84619099999964,78.84619099999964,86.9228520000006,89.87158199999976,84.23095699999976,80.12841800000024,171.53857400000015,148.9741210000002,1202.5639650000003,111.2822270000006
70,654.8715819999998,583.0771479999994,89.10253900000043,155.0,83.84619099999964,81.6665039999998,86.2822270000006,90.25634799999989,85.0,80.12841800000024,169.7436520000001,137.56396500000028,1192.4360349999997,112.56396500000028
71,642.8203130000002,587.1796880000002,89.35888699999941,153.7177729999994,83.58984400000008,84.48730499999965,86.79492200000004,91.41015599999992,84.74365200000011,82.82031300000017,167.6923829999996,134.10253900000043,1186.2822270000006,110.38476599999922
72,664.4873049999997,595.2563479999999,95.38476599999922,155.51269500000035,82.30761700000039,84.87158199999976,87.43603499999972,92.43603499999972,83.7177729999994,86.9228520000006,168.3334960000002,140.38476599999922,1188.205078,110.76904300000024
73,695.1284180000002,604.4873049999997,101.2822270000006,157.43603499999972,80.51269500000035,82.43603499999972,87.30761700000039,92.56396500000028,83.0771479999994,90.0,171.2822270000006,149.87158199999976,1196.2822270000006,114.23095699999976
74,706.0258789999998,612.6923829999996,102.05126999999993,157.82031300000017,79.48730499999965,79.61523400000078,87.05126999999993,92.30761700000039,84.23095699999976,90.64111300000059,174.23095699999976,153.7177729999994,1205.0,114.87158199999976
75,691.1538090000004,619.2309569999998,97.94873000000007,156.9228520000006,79.74365200000011,78.58984400000008,87.05126999999993,93.3334960000002,87.17968800000017,89.48730499999965,176.0258789999998,149.23095699999976,1211.1538090000004,111.0258789999998
76,670.5126950000003,624.6152340000008,93.58984400000008,156.15380900000036,80.38476599999922,79.10253900000043,87.30761700000039,96.0258789999998,90.51269500000035,88.9741210000002,177.43603499999972,141.6665039999998,1215.0,108.7177729999994
77,668.205078,629.1025390000004,92.69238299999961,157.17968800000017,80.76904300000024,80.25634799999989,87.43603499999972,98.7177729999994,93.0771479999994,90.38476599999922,179.10253900000043,138.20507799999996,1218.589844,110.89746099999957
78,687.5639650000003,632.6923829999996,95.0,159.23095699999976,81.53857400000015,81.15380900000036,87.82031300000017,100.12841800000024,94.48730499999965,92.82031300000017,180.76904300000024,140.89746099999957,1221.9228520000006,112.43603499999972
79,706.794922,634.1025390000004,96.6665039999998,159.87158199999976,83.0771479999994,82.17968800000017,88.9741210000002,100.12841800000024,94.48730499999965,94.48730499999965,179.48730499999965,144.61523400000078,1221.5385740000002,109.87158199999976
80,700.1284180000002,631.6665039999998,93.84619099999964,156.53857400000015,84.61523400000078,83.3334960000002,90.89746099999957,99.48730499999965,93.3334960000002,93.0771479999994,172.56396500000028,141.79492200000004,1213.9741210000002,107.82031300000017
81,664.7436520000001,626.2822270000006,86.79492200000004,150.12841800000024,84.61523400000078,84.23095699999976,92.30761700000039,98.7177729999994,91.15380900000036,88.46142599999985,161.15380900000036,130.76904300000024,1201.794922,110.25634799999989
82,627.8203130000002,622.5639650000003,80.25634799999989,145.12841800000024,83.46142599999985,84.48730499999965,92.43603499999972,98.7177729999994,89.48730499999965,83.20507799999996,151.9228520000006,118.20507799999996,1194.743652,113.0771479999994
83,621.6665039999998,625.6411130000006,80.51269500000035,146.0258789999998,82.82031300000017,84.61523400000078,91.9228520000006,99.87158199999976,89.87158199999976,80.25634799999989,151.53857400000015,114.10253900000043,1201.6665039999998,111.53857400000015
84,653.5898440000001,634.7436520000001,88.3334960000002,152.6923829999996,84.23095699999976,85.12841800000024,92.05126999999993,101.53857400000015,92.05126999999993,81.0258789999998,160.12841800000024,121.6665039999998,1220.1284180000002,109.35888699999941
85,697.9487300000001,643.3334960000002,98.20507799999996,159.10253900000043,86.79492200000004,86.0258789999998,92.94873000000007,102.05126999999993,94.23095699999976,84.10253900000043,170.0,134.23095699999976,1237.5639650000003,111.6665039999998
86,720.2563479999999,645.0,102.30761700000039,160.0,88.46142599999985,86.9228520000006,93.58984400000008,100.0,94.61523400000078,86.0258789999998,172.94873000000007,141.6665039999998,1241.2822270000006,115.51269500000035
87,707.4360349999997,638.9741210000002,98.46142599999985,154.87158199999976,88.58984400000008,87.30761700000039,92.94873000000007,96.2822270000006,93.20507799999996,84.87158199999976,166.53857400000015,138.3334960000002,1229.3588869999994,114.23095699999976
88,675.8974609999996,629.4873049999997,91.0258789999998,147.82031300000017,87.82031300000017,86.79492200000004,90.25634799999989,92.56396500000028,91.15380900000036,81.15380900000036,155.89746099999957,127.82031300000017,1210.6411130000006,109.48730499999965
89,653.3334960000002,622.3076170000004,86.2822270000006,143.58984400000008,87.30761700000039,85.76904300000024,86.15380900000036,90.64111300000059,89.61523400000078,77.05126999999993,148.46142599999985,118.20507799999996,1197.05127,108.46142599999985
90,655.3847659999992,620.2563479999999,87.43603499999972,143.84619099999964,88.0771479999994,85.51269500000035,82.17968800000017,91.15380900000036,88.9741210000002,74.87158199999976,148.0771479999994,115.12841800000024,1195.1284180000002,111.2822270000006
91,677.0512699999999,622.5639650000003,92.82031300000017,147.6923829999996,90.76904300000024,87.17968800000017,80.76904300000024,93.46142599999985,88.9741210000002,75.64111300000059,153.84619099999964,118.84619099999964,1201.9228520000006,112.05126999999993
92,700.1284180000002,625.2563479999999,98.46142599999985,151.41015599999992,94.61523400000078,90.25634799999989,82.94873000000007,95.76904300000024,88.9741210000002,77.94873000000007,161.2822270000006,125.12841800000024,1208.4614259999998,109.48730499999965
93,709.1025390000004,623.7177729999994,101.2822270000006,151.79492200000004,98.0771479999994,92.17968800000017,86.9228520000006,96.15380900000036,87.94873000000007,79.48730499999965,165.51269500000035,128.84619099999964,1206.0258789999998,108.84619099999964
94,700.6411130000006,616.1538090000004,99.87158199999976,148.3334960000002,99.23095699999976,91.15380900000036,89.10253900000043,93.84619099999964,85.38476599999922,78.7177729999994,164.3588869999994,127.56396500000028,1192.3076170000004,111.53857400000015
95,683.7177729999994,604.3588869999994,96.0258789999998,143.58984400000008,98.46142599999985,88.20507799999996,87.82031300000017,90.12841800000024,82.56396500000028,76.0258789999998,159.48730499999965,122.69238299999961,1171.6665039999998,112.17968800000017
96,669.6152340000008,591.1538090000004,92.82031300000017,140.76904300000024,97.05126999999993,86.15380900000036,84.48730499999965,87.17968800000017,81.2822270000006,73.0771479999994,154.3588869999994,117.94873000000007,1150.8974609999996,108.84619099999964
97,663.4614259999998,577.8203130000002,91.6665039999998,140.51269500000035,95.89746099999957,87.17968800000017,82.43603499999972,86.53857400000015,81.79492200000004,71.79492200000004,151.41015599999992,116.2822270000006,1133.589844,107.30761700000039
98,661.9228520000006,563.9741210000002,91.9228520000006,141.15380900000036,94.74365200000011,90.89746099999957,83.0771479999994,88.3334960000002,82.94873000000007,72.43603499999972,150.89746099999957,117.43603499999972,1118.589844,110.76904300000024
99,659.3588869999994,550.3847659999992,92.05126999999993,141.15380900000036,93.3334960000002,95.51269500000035,86.0258789999998,91.9228520000006,83.7177729999994,74.74365200000011,152.43603499999972,119.23095699999976,1102.94873,113.84619099999964
100,653.5898440000001,538.205078,91.9228520000006,140.38476599999922,92.82031300000017,99.23095699999976,88.7177729999994,95.38476599999922,84.35888699999941,77.69238299999961,155.89746099999957,119.74365200000011,1084.2309569999998,111.41015599999992
101,645.8974609999996,526.794922,92.43603499999972,138.58984400000008,93.46142599999985,100.38476599999922,88.84619099999964,97.30761700000039,85.64111300000059,80.25634799999989,160.51269500000035,119.35888699999941,1061.9228520000006,107.94873000000007
102,637.5639650000003,513.3334960000002,94.35888699999941,135.12841800000024,94.87158199999976,98.0771479999994,86.15380900000036,96.0258789999998,87.17968800000017,81.6665039999998,164.61523400000078,118.9741210000002,1035.7690430000002,108.84619099999964
103,628.3334960000002,495.12841800000024,96.79492200000004,129.7436520000001,95.89746099999957,93.58984400000008,82.94873000000007,92.43603499999972,88.20507799999996,81.0258789999998,166.0258789999998,118.7177729999994,1005.6411130000006,111.0258789999998
104,616.6665039999998,472.82031300000017,98.20507799999996,123.46142599999985,96.15380900000036,90.0,82.17968800000017,89.10253900000043,88.3334960000002,78.58984400000008,164.7436520000001,118.20507799999996,971.5385740000002,109.23095699999976
105,602.5639650000003,449.10253900000043,98.58984400000008,118.20507799999996,95.25634799999989,89.23095699999976,85.12841800000024,88.9741210000002,87.94873000000007,76.15380900000036,163.20507799999996,117.05126999999993,933.5898440000001,105.76904300000024
106,586.1538090000004,426.53857400000015,98.46142599999985,114.74365200000011,93.0771479999994,91.2822270000006,90.25634799999989,92.82031300000017,87.82031300000017,75.64111300000059,164.10253900000043,115.38476599999922,892.8203130000002,106.9228520000006
107,568.3334960000002,406.2822270000006,98.9741210000002,112.69238299999961,90.38476599999922,94.61523400000078,94.87158199999976,98.46142599999985,88.84619099999964,78.3334960000002,167.43603499999972,113.58984400000008,851.0258789999998,111.2822270000006
108,549.7436520000001,387.6923829999996,100.51269500000035,110.76904300000024,89.48730499999965,97.82031300000017,97.17968800000017,103.20507799999996,90.64111300000059,83.46142599999985,169.7436520000001,112.17968800000017,809.7436520000001,112.30761700000039
109,530.6411130000006,369.10253900000043,102.30761700000039,107.43603499999972,90.89746099999957,99.74365200000011,96.41015599999992,105.0,92.17968800000017,88.20507799999996,165.76904300000024,111.79492200000004,769.7436520000001,109.48730499999965
110,510.51269500000035,348.3334960000002,103.7177729999994,102.05126999999993,93.7177729999994,99.48730499999965,93.46142599999985,103.58984400000008,91.79492200000004,90.25634799999989,152.6923829999996,112.30761700000039,729.6152340000008,108.20507799999996
111,489.7436520000001,325.2563479999999,104.10253900000043,95.76904300000024,95.64111300000059,97.43603499999972,90.38476599999922,100.51269500000035,90.12841800000024,88.46142599999985,133.46142599999985,112.82031300000017,688.3334960000002,109.48730499999965
112,470.6411130000006,302.17968800000017,104.23095699999976,90.25634799999989,96.41015599999992,95.64111300000059,90.0,98.7177729999994,89.23095699999976,85.51269500000035,115.51269500000035,113.0771479999994,646.0258789999998,108.7177729999994
113,454.3588869999994,281.6665039999998,104.87158199999976,86.79492200000004,96.41015599999992,96.15380900000036,92.82031300000017,100.12841800000024,91.2822270000006,84.48730499999965,105.51269500000035,113.3334960000002,603.4614259999998,105.0
114,439.23095699999976,263.7177729999994,106.2822270000006,84.87158199999976,96.2822270000006,98.58984400000008,97.17968800000017,104.35888699999941,95.25634799999989,86.6665039999998,104.74365200000011,113.58984400000008,560.8974609999996,104.48730499999965
115,421.0258789999998,246.53857400000015,107.94873000000007,82.56396500000028,95.89746099999957,101.2822270000006,99.87158199999976,107.94873000000007,98.58984400000008,90.38476599999922,108.46142599999985,113.0771479999994,519.2309569999998,108.84619099999964
116,396.0258789999998,229.3588869999994,109.48730499999965,78.9741210000002,95.76904300000024,102.69238299999961,99.23095699999976,108.46142599999985,99.74365200000011,93.46142599999985,111.0258789999998,111.6665039999998,480.2563479999999,111.79492200000004
117,362.82031300000017,213.20507799999996,110.64111300000059,75.12841800000024,96.15380900000036,102.82031300000017,96.15380900000036,106.53857400000015,99.23095699999976,94.23095699999976,109.74365200000011,110.0,445.6411130000006,109.35888699999941
118,322.5639650000003,199.23095699999976,111.41015599999992,72.30761700000039,96.41015599999992,101.53857400000015,91.6665039999998,103.9741210000002,98.46142599999985,92.94873000000007,105.38476599999922,109.10253900000043,414.48730499999965,106.41015599999992
119,278.5898440000001,187.6923829999996,111.15380900000036,70.64111300000059,95.51269500000035,99.23095699999976,87.30761700000039,102.05126999999993,97.82031300000017,90.25634799999989,100.76904300000024,108.7177729999994,383.46142599999985,108.20507799999996
120,235.6411130000006,178.46142599999985,109.87158199999976,69.61523400000078,94.10253900000043,97.17968800000017,84.61523400000078,100.89746099999957,97.56396500000028,87.69238299999961,98.3334960000002,107.43603499999972,350.3847659999992,110.76904300000024
121,198.58984400000008,171.41015599999992,108.3334960000002,68.3334960000002,93.46142599999985,96.9228520000006,84.61523400000078,100.12841800000024,97.56396500000028,86.53857400000015,98.58984400000008,105.38476599999922,316.53857400000015,108.58984400000008
122,169.61523400000078,165.89746099999957,107.69238299999961,67.05126999999993,94.61523400000078,98.46142599999985,87.56396500000028,99.87158199999976,98.3334960000002,86.9228520000006,100.51269500000035,103.58984400000008,285.6411130000006,104.87158199999976
123,147.56396500000028,160.6411130000006,108.3334960000002,66.79492200000004,96.79492200000004,100.89746099999957,91.6665039999998,100.25634799999989,100.12841800000024,88.46142599999985,102.82031300000017,102.94873000000007,260.2563479999999,105.89746099999957
124,130.2563479999999,155.0,109.48730499999965,67.94873000000007,99.23095699999976,102.82031300000017,95.12841800000024,102.05126999999993,102.56396500000028,90.89746099999957,104.87158199999976,103.58984400000008,240.76904300000024,110.51269500000035
125,116.2822270000006,149.87158199999976,110.76904300000024,70.0,101.41015599999992,103.84619099999964,97.05126999999993,105.0,105.38476599999922,94.10253900000043,107.05126999999993,104.61523400000078,224.87158199999976,112.30761700000039
126,104.61523400000078,145.76904300000024,111.79492200000004,71.41015599999992,102.94873000000007,103.7177729999994,98.0771479999994,107.94873000000007,107.69238299999961,97.43603499999972,109.23095699999976,104.87158199999976,209.10253900000043,110.89746099999957
127,94.10253900000043,141.9228520000006,111.6665039999998,70.38476599999922,103.46142599999985,102.56396500000028,98.7177729999994,109.48730499999965,108.7177729999994,99.48730499999965,110.0,103.20507799999996,190.38476599999922,111.41015599999992
128,83.9741210000002,137.3076170000004,110.25634799999989,67.30761700000039,103.3334960000002,101.79492200000004,99.74365200000011,109.48730499999965,108.3334960000002,98.9741210000002,108.84619099999964,99.74365200000011,168.0771479999994,113.58984400000008
129,75.12841800000024,131.15380900000036,108.58984400000008,63.7177729999994,103.3334960000002,102.30761700000039,101.41015599999992,108.9741210000002,107.82031300000017,96.79492200000004,105.76904300000024,95.51269500000035,143.9741210000002,111.79492200000004
130,67.94873000000007,123.7177729999994,107.56396500000028,61.53857400000015,103.7177729999994,103.9741210000002,103.46142599999985,109.10253900000043,107.82031300000017,94.23095699999976,102.17968800000017,92.30761700000039,121.41015599999992,106.0258789999998
131,61.9228520000006,115.38476599999922,107.56396500000028,61.025878999999804,103.46142599999985,104.61523400000078,103.9741210000002,109.48730499999965,107.69238299999961,92.17968800000017,99.23095699999976,90.51269500000035,102.05126999999993,103.46142599999985
132,56.025878999999804,107.43603499999972,107.94873000000007,61.2822270000006,102.17968800000017,102.94873000000007,101.79492200000004,108.9741210000002,106.53857400000015,90.89746099999957,97.82031300000017,89.35888699999941,86.0258789999998,106.9228520000006
133,50.38476599999922,102.30761700000039,108.20507799999996,62.17968800000017,101.0258789999998,100.12841800000024,97.43603499999972,107.56396500000028,104.74365200000011,90.51269500000035,98.9741210000002,88.7177729999994,73.46142599999985,110.51269500000035
134,45.51269500000035,101.15380900000036,108.58984400000008,63.46142599999985,101.79492200000004,98.46142599999985,93.46142599999985,106.15380900000036,103.9741210000002,91.53857400000015,101.53857400000015,88.9741210000002,63.20507799999996,110.38476599999922
135,41.025878999999804,102.30761700000039,109.35888699999941,64.74365200000011,104.23095699999976,98.9741210000002,92.17968800000017,106.0258789999998,104.61523400000078,93.58984400000008,103.20507799999996,90.0,53.0771479999994,110.25634799999989
136,35.64111300000059,102.43603499999972,109.61523400000078,65.51269500000035,106.9228520000006,100.76904300000024,94.35888699999941,107.17968800000017,106.15380900000036,95.64111300000059,101.2822270000006,91.0258789999998,40.38476599999922,113.46142599999985
137,29.230956999999762,99.61523400000078,108.3334960000002,66.0258789999998,108.58984400000008,102.30761700000039,98.46142599999985,109.10253900000043,107.56396500000028,97.30761700000039,96.0258789999998,90.64111300000059,25.128418000000238,115.0
138,22.82031300000017,94.74365200000011,106.53857400000015,66.79492200000004,108.9741210000002,103.46142599999985,102.43603499999972,111.2822270000006,108.3334960000002,99.35888699999941,90.64111300000059,89.35888699999941,10.512695000000349,110.64111300000059
139,18.205077999999958,90.38476599999922,106.53857400000015,68.0771479999994,108.58984400000008,104.23095699999976,104.87158199999976,113.20507799999996,109.10253900000043,102.30761700000039,88.58984400000008,88.58984400000008,-0.256347999999889,105.25634799999989
140,16.025878999999804,88.46142599999985,109.74365200000011,69.61523400000078,107.82031300000017,104.48730499999965,105.25634799999989,115.12841800000024,110.76904300000024,106.2822270000006,90.64111300000059,90.0,-6.794922000000042,105.51269500000035
141,16.794922000000042,90.0,115.25634799999989,71.9228520000006,108.3334960000002,104.48730499999965,105.12841800000024,117.30761700000039,113.84619099999964,110.89746099999957,95.38476599999922,94.35888699999941,-10.897461000000021,109.23095699999976
142,20.0,94.48730499999965,120.76904300000024,75.0,111.41015599999992,105.51269500000035,105.76904300000024,119.48730499999965,117.94873000000007,114.74365200000011,100.0,100.25634799999989,-15.512939000000188,110.0
143,23.333496000000196,99.23095699999976,124.61523400000078,78.3334960000002,115.64111300000059,108.0771479999994,107.43603499999972,120.25634799999989,120.25634799999989,116.2822270000006,102.05126999999993,104.74365200000011,-23.333252000000357,108.0771479999994
144,23.333496000000196,100.76904300000024,125.51269500000035,80.12841800000024,118.20507799999996,110.25634799999989,108.20507799999996,117.82031300000017,118.46142599999985,114.61523400000078,100.12841800000024,104.87158199999976,-35.0,108.9741210000002
145,18.717772999999397,97.69238299999961,123.20507799999996,79.48730499999965,117.17968800000017,110.12841800000024,106.6665039999998,112.56396500000028,112.69238299999961,110.51269500000035,95.64111300000059,100.38476599999922,-47.82055700000001,111.53857400000015
146,12.051269999999931,91.9228520000006,118.84619099999964,77.43603499999972,114.48730499999965,108.20507799999996,103.3334960000002,106.79492200000004,106.53857400000015,106.15380900000036,91.9228520000006,93.9741210000002,-57.564209000000574,110.38476599999922
147,7.307617000000391,86.6665039999998,114.87158199999976,75.76904300000024,112.94873000000007,106.2822270000006,100.38476599999922,103.7177729999994,103.84619099999964,103.7177729999994,91.6665039999998,90.25634799999989,-61.92309599999999,105.89746099999957
148,6.922852000000603,83.9741210000002,113.20507799999996,75.89746099999957,113.7177729999994,105.38476599999922,99.23095699999976,104.74365200000011,106.0258789999998,104.35888699999941,94.74365200000011,91.41015599999992,-62.948729999999614,104.35888699999941
149,9.743652000000111,83.7177729999994,114.35888699999941,77.56396500000028,115.51269500000035,105.64111300000059,100.12841800000024,108.46142599999985,111.0258789999998,107.43603499999972,98.9741210000002,95.51269500000035,-64.35888699999987,107.43603499999972
150,13.077147999999397,84.61523400000078,117.17968800000017,80.25634799999989,116.53857400000015,106.6665039999998,102.05126999999993,112.82031300000017,115.64111300000059,111.41015599999992,102.43603499999972,98.84619099999964,-68.20507799999996,108.84619099999964
151,13.974121000000196,84.61523400000078,119.74365200000011,82.43603499999972,115.76904300000024,107.69238299999961,103.84619099999964,115.51269500000035,117.17968800000017,113.84619099999964,103.84619099999964,98.58984400000008,-74.8718259999996,106.41015599999992
152,9.743652000000111,81.53857400000015,120.64111300000059,82.17968800000017,113.20507799999996,107.43603499999972,103.84619099999964,115.12841800000024,114.74365200000011,112.94873000000007,102.30761700000039,94.87158199999976,-84.23071300000038,105.51269500000035
153,1.0258789999998044,75.51269500000035,118.58984400000008,79.10253900000043,109.61523400000078,104.61523400000078,101.15380900000036,111.79492200000004,109.87158199999976,108.58984400000008,97.82031300000017,89.74365200000011,-95.1281740000004,109.23095699999976
154,-8.58984399999963,69.48730499999965,114.87158199999976,75.51269500000035,106.79492200000004,100.89746099999957,96.9228520000006,107.56396500000028,105.51269500000035,103.20507799999996,92.30761700000039,86.6665039999998,-105.1281740000004,112.30761700000039
155,-15.0,66.9228520000006,112.17968800000017,74.23095699999976,106.53857400000015,99.10253900000043,94.10253900000043,104.61523400000078,104.10253900000043,100.25634799999989,89.35888699999941,87.82031300000017,-111.28198199999997,110.51269500000035
156,-17.30761700000039,67.82031300000017,112.56396500000028,76.0258789999998,108.20507799999996,100.76904300000024,94.87158199999976,103.9741210000002,105.38476599999922,101.0258789999998,90.76904300000024,92.17968800000017,-112.94872999999961,108.20507799999996
157,-17.820557000000008,69.23095699999976,115.51269500000035,78.9741210000002,109.61523400000078,104.35888699999941,98.3334960000002,105.12841800000024,106.9228520000006,104.23095699999976,94.87158199999976,96.2822270000006,-112.30761700000039,110.64111300000059
158,-19.230713000000378,68.58984400000008,118.20507799999996,81.0258789999998,109.10253900000043,107.05126999999993,101.41015599999992,107.05126999999993,106.9228520000006,107.30761700000039,98.9741210000002,97.17968800000017,-112.05127000000039,114.23095699999976
159,-22.30761700000039,65.76904300000024,119.23095699999976,81.0258789999998,107.30761700000039,107.69238299999961,101.79492200000004,109.10253900000043,105.38476599999922,108.58984400000008,100.89746099999957,94.61523400000078,-113.71801800000003,113.3334960000002
160,-26.153809000000365,62.30761700000039,119.35888699999941,79.87158199999976,105.64111300000059,106.41015599999992,99.48730499999965,110.25634799999989,103.84619099999964,108.0771479999994,100.51269500000035,91.15380900000036,-117.56420900000057,110.0
161,-29.8718259999996,59.35888699999941,120.0,79.10253900000043,104.74365200000011,104.87158199999976,96.6665039999998,110.12841800000024,103.58984400000008,107.05126999999993,99.23095699999976,90.0,-122.94872999999961,110.25634799999989
162,-31.923095999999987,57.56396500000028,121.15380900000036,80.0,105.0,105.51269500000035,95.76904300000024,109.23095699999976,105.51269500000035,107.30761700000039,98.58984400000008,92.05126999999993,-127.05127000000039,113.0771479999994
163,-30.89746100000002,57.69238299999961,122.56396500000028,83.20507799999996,106.6665039999998,109.61523400000078,98.20507799999996,108.58984400000008,108.84619099999964,109.61523400000078,100.0,96.2822270000006,-127.05127000000039,112.56396500000028
164,-28.076904000000013,58.846190999999635,123.3334960000002,86.79492200000004,110.0,115.38476599999922,102.56396500000028,109.23095699999976,111.79492200000004,112.82031300000017,102.56396500000028,99.87158199999976,-123.20507799999996,108.9741210000002
165,-27.30761700000039,58.46142599999985,122.43603499999972,88.46142599999985,113.20507799999996,119.35888699999941,106.2822270000006,110.25634799999989,112.43603499999972,114.74365200000011,103.7177729999994,100.25634799999989,-120.1281740000004,108.3334960000002
166,-32.30761700000039,55.0,120.12841800000024,86.9228520000006,114.48730499999965,119.48730499999965,107.69238299999961,111.15380900000036,110.76904300000024,113.84619099999964,101.2822270000006,97.69238299999961,-123.07690400000001,110.89746099999957
167,-42.69238299999961,49.61523400000078,117.69238299999961,83.7177729999994,113.7177729999994,116.53857400000015,107.69238299999961,111.79492200000004,108.20507799999996,110.89746099999957,95.76904300000024,94.10253900000043,-133.58984399999963,111.0258789999998
168,-54.10253899999998,44.61523400000078,116.41015599999992,80.76904300000024,111.9228520000006,113.0771479999994,107.56396500000028,112.43603499999972,106.9228520000006,108.0771479999994,89.87158199999976,92.05126999999993,-146.923096,107.17968800000017
169,-61.66674799999964,41.153809000000365,116.41015599999992,79.35888699999941,109.61523400000078,110.89746099999957,107.94873000000007,112.30761700000039,107.30761700000039,106.9228520000006,86.53857400000015,92.17968800000017,-156.66674799999964,105.25634799999989
170,-62.17944299999999,38.7177729999994,116.53857400000015,78.7177729999994,107.30761700000039,110.38476599999922,107.69238299999961,110.51269500000035,108.84619099999964,107.56396500000028,87.17968800000017,93.20507799999996,-157.9487299999996,107.82031300000017
171,-55.1281740000004,37.17968800000017,116.53857400000015,78.58984400000008,106.15380900000036,111.53857400000015,106.41015599999992,107.69238299999961,110.89746099999957,109.61523400000078,91.79492200000004,94.87158199999976,-149.8718259999996,109.35888699999941
172,-44.74365200000011,36.666503999999804,117.43603499999972,79.10253900000043,107.69238299999961,113.9741210000002,105.0,106.2822270000006,112.82031300000017,113.0771479999994,99.61523400000078,97.69238299999961,-135.5129390000002,106.41015599999992
173,-37.30761700000039,35.76904300000024,120.12841800000024,80.25634799999989,111.15380900000036,116.15380900000036,104.10253900000043,107.69238299999961,113.7177729999994,117.17968800000017,107.56396500000028,102.05126999999993,-121.41015600000037,103.7177729999994
174,-37.051270000000386,32.30761700000039,123.58984400000008,81.79492200000004,114.10253900000043,116.2822270000006,104.10253900000043,110.89746099999957,113.20507799999996,120.38476599999922,112.43603499999972,106.2822270000006,-113.84619099999964,106.2822270000006
175,-43.20507799999996,26.153809000000365,125.64111300000059,82.94873000000007,114.74365200000011,114.48730499999965,104.74365200000011,113.84619099999964,111.6665039999998,121.2822270000006,112.69238299999961,107.94873000000007,-115.25634799999989,110.25634799999989
176,-51.025634999999966,19.358886999999413,124.74365200000011,83.7177729999994,113.20507799999996,112.56396500000028,105.64111300000059,114.74365200000011,110.25634799999989,119.61523400000078,109.35888699999941,106.0258789999998,-122.69238299999961,109.87158199999976
177,-56.92309599999999,14.615234000000783,121.53857400000015,83.46142599999985,110.64111300000059,111.53857400000015,105.76904300000024,112.94873000000007,109.35888699999941,116.6665039999998,105.38476599999922,102.05126999999993,-131.53857400000015,107.69238299999961
178,-59.8718259999996,12.307617000000391,117.43603499999972,81.9228520000006,107.82031300000017,111.2822270000006,104.35888699999941,109.87158199999976,109.10253900000043,113.84619099999964,102.56396500000028,98.58984400000008,-137.6923829999996,109.10253900000043
179,-61.28198199999997,11.922852000000603,114.23095699999976,79.48730499999965,105.76904300000024,110.89746099999957,101.79492200000004,107.43603499999972,108.9741210000002,112.30761700000039,101.41015599999992,97.94873000000007,-139.61547900000005,112.05126999999993
180,-62.17944299999999,11.922852000000603,112.94873000000007,77.56396500000028,105.76904300000024,110.64111300000059,99.35888699999941,107.17968800000017,108.9741210000002,112.05126999999993,101.9228520000006,100.0,-138.71801800000003,111.0258789999998
181,-63.46142599999985,10.897460999999566,113.84619099999964,77.82031300000017,107.17968800000017,110.38476599999922,98.46142599999985,108.58984400000008,108.84619099999964,112.17968800000017,103.0771479999994,102.94873000000007,-138.20507799999996,107.56396500000028
182,-65.1281740000004,7.948730000000069,115.38476599999922,79.74365200000011,108.58984400000008,109.61523400000078,98.7177729999994,109.48730499999965,107.94873000000007,111.41015599999992,103.46142599999985,103.7177729999994,-141.02563499999997,108.0771479999994
183,-66.41015600000037,4.230956999999762,115.64111300000059,81.53857400000015,108.46142599999985,108.20507799999996,99.10253900000043,108.3334960000002,106.6665039999998,109.23095699999976,102.43603499999972,100.89746099999957,-147.3076170000004,112.69238299999961
184,-66.66674799999964,1.5385740000001533,114.48730499999965,82.05126999999993,107.30761700000039,106.79492200000004,99.35888699999941,105.64111300000059,105.76904300000024,106.9228520000006,100.64111300000059,95.89746099999957,-154.35888699999987,114.23095699999976
185,-65.64111300000013,0.769043000000238,113.0771479999994,81.53857400000015,106.15380900000036,106.41015599999992,100.12841800000024,104.35888699999941,106.2822270000006,106.53857400000015,99.61523400000078,92.05126999999993,-159.4870609999998,110.38476599999922
186,-65.1281740000004,1.153809000000365,112.69238299999961,81.0258789999998,105.0,106.6665039999998,101.0258789999998,105.76904300000024,108.20507799999996,108.7177729999994,99.35888699999941,92.30761700000039,-161.28198199999997,107.43603499999972
187,-66.15380900000036,0.6411130000005869,113.7177729999994,80.38476599999922,103.84619099999964,106.15380900000036,101.2822270000006,109.10253900000043,110.12841800000024,111.6665039999998,99.23095699999976,96.0258789999998,-159.8718259999996,108.58984400000008
188,-68.58984399999963,-2.0512699999999313,115.51269500000035,79.87158199999976,103.20507799999996,104.74365200000011,100.12841800000024,112.56396500000028,110.89746099999957,113.46142599999985,98.84619099999964,100.64111300000059,-156.66674799999964,109.35888699999941
189,-70.38452099999995,-6.281981999999971,117.30761700000039,79.74365200000011,103.7177729999994,103.20507799999996,98.58984400000008,114.74365200000011,110.89746099999957,113.84619099999964,98.3334960000002,102.94873000000007,-153.84619099999964,106.9228520000006
190,-70.51293900000019,-10.512939000000188,118.58984400000008,80.89746099999957,105.38476599999922,103.0771479999994,98.0771479999994,114.74365200000011,110.38476599999922,113.7177729999994,97.94873000000007,101.9228520000006,-153.33325200000036,105.38476599999922
191,-68.58984399999963,-12.307617000000391,118.84619099999964,83.46142599999985,107.43603499999972,104.74365200000011,99.35888699999941,112.94873000000007,109.74365200000011,114.61523400000078,97.82031300000017,98.58984400000008,-154.8718259999996,107.82031300000017
192,-65.89746100000002,-9.8718259999996,118.3334960000002,86.9228520000006,109.61523400000078,107.56396500000028,102.17968800000017,110.38476599999922,109.23095699999976,117.30761700000039,98.46142599999985,95.38476599999922,-156.02563499999997,109.61523400000078
193,-63.974365000000034,-5.128174000000399,117.43603499999972,89.87158199999976,111.53857400000015,109.87158199999976,104.61523400000078,108.20507799999996,109.48730499999965,120.51269500000035,100.12841800000024,94.23095699999976,-155.2563479999999,106.53857400000015
194,-65.0,-2.4360349999997197,116.2822270000006,90.51269500000035,112.30761700000039,109.74365200000011,105.0,106.9228520000006,109.74365200000011,121.79492200000004,101.41015599999992,95.25634799999989,-153.97436500000003,103.58984400000008
195,-70.1281740000004,-5.38452099999995,114.23095699999976,87.69238299999961,111.0258789999998,107.05126999999993,102.94873000000007,105.89746099999957,108.84619099999964,119.10253900000043,100.89746099999957,96.41015599999992,-155.2563479999999,106.6665039999998
196,-76.79492200000004,-12.820557000000008,111.79492200000004,82.82031300000017,108.58984400000008,103.58984400000008,99.87158199999976,104.35888699999941,106.2822270000006,113.46142599999985,98.9741210000002,96.15380900000036,-159.7436520000001,112.43603499999972
197,-81.02563499999997,-20.512939000000188,110.12841800000024,79.10253900000043,106.53857400000015,102.30761700000039,97.82031300000017,102.82031300000017,103.58984400000008,108.0771479999994,97.43603499999972,94.87158199999976,-165.1281740000004,113.46142599999985
198,-80.1281740000004,-24.230713000000378,110.12841800000024,79.48730499999965,106.0258789999998,103.46142599999985,97.69238299999961,102.30761700000039,102.30761700000039,105.76904300000024,97.82031300000017,93.84619099999964,-169.4870609999998,110.51269500000035
199,-76.15380900000036,-23.846190999999635,111.53857400000015,83.58984400000008,106.79492200000004,105.0,98.46142599999985,102.82031300000017,102.43603499999972,106.6665039999998,99.35888699999941,94.10253900000043,-172.0512700000004,109.48730499999965
200,-72.94872999999961,-21.025634999999966,112.43603499999972,87.82031300000017,107.69238299999961,105.12841800000024,98.84619099999964,103.20507799999996,102.30761700000039,107.69238299999961,100.25634799999989,94.87158199999976,-173.20507799999996,111.2822270000006
201,-73.33325200000036,-18.461425999999847,111.79492200000004,89.35888699999941,108.20507799999996,103.46142599999985,98.20507799999996,102.30761700000039,100.25634799999989,106.41015599999992,99.61523400000078,95.51269500000035,-173.076904,110.64111300000059
202,-76.66674799999964,-18.205077999999958,110.12841800000024,87.30761700000039,107.30761700000039,101.15380900000036,96.79492200000004,99.87158199999976,96.79492200000004,101.9228520000006,97.94873000000007,95.64111300000059,-172.43579099999943,107.56396500000028
203,-80.51293900000019,-21.025634999999966,108.46142599999985,83.84619099999964,104.87158199999976,99.35888699999941,95.51269500000035,97.17968800000017,93.3334960000002,96.6665039999998,96.6665039999998,95.38476599999922,-172.3076170000004,107.69238299999961
204,-82.43579099999943,-25.0,108.3334960000002,81.6665039999998,102.17968800000017,99.10253900000043,95.76904300000024,96.2822270000006,92.17968800000017,93.9741210000002,97.17968800000017,94.61523400000078,-173.46142599999985,111.79492200000004
205,-81.41015600000037,-27.179442999999992,110.12841800000024,82.43603499999972,101.53857400000015,100.76904300000024,98.3334960000002,98.84619099999964,94.35888699999941,96.2822270000006,99.74365200000011,94.23095699999976,-174.7436520000001,113.9741210000002
206,-77.69238299999961,-26.153809000000365,113.46142599999985,85.12841800000024,103.46142599999985,103.0771479999994,101.6665039999998,104.61523400000078,98.84619099999964,102.82031300000017,103.0771479999994,95.25634799999989,-174.4870609999998,111.9228520000006
207,-73.84619099999964,-23.205077999999958,116.2822270000006,87.17968800000017,105.25634799999989,103.58984400000008,102.94873000000007,110.64111300000059,103.20507799999996,109.48730499999965,104.61523400000078,97.43603499999972,-173.076904,110.38476599999922
208,-72.43579099999943,-21.28198199999997,116.9228520000006,86.6665039999998,103.9741210000002,100.89746099999957,100.12841800000024,112.82031300000017,105.0,112.30761700000039,103.0771479999994,99.61523400000078,-171.79492200000004,112.30761700000039
209,-73.07690400000001,-21.794922000000042,115.12841800000024,84.23095699999976,100.12841800000024,96.9228520000006,95.25634799999989,110.38476599999922,104.35888699999941,110.51269500000035,99.61523400000078,100.25634799999989,-171.53857400000015,112.56396500000028
210,-74.10253899999998,-23.58984399999963,112.82031300000017,81.9228520000006,96.79492200000004,94.48730499999965,91.6665039999998,106.2822270000006,103.20507799999996,106.2822270000006,97.43603499999972,99.48730499999965,-171.79492200000004,107.94873000000007
211,-74.35888699999987,-25.25634799999989,111.79492200000004,81.15380900000036,96.41015599999992,94.48730499999965,91.2822270000006,104.87158199999976,103.7177729999994,103.58984400000008,97.30761700000039,98.3334960000002,-171.923096,104.10253900000043
212,-74.23071300000038,-26.538574000000153,112.17968800000017,81.79492200000004,98.9741210000002,95.64111300000059,93.58984400000008,107.94873000000007,105.89746099999957,103.9741210000002,97.69238299999961,97.05126999999993,-172.43579099999943,106.53857400000015
213,-74.8718259999996,-27.30761700000039,112.30761700000039,82.94873000000007,102.94873000000007,97.05126999999993,96.53857400000015,113.84619099999964,108.58984400000008,106.79492200000004,96.15380900000036,95.38476599999922,-174.35888699999987,111.41015599999992
214,-76.79492200000004,-27.564209000000574,111.0258789999998,84.10253900000043,106.41015599999992,98.9741210000002,98.84619099999964,118.9741210000002,110.25634799999989,109.35888699999941,92.30761700000039,93.3334960000002,-177.56420900000057,111.41015599999992
215,-79.48706099999981,-27.564209000000574,108.58984400000008,85.12841800000024,107.56396500000028,101.41015599999992,99.87158199999976,120.25634799999989,110.38476599999922,109.61523400000078,87.82031300000017,91.79492200000004,-181.28198199999997,107.94873000000007
216,-82.30761700000039,-28.333252000000357,106.2822270000006,85.64111300000059,106.2822270000006,103.46142599999985,100.0,117.69238299999961,109.35888699999941,107.17968800000017,84.74365200000011,91.0258789999998,-184.7436520000001,107.05126999999993
217,-84.10253899999998,-30.1281740000004,104.48730499999965,85.64111300000059,103.84619099999964,104.23095699999976,99.74365200000011,113.84619099999964,108.0771479999994,103.46142599999985,83.9741210000002,90.89746099999957,-187.43579099999943,108.84619099999964
218,-84.23071300000038,-32.051270000000386,103.58984400000008,85.12841800000024,102.43603499999972,103.7177729999994,100.0,111.2822270000006,107.30761700000039,100.38476599999922,84.10253900000043,90.64111300000059,-188.97436500000003,108.20507799999996
219,-83.33325200000036,-32.82055700000001,103.3334960000002,84.74365200000011,102.43603499999972,102.82031300000017,100.89746099999957,110.12841800000024,107.17968800000017,98.84619099999964,83.0771479999994,89.87158199999976,-189.61547900000005,105.76904300000024
220,-82.82055700000001,-31.923095999999987,102.94873000000007,84.61523400000078,103.20507799999996,102.17968800000017,101.41015599999992,109.10253900000043,106.41015599999992,98.0771479999994,80.12841800000024,88.58984400000008,-190.64111300000013,106.6665039999998
221,-82.43579099999943,-29.8718259999996,102.30761700000039,86.0258789999998,103.84619099999964,102.69238299999961,101.6665039999998,107.43603499999972,104.74365200000011,98.0771479999994,77.17968800000017,87.69238299999961,-191.923096,110.38476599999922
222,-80.51293900000019,-26.923095999999987,102.30761700000039,89.61523400000078,105.38476599999922,105.89746099999957,102.82031300000017,105.89746099999957,103.46142599999985,99.35888699999941,77.56396500000028,88.0771479999994,-191.79492200000004,110.76904300000024
223,-76.41015600000037,-23.846190999999635,103.9741210000002,94.35888699999941,108.9741210000002,111.53857400000015,105.64111300000059,105.76904300000024,103.84619099999964,102.30761700000039,82.30761700000039,90.12841800000024,-188.58984399999963,107.17968800000017
224,-72.05127000000039,-22.30761700000039,107.05126999999993,97.56396500000028,112.94873000000007,116.79492200000004,108.9741210000002,106.41015599999992,105.25634799999989,106.0258789999998,88.58984400000008,92.43603499999972,-183.20507799999996,105.89746099999957
225,-70.1281740000004,-23.71801800000003,109.48730499999965,97.43603499999972,114.48730499999965,118.0771479999994,111.0258789999998,106.15380900000036,105.89746099999957,108.20507799999996,92.43603499999972,93.9741210000002,-179.10253899999998,109.48730499999965
226,-71.79492200000004,-27.30761700000039,109.61523400000078,95.12841800000024,112.56396500000028,114.87158199999976,110.89746099999957,104.74365200000011,104.74365200000011,107.30761700000039,91.79492200000004,94.48730499999965,-178.46142599999985,112.30761700000039
227,-75.38452099999995,-30.769286999999622,107.69238299999961,93.3334960000002,108.9741210000002,109.61523400000078,109.61523400000078,102.82031300000017,102.94873000000007,103.7177729999994,88.46142599999985,94.23095699999976,-180.89746100000002,110.25634799999989
228,-78.20507799999996,-31.923095999999987,105.64111300000059,92.82031300000017,106.2822270000006,105.76904300000024,108.7177729999994,101.9228520000006,101.79492200000004,99.48730499999965,85.38476599999922,93.9741210000002,-184.10253899999998,108.20507799999996
229,-78.33325200000036,-30.769286999999622,105.12841800000024,93.0771479999994,106.15380900000036,105.12841800000024,108.9741210000002,102.82031300000017,101.53857400000015,96.6665039999998,84.61523400000078,94.23095699999976,-185.64111300000013,110.51269500000035
230,-75.76928699999962,-28.846190999999635,106.9228520000006,93.0771479999994,108.0771479999994,107.69238299999961,110.12841800000024,105.51269500000035,101.6665039999998,96.53857400000015,86.15380900000036,95.38476599999922,-184.7436520000001,113.20507799999996
231,-72.43579099999943,-27.820557000000008,110.0,92.30761700000039,110.64111300000059,111.6665039999998,110.89746099999957,108.58984400000008,101.6665039999998,97.94873000000007,87.69238299999961,96.6665039999998,-182.6923829999996,111.41015599999992
232,-71.66674799999964,-29.358886999999868,111.53857400000015,90.51269500000035,111.79492200000004,113.84619099999964,109.48730499999965,110.12841800000024,101.15380900000036,98.3334960000002,86.79492200000004,96.79492200000004,-182.56420900000057,108.58984400000008
233,-75.38452099999995,-33.58984399999963,110.0,88.0771479999994,109.87158199999976,112.05126999999993,105.76904300000024,109.23095699999976,99.87158199999976,95.76904300000024,82.56396500000028,94.61523400000078,-186.41015600000037,110.38476599999922
234,-81.28198199999997,-37.82055700000001,106.41015599999992,86.2822270000006,106.2822270000006,107.05126999999993,101.79492200000004,107.30761700000039,98.3334960000002,91.41015599999992,77.30761700000039,91.0258789999998,-192.0512700000004,113.9741210000002
235,-84.8718259999996,-38.58984399999963,103.84619099999964,86.53857400000015,103.9741210000002,102.94873000000007,100.25634799999989,106.53857400000015,98.3334960000002,88.3334960000002,75.25634799999989,88.84619099999964,-194.35888699999987,113.20507799999996
236,-83.58984399999963,-35.25634799999989,104.35888699999941,88.58984400000008,104.74365200000011,102.82031300000017,102.30761700000039,108.3334960000002,100.64111300000059,89.35888699999941,77.82031300000017,90.12841800000024,-190.2563479999999,109.23095699999976
237,-79.10253899999998,-30.89746100000002,107.43603499999972,90.38476599999922,107.56396500000028,106.2822270000006,106.6665039999998,111.53857400000015,103.84619099999964,93.46142599999985,83.0771479999994,93.84619099999964,-182.179443,108.58984400000008
238,-74.35888699999987,-28.333252000000357,110.12841800000024,90.76904300000024,110.38476599999922,111.0258789999998,110.89746099999957,114.35888699999941,105.89746099999957,98.0771479999994,88.3334960000002,97.30761700000039,-175.1281740000004,111.41015599999992
239,-71.15380900000036,-27.564209000000574,111.15380900000036,90.51269500000035,112.17968800000017,114.74365200000011,113.7177729999994,116.2822270000006,106.6665039999998,101.9228520000006,91.53857400000015,98.58984400000008,-171.53857400000015,111.53857400000015
240,-69.10253899999998,-26.666747999999643,110.76904300000024,91.41015599999992,112.94873000000007,116.2822270000006,114.87158199999976,117.43603499999972,107.30761700000039,104.74365200000011,92.56396500000028,98.3334960000002,-170.64111300000013,107.94873000000007
241,-68.58984399999963,-25.38452099999995,110.0,93.3334960000002,112.30761700000039,115.38476599999922,114.74365200000011,117.43603499999972,108.46142599999985,106.6665039999998,91.9228520000006,97.30761700000039,-170.64111300000013,106.41015599999992
242,-69.74365200000011,-24.74365200000011,108.46142599999985,94.61523400000078,110.64111300000059,112.56396500000028,113.3334960000002,116.0258789999998,109.87158199999976,107.56396500000028,90.12841800000024,95.89746099999957,-170.64111300000013,108.58984400000008
243,-72.56420900000057,-25.89746100000002,106.15380900000036,93.9741210000002,108.84619099999964,109.61523400000078,110.76904300000024,113.7177729999994,110.38476599999922,107.17968800000017,88.84619099999964,94.10253900000043,-170.2563479999999,109.10253900000043
244,-75.25634799999989,-28.461425999999847,103.7177729999994,91.6665039999998,107.82031300000017,107.69238299999961,107.69238299999961,112.05126999999993,109.61523400000078,105.89746099999957,89.74365200000011,92.82031300000017,-169.35888699999987,105.89746099999957
245,-76.41015600000037,-30.769286999999622,102.05126999999993,89.23095699999976,107.43603499999972,106.2822270000006,104.23095699999976,111.41015599999992,107.56396500000028,104.35888699999941,92.69238299999961,92.82031300000017,-168.58984399999963,104.74365200000011
246,-75.38452099999995,-31.538574000000153,101.6665039999998,87.94873000000007,106.41015599999992,104.48730499999965,100.76904300000024,110.64111300000059,104.61523400000078,102.94873000000007,95.51269500000035,93.84619099999964,-168.20507799999996,108.9741210000002
247,-72.43579099999943,-30.0,102.56396500000028,88.46142599999985,103.7177729999994,102.05126999999993,97.69238299999961,108.20507799999996,102.05126999999993,101.53857400000015,96.15380900000036,94.87158199999976,-167.820557,112.56396500000028
248,-68.58984399999963,-27.051270000000386,103.58984400000008,90.12841800000024,100.0,99.61523400000078,95.51269500000035,104.48730499999965,100.76904300000024,100.12841800000024,94.23095699999976,94.74365200000011,-166.79492200000004,110.0
249,-66.41015600000037,-25.89746100000002,103.46142599999985,91.15380900000036,96.15380900000036,97.05126999999993,93.9741210000002,101.2822270000006,99.87158199999976,97.82031300000017,90.38476599999922,92.30761700000039,-165.76928699999962,105.51269500000035
250,-68.58984399999963,-28.71801800000003,101.0258789999998,89.74365200000011,92.94873000000007,94.48730499999965,92.05126999999993,99.61523400000078,98.20507799999996,94.48730499999965,85.64111300000059,87.05126999999993,-167.179443,105.89746099999957
251,-74.35888699999987,-34.35888699999987,96.6665039999998,86.15380900000036,91.41015599999992,92.69238299999961,90.12841800000024,99.61523400000078,95.76904300000024,90.64111300000059,81.15380900000036,79.87158199999976,-171.66674799999964,109.61523400000078
252,-79.8718259999996,-38.33325200000036,92.56396500000028,82.94873000000007,92.05126999999993,92.94873000000007,89.10253900000043,100.76904300000024,94.10253900000043,88.0771479999994,78.7177729999994,73.9741210000002,-177.0512700000004,111.0258789999998
253,-81.02563499999997,-37.564209000000574,91.41015599999992,81.9228520000006,94.48730499999965,95.64111300000059,89.87158199999976,102.17968800000017,94.35888699999941,88.20507799999996,78.9741210000002,72.30761700000039,-180.38452099999995,110.51269500000035
254,-78.20507799999996,-33.846190999999635,92.82031300000017,83.46142599999985,96.53857400000015,98.84619099999964,91.9228520000006,102.82031300000017,96.0258789999998,89.87158199999976,81.0258789999998,74.87158199999976,-180.5129390000002,112.05126999999993
255,-74.8718259999996,-31.666747999999643,94.35888699999941,86.0258789999998,96.79492200000004,100.25634799999989,93.58984400000008,101.9228520000006,97.30761700000039,90.76904300000024,82.17968800000017,78.0771479999994,-179.4870609999998,114.35888699999941
256,-73.97436500000003,-33.846190999999635,93.84619099999964,87.56396500000028,95.12841800000024,99.35888699999941,93.46142599999985,100.38476599999922,97.43603499999972,89.61523400000078,81.41015599999992,78.84619099999964,-178.97436500000003,112.30761700000039
257,-75.64111300000013,-39.10253899999998,91.9228520000006,87.69238299999961,92.43603499999972,97.17968800000017,92.17968800000017,100.12841800000024,96.9228520000006,87.30761700000039,79.61523400000078,77.30761700000039,-179.35888699999987,107.30761700000039
258,-77.43579099999943,-43.20507799999996,91.41015599999992,87.43603499999972,90.25634799999989,96.15380900000036,91.6665039999998,102.05126999999993,97.17968800000017,86.53857400000015,78.46142599999985,76.53857400000015,-178.97436500000003,106.6665039999998
259,-75.89746100000002,-42.435790999999426,93.84619099999964,88.7177729999994,90.64111300000059,98.0771479999994,93.20507799999996,105.12841800000024,99.23095699999976,89.61523400000078,79.87158199999976,79.35888699999941,-175.89746100000002,111.41015599999992
260,-69.8718259999996,-36.53857400000015,98.84619099999964,92.05126999999993,94.48730499999965,102.94873000000007,96.9228520000006,108.0771479999994,102.43603499999972,96.15380900000036,84.10253900000043,85.38476599999922,-169.35888699999987,114.35888699999941
261,-61.41015600000037,-28.58984399999963,103.58984400000008,96.15380900000036,100.38476599999922,108.58984400000008,100.89746099999957,109.35888699999941,105.12841800000024,102.82031300000017,89.61523400000078,91.9228520000006,-161.02563499999997,111.9228520000006
262,-54.74365200000011,-23.461425999999847,105.38476599999922,98.3334960000002,104.61523400000078,110.64111300000059,101.9228520000006,108.46142599999985,104.87158199999976,105.51269500000035,93.46142599999985,95.25634799999989,-154.61547900000005,109.23095699999976
263,-53.46142599999985,-23.58984399999963,103.0771479999994,97.30761700000039,104.23095699999976,107.05126999999993,98.58984400000008,105.25634799999989,100.89746099999957,102.82031300000017,93.58984400000008,93.84619099999964,-153.076904,110.0
264,-57.051270000000386,-27.564209000000574,97.82031300000017,94.23095699999976,100.0,100.51269500000035,92.30761700000039,101.79492200000004,95.38476599999922,96.79492200000004,90.64111300000059,89.48730499999965,-156.15380900000036,110.76904300000024
265,-61.66674799999964,-32.051270000000386,93.0771479999994,91.6665039999998,95.76904300000024,96.0258789999998,87.82031300000017,100.51269500000035,92.05126999999993,92.30761700000039,87.69238299999961,85.89746099999957,-160.38452099999995,108.3334960000002
266,-64.23071300000038,-35.0,91.79492200000004,91.0258789999998,95.0,96.79492200000004,88.58984400000008,102.82031300000017,92.94873000000007,92.56396500000028,86.6665039999998,85.51269500000035,-161.79492200000004,106.53857400000015
267,-64.10253899999998,-36.025634999999966,94.61523400000078,92.05126999999993,98.3334960000002,101.79492200000004,93.84619099999964,107.94873000000007,97.17968800000017,97.56396500000028,88.20507799999996,87.69238299999961,-158.58984399999963,108.84619099999964
268,-61.79492200000004,-35.64111300000013,99.74365200000011,93.84619099999964,104.23095699999976,107.69238299999961,100.38476599999922,113.3334960000002,101.79492200000004,104.10253900000043,91.0258789999998,90.51269500000035,-151.66674799999964,111.41015599999992
269,-58.46142599999985,-33.974365000000034,103.84619099999964,95.25634799999989,109.61523400000078,111.15380900000036,103.9741210000002,116.41015599999992,104.48730499999965,108.7177729999994,93.9741210000002,93.20507799999996,-144.23071300000038,109.48730499999965
270,-55.0,-31.794922000000042,105.12841800000024,95.76904300000024,111.41015599999992,110.12841800000024,103.58984400000008,115.76904300000024,103.84619099999964,109.61523400000078,95.89746099999957,95.25634799999989,-139.8718259999996,106.2822270000006
271,-52.435790999999426,-29.61547900000005,103.7177729999994,94.87158199999976,108.84619099999964,106.15380900000036,100.51269500000035,111.9228520000006,101.2822270000006,107.43603499999972,96.41015599999992,96.53857400000015,-140.5129390000002,107.69238299999961
272,-50.38452099999995,-27.435790999999426,101.79492200000004,93.7177729999994,105.25634799999989,102.30761700000039,98.0771479999994,107.94873000000007,98.9741210000002,105.51269500000035,96.79492200000004,96.6665039999998,-143.46142599999985,111.53857400000015
273,-47.564209000000574,-24.487060999999812,101.9228520000006,94.10253900000043,105.12841800000024,101.9228520000006,98.3334960000002,106.41015599999992,99.23095699999976,106.41015599999992,98.46142599999985,96.2822270000006,-143.97436500000003,110.64111300000059
274,-43.974365000000034,-20.38452099999995,105.0,97.05126999999993,109.61523400000078,104.35888699999941,100.38476599999922,108.46142599999985,102.43603499999972,110.64111300000059,101.53857400000015,96.53857400000015,-139.61547900000005,105.38476599999922
275,-40.25634799999989,-16.025634999999966,109.35888699999941,101.2822270000006,115.25634799999989,106.79492200000004,101.6665039999998,112.17968800000017,106.41015599999992,115.89746099999957,104.87158199999976,98.0771479999994,-131.66674799999964,102.69238299999961
276,-37.564209000000574,-12.435790999999426,112.56396500000028,104.48730499999965,117.69238299999961,107.69238299999961,100.51269500000035,115.76904300000024,108.58984400000008,119.35888699999941,107.30761700000039,100.76904300000024,-123.84619099999964,105.12841800000024
277,-36.28198199999997,-10.0,113.0771479999994,105.25634799999989,116.15380900000036,107.43603499999972,98.0771479999994,117.94873000000007,108.0771479999994,120.0,108.3334960000002,103.9741210000002,-119.23071300000038,107.56396500000028
278,-37.564209000000574,-9.358886999999868,110.89746099999957,103.3334960000002,112.82031300000017,107.17968800000017,96.0258789999998,118.46142599999985,105.89746099999957,118.0771479999994,107.30761700000039,105.89746099999957,-119.10253899999998,107.94873000000007
279,-41.28198199999997,-11.538574000000153,107.43603499999972,100.12841800000024,110.12841800000024,106.6665039999998,95.25634799999989,116.41015599999992,103.0771479999994,114.35888699999941,103.20507799999996,104.87158199999976,-123.71801800000003,109.87158199999976
280,-45.64111300000013,-15.256347999999889,103.9741210000002,97.56396500000028,109.35888699999941,105.38476599999922,95.25634799999989,112.43603499999972,101.15380900000036,110.12841800000024,97.05126999999993,100.89746099999957,-130.64111300000013,113.84619099999964
281,-47.17944299999999,-17.564209000000574,102.05126999999993,97.05126999999993,110.12841800000024,103.9741210000002,95.89746099999957,108.46142599999985,100.64111300000059,106.79492200000004,92.17968800000017,96.15380900000036,-135.76928699999962,113.9741210000002
282,-43.71801800000003,-16.025634999999966,103.20507799999996,98.46142599999985,111.0258789999998,103.7177729999994,96.9228520000006,106.53857400000015,101.0258789999998,105.64111300000059,91.2822270000006,93.46142599999985,-135.76928699999962,108.9741210000002
283,-37.948729999999614,-12.435790999999426,106.53857400000015,99.74365200000011,110.0,104.23095699999976,97.56396500000028,106.6665039999998,100.64111300000059,106.15380900000036,93.58984400000008,93.7177729999994,-132.0512700000004,105.76904300000024
284,-34.48706099999981,-10.641113000000132,109.23095699999976,98.84619099999964,106.2822270000006,104.10253900000043,96.53857400000015,107.17968800000017,98.0771479999994,106.15380900000036,96.15380900000036,95.12841800000024,-128.33325200000036,109.35888699999941
285,-35.64111300000013,-12.179442999999992,108.9741210000002,96.15380900000036,101.79492200000004,102.43603499999972,94.35888699999941,106.9228520000006,94.35888699999941,104.74365200000011,96.2822270000006,95.25634799999989,-127.30761700000039,114.35888699999941
286,-39.48706099999981,-15.641113000000132,105.76904300000024,93.84619099999964,99.23095699999976,99.61523400000078,92.05126999999993,105.76904300000024,92.05126999999993,102.17968800000017,94.23095699999976,93.7177729999994,-128.33325200000036,113.84619099999964
287,-42.69238299999961,-18.58984399999963,101.41015599999992,93.46142599999985,99.61523400000078,96.53857400000015,90.64111300000059,104.48730499999965,92.05126999999993,99.87158199999976,92.05126999999993,91.6665039999998,-129.7436520000001,110.12841800000024
288,-43.58984399999963,-20.1281740000004,97.69238299999961,94.35888699999941,100.64111300000059,94.10253900000043,90.25634799999989,103.7177729999994,93.46142599999985,98.58984400000008,91.53857400000015,90.51269500000035,-130.2563479999999,109.74365200000011
289,-42.30761700000039,-19.74365200000011,95.51269500000035,94.61523400000078,100.38476599999922,93.3334960000002,90.64111300000059,103.58984400000008,94.74365200000011,98.3334960000002,93.0771479999994,90.51269500000035,-129.61547900000005,111.79492200000004
290,-40.0,-17.179442999999992,95.25634799999989,94.10253900000043,99.61523400000078,95.25634799999989,91.41015599999992,104.23095699999976,95.38476599999922,99.61523400000078,95.76904300000024,91.0258789999998,-127.56420900000057,111.0258789999998
291,-37.948729999999614,-12.948729999999614,97.05126999999993,93.84619099999964,100.25634799999989,99.23095699999976,92.69238299999961,105.76904300000024,96.15380900000036,102.56396500000028,98.46142599999985,91.6665039999998,-124.35888699999987,108.46142599999985
292,-36.28198199999997,-8.846190999999635,100.12841800000024,95.12841800000024,103.84619099999964,103.7177729999994,94.23095699999976,108.20507799999996,97.94873000000007,106.9228520000006,101.0258789999998,92.82031300000017,-120.38452099999995,109.35888699999941
293,-34.35888699999987,-5.769286999999622,102.82031300000017,97.94873000000007,109.61523400000078,107.05126999999993,96.79492200000004,111.53857400000015,100.89746099999957,112.05126999999993,103.9741210000002,95.51269500000035,-115.89746100000002,112.69238299999961
294,-31.025634999999966,-3.5898440000000846,104.35888699999941,101.15380900000036,115.0,109.48730499999965,101.2822270000006,115.38476599999922,104.87158199999976,117.05126999999993,108.0771479999994,99.74365200000011,-111.15380900000036,111.9228520000006
295,-26.923095999999987,-1.9228520000006029,105.12841800000024,102.94873000000007,117.43603499999972,111.2822270000006,107.05126999999993,117.82031300000017,108.20507799999996,120.12841800000024,112.56396500000028,104.48730499999965,-107.30761700000039,107.17968800000017
296,-24.358886999999868,-1.4101559999999154,105.64111300000059,102.43603499999972,114.87158199999976,111.2822270000006,111.41015599999992,117.17968800000017,108.58984400000008,119.61523400000078,115.12841800000024,107.43603499999972,-106.41015600000037,105.12841800000024
297,-25.25634799999989,-2.3076170000003913,105.25634799999989,99.74365200000011,108.58984400000008,108.3334960000002,111.53857400000015,113.0771479999994,105.25634799999989,115.12841800000024,113.7177729999994,106.41015599999992,-109.23071300000038,107.82031300000017
298,-28.846190999999635,-4.743652000000111,103.46142599999985,96.6665039999998,102.43603499999972,103.20507799999996,107.30761700000039,107.94873000000007,100.51269500000035,108.58984400000008,108.84619099999964,101.15380900000036,-113.97436500000003,108.9741210000002
299,-31.923095999999987,-7.692382999999609,101.0258789999998,95.25634799999989,100.38476599999922,99.35888699999941,102.05126999999993,105.25634799999989,97.05126999999993,103.46142599999985,103.58984400000008,94.23095699999976,-117.17944299999999,105.89746099999957
300,-32.564209000000574,-10.512939000000188,99.74365200000011,95.64111300000059,102.69238299999961,99.35888699999941,99.23095699999976,106.79492200000004,96.2822270000006,102.05126999999993,100.76904300000024,88.9741210000002,-116.41015600000037,104.10253900000043
301,-30.89746100000002,-12.307617000000391,100.51269500000035,96.9228520000006,106.79492200000004,103.20507799999996,100.12841800000024,110.12841800000024,97.56396500000028,104.23095699999976,100.89746099999957,87.82031300000017,-112.05127000000039,107.30761700000039
302,-27.820557000000008,-11.794922000000042,102.05126999999993,98.3334960000002,109.87158199999976,108.46142599999985,103.58984400000008,111.9228520000006,99.10253900000043,107.69238299999961,102.94873000000007,90.64111300000059,-106.79492200000004,110.64111300000059
303,-24.61547900000005,-8.58984399999963,103.3334960000002,100.12841800000024,111.0258789999998,112.17968800000017,107.17968800000017,110.51269500000035,99.48730499999965,110.51269500000035,105.89746099999957,95.51269500000035,-103.46142599999985,109.48730499999965
304,-22.30761700000039,-4.358886999999868,103.7177729999994,102.17968800000017,110.51269500000035,112.17968800000017,108.7177729999994,107.17968800000017,97.94873000000007,111.2822270000006,107.94873000000007,99.87158199999976,-103.71801800000003,107.56396500000028
305,-21.794922000000042,-2.0512699999999313,103.0771479999994,103.58984400000008,108.46142599999985,108.46142599999985,107.05126999999993,103.9741210000002,95.0,110.0,108.20507799999996,101.6665039999998,-106.66674799999964,110.12841800000024
306,-22.30761700000039,-3.4614259999998467,102.05126999999993,103.46142599999985,105.89746099999957,103.3334960000002,102.94873000000007,102.30761700000039,92.17968800000017,107.30761700000039,106.41015599999992,100.51269500000035,-109.10253899999998,113.84619099999964
307,-22.820557000000008,-7.435790999999426,101.2822270000006,102.05126999999993,104.23095699999976,100.12841800000024,99.10253900000043,102.30761700000039,91.0258789999998,104.35888699999941,103.9741210000002,97.94873000000007,-109.10253899999998,113.0771479999994
308,-23.076904000000013,-11.666747999999643,100.64111300000059,100.0,104.10253900000043,99.74365200000011,97.43603499999972,102.69238299999961,91.53857400000015,101.41015599999992,101.9228520000006,95.89746099999957,-107.69238299999961,109.74365200000011
309,-23.974365000000034,-14.358886999999868,99.23095699999976,97.69238299999961,105.0,100.76904300000024,98.0771479999994,102.43603499999972,92.43603499999972,98.9741210000002,100.12841800000024,94.74365200000011,-107.82055700000001,110.0
310,-26.025634999999966,-14.8718259999996,96.79492200000004,95.51269500000035,105.89746099999957,101.6665039999998,99.61523400000078,101.9228520000006,92.56396500000028,97.94873000000007,98.58984400000008,93.84619099999964,-110.38452099999995,112.56396500000028
311,-27.69238299999961,-13.076904000000013,94.35888699999941,94.61523400000078,106.6665039999998,102.30761700000039,101.15380900000036,102.94873000000007,92.43603499999972,99.61523400000078,98.3334960000002,93.20507799999996,-113.33325200000036,111.41015599999992
312,-27.179442999999992,-9.487060999999812,93.3334960000002,95.64111300000059,106.9228520000006,103.46142599999985,102.43603499999972,105.76904300000024,93.20507799999996,103.84619099999964,99.61523400000078,93.58984400000008,-113.71801800000003,106.6665039999998
313,-24.487060999999812,-5.38452099999995,94.35888699999941,97.94873000000007,106.53857400000015,105.38476599999922,103.20507799999996,108.9741210000002,95.25634799999989,108.9741210000002,101.2822270000006,95.64111300000059,-111.02563499999997,104.87158199999976
314,-21.025634999999966,-2.1796869999998307,96.6665039999998,100.38476599999922,105.51269500000035,107.43603499999972,103.3334960000002,110.76904300000024,97.94873000000007,112.69238299999961,102.17968800000017,98.84619099999964,-106.79492200000004,107.43603499999972
315,-18.205077999999958,0.256347999999889,99.61523400000078,101.9228520000006,105.38476599999922,109.35888699999941,102.82031300000017,110.38476599999922,100.12841800000024,113.58984400000008,101.9228520000006,102.05126999999993,-103.33325200000036,108.58984400000008
316,-16.794922000000042,1.9228520000006029,102.43603499999972,102.43603499999972,106.9228520000006,110.25634799999989,101.53857400000015,108.7177729999994,100.25634799999989,111.79492200000004,101.15380900000036,103.58984400000008,-102.30761700000039,106.6665039999998
317,-16.923095999999987,2.0512699999999313,104.48730499999965,101.79492200000004,108.84619099999964,109.74365200000011,99.74365200000011,107.17968800000017,97.69238299999961,108.3334960000002,100.25634799999989,102.82031300000017,-104.23071300000038,106.6665039999998
318,-17.69238299999961,0.512695000000349,105.0,100.76904300000024,109.61523400000078,108.3334960000002,97.94873000000007,106.53857400000015,93.7177729999994,105.0,99.23095699999976,100.25634799999989,-107.82055700000001,110.38476599999922
319,-17.179442999999992,-1.153809000000365,104.87158199999976,100.25634799999989,108.9741210000002,107.94873000000007,98.3334960000002,107.30761700000039,91.2822270000006,103.9741210000002,98.7177729999994,98.20507799999996,-109.74365200000011,112.56396500000028
320,-14.230713000000378,-1.153809000000365,105.12841800000024,100.76904300000024,107.94873000000007,110.38476599999922,102.05126999999993,109.48730499999965,92.94873000000007,106.15380900000036,99.48730499999965,98.58984400000008,-107.69238299999961,110.0
321,-11.153809000000365,0.256347999999889,105.64111300000059,101.53857400000015,107.43603499999972,114.23095699999976,107.94873000000007,111.79492200000004,97.82031300000017,110.38476599999922,101.15380900000036,101.2822270000006,-102.69238299999961,107.56396500000028
322,-10.897461000000021,1.6665039999998044,105.89746099999957,102.17968800000017,107.17968800000017,116.6665039999998,112.17968800000017,113.46142599999985,102.56396500000028,113.84619099999964,102.94873000000007,104.23095699999976,-98.46142599999985,109.74365200000011
323,-13.205077999999958,2.3076170000003913,105.51269500000035,102.69238299999961,107.82031300000017,116.15380900000036,111.79492200000004,113.58984400000008,103.9741210000002,114.74365200000011,104.10253900000043,106.0258789999998,-97.43579099999943,112.17968800000017
324,-14.8718259999996,2.9487300000000687,105.64111300000059,103.7177729999994,109.48730499999965,113.84619099999964,107.30761700000039,112.69238299999961,102.05126999999993,113.46142599999985,104.61523400000078,106.53857400000015,-99.10253899999998,109.61523400000078
325,-13.205077999999958,3.9741210000001956,106.9228520000006,105.0,111.0258789999998,111.15380900000036,101.41015599999992,110.89746099999957,98.84619099999964,110.76904300000024,104.23095699999976,106.53857400000015,-101.53857400000015,105.76904300000024
326,-8.846190999999635,5.0,108.3334960000002,105.51269500000035,110.64111300000059,109.10253900000043,97.30761700000039,108.84619099999964,96.53857400000015,107.94873000000007,103.3334960000002,106.9228520000006,-103.07690400000001,107.17968800000017
327,-4.358886999999868,5.256347999999889,108.46142599999985,104.61523400000078,107.94873000000007,107.82031300000017,96.53857400000015,107.30761700000039,95.76904300000024,106.41015599999992,103.3334960000002,107.69238299999961,-102.17944299999999,112.05126999999993
328,-2.1796869999998307,5.512695000000349,107.43603499999972,103.0771479999994,104.74365200000011,107.56396500000028,98.58984400000008,107.30761700000039,96.9228520000006,107.05126999999993,105.25634799999989,108.84619099999964,-97.82055700000001,113.84619099999964
329,-2.4360349999997197,6.282227000000603,106.6665039999998,102.17968800000017,103.0771479999994,108.3334960000002,101.41015599999992,108.9741210000002,99.35888699999941,109.74365200000011,108.20507799999996,110.12841800000024,-90.64111300000013,112.17968800000017
330,-4.358886999999868,7.948730000000069,107.05126999999993,102.43603499999972,103.7177729999994,109.10253900000043,102.82031300000017,110.89746099999957,101.79492200000004,112.56396500000028,110.51269500000035,111.0258789999998,-83.46142599999985,112.43603499999972
331,-5.256347999999889,10.384765999999217,108.3334960000002,103.9741210000002,106.53857400000015,109.74365200000011,102.17968800000017,111.9228520000006,102.94873000000007,113.84619099999964,111.0258789999998,111.2822270000006,-79.35888699999987,114.23095699999976
332,-3.3334960000001956,13.333496000000196,109.74365200000011,105.89746099999957,110.64111300000059,111.0258789999998,100.89746099999957,111.6665039999998,103.20507799999996,113.0771479999994,110.51269500000035,111.6665039999998,-79.35888699999987,112.30761700000039
333,0.769043000000238,15.641113000000587,110.12841800000024,106.6665039999998,113.7177729999994,112.94873000000007,99.74365200000011,111.2822270000006,103.9741210000002,111.41015599999992,109.87158199999976,112.30761700000039,-81.79492200000004,107.05126999999993
334,3.3334960000001956,15.256347999999889,108.9741210000002,104.61523400000078,113.46142599999985,113.7177729999994,98.58984400000008,111.6665039999998,105.25634799999989,110.38476599999922,109.48730499999965,112.94873000000007,-84.74365200000011,105.38476599999922
335,1.4101559999999154,11.538574000000153,106.2822270000006,99.87158199999976,109.23095699999976,111.6665039999998,96.53857400000015,112.82031300000017,106.0258789999998,110.51269500000035,108.46142599999985,112.43603499999972,-86.79492200000004,109.35888699999941
336,-3.717772999999397,6.922852000000603,103.0771479999994,95.12841800000024,103.46142599999985,107.30761700000039,94.48730499999965,114.23095699999976,105.51269500000035,111.41015599999992,107.17968800000017,110.89746099999957,-86.79492200000004,112.17968800000017
337,-8.076904000000013,4.6152340000007825,101.79492200000004,93.46142599999985,99.87158199999976,103.20507799999996,93.58984400000008,115.25634799999989,103.9741210000002,112.56396500000028,106.0258789999998,109.74365200000011,-84.61547900000005,110.25634799999989
338,-8.974365000000034,6.153809000000365,103.58984400000008,95.25634799999989,100.0,101.0258789999998,94.74365200000011,115.25634799999989,102.30761700000039,113.0771479999994,105.38476599999922,110.0,-81.02563499999997,108.46142599999985
339,-6.025634999999966,9.487304999999651,106.9228520000006,98.9741210000002,103.20507799999996,101.15380900000036,97.05126999999993,113.58984400000008,100.89746099999957,113.46142599999985,105.25634799999989,111.79492200000004,-77.05127000000039,110.51269500000035
340,-1.4101559999999154,12.692382999999609,109.10253900000043,102.05126999999993,107.30761700000039,102.56396500000028,99.35888699999941,110.89746099999957,100.51269500000035,113.9741210000002,105.76904300000024,113.9741210000002,-72.94872999999961,112.17968800000017
341,2.5639650000002803,14.358886999999413,108.84619099999964,103.58984400000008,110.76904300000024,104.61523400000078,100.64111300000059,108.7177729999994,101.2822270000006,115.12841800000024,106.79492200000004,115.76904300000024,-68.71801800000003,108.7177729999994
342,3.5898440000000846,14.487304999999651,106.9228520000006,103.3334960000002,112.30761700000039,105.76904300000024,100.12841800000024,108.20507799999996,102.43603499999972,115.89746099999957,107.17968800000017,116.53857400000015,-65.89746100000002,104.23095699999976
343,0.8974609999995664,13.205077999999958,104.87158199999976,101.9228520000006,111.2822270000006,104.74365200000011,98.0771479999994,108.20507799999996,101.9228520000006,115.25634799999989,105.89746099999957,115.38476599999922,-66.28198199999997,104.87158199999976
344,-3.9741210000001956,11.666503999999804,103.58984400000008,100.25634799999989,108.84619099999964,101.6665039999998,95.51269500000035,107.56396500000028,99.61523400000078,112.82031300000017,103.0771479999994,112.43603499999972,-70.25634799999989,108.46142599999985
345,-7.564209000000574,11.666503999999804,103.46142599999985,100.12841800000024,106.41015599999992,98.58984400000008,93.7177729999994,106.0258789999998,96.79492200000004,110.0,100.25634799999989,108.9741210000002,-75.51293900000019,108.9741210000002
346,-8.205077999999958,13.846190999999635,104.10253900000043,101.6665039999998,104.61523400000078,96.9228520000006,92.94873000000007,104.23095699999976,95.51269500000035,108.46142599999985,98.58984400000008,106.9228520000006,-79.48706099999981,107.30761700000039
347,-6.794922000000042,16.282227000000603,104.23095699999976,103.58984400000008,103.20507799999996,96.79492200000004,92.94873000000007,103.46142599999985,96.53857400000015,108.7177729999994,97.30761700000039,107.30761700000039,-81.15380900000036,108.3334960000002
348,-5.256347999999889,17.17968800000017,103.58984400000008,103.84619099999964,102.82031300000017,97.94873000000007,94.10253900000043,104.23095699999976,99.61523400000078,110.51269500000035,95.64111300000059,108.9741210000002,-80.64111300000013,111.2822270000006
349,-4.743652000000111,16.666503999999804,102.30761700000039,102.30761700000039,104.61523400000078,100.89746099999957,97.17968800000017,106.9228520000006,103.20507799999996,113.3334960000002,94.35888699999941,110.0,-78.07690400000001,110.64111300000059
350,-5.38452099999995,15.897460999999566,101.79492200000004,100.38476599999922,108.84619099999964,105.38476599999922,101.9228520000006,110.89746099999957,105.51269500000035,116.2822270000006,94.87158199999976,109.74365200000011,-73.58984399999963,106.53857400000015
351,-6.41015600000037,15.897460999999566,102.43603499999972,99.23095699999976,113.7177729999994,110.12841800000024,107.05126999999993,114.35888699999941,105.76904300000024,118.3334960000002,97.43603499999972,108.58984400000008,-68.46142599999985,105.64111300000059
352,-6.538574000000153,16.282227000000603,103.84619099999964,99.35888699999941,116.79492200000004,113.3334960000002,110.12841800000024,115.64111300000059,105.12841800000024,118.58984400000008,100.25634799999989,108.0771479999994,-64.35888699999987,109.10253900000043
353,-4.358886999999868,17.17968800000017,105.38476599999922,100.64111300000059,117.17968800000017,114.10253900000043,110.64111300000059,114.35888699999941,105.51269500000035,117.30761700000039,102.05126999999993,109.48730499999965,-61.53857400000015,111.0258789999998
354,-0.6411130000005869,18.717772999999397,106.9228520000006,102.82031300000017,116.2822270000006,113.46142599999985,109.48730499999965,112.56396500000028,107.30761700000039,115.89746099999957,102.56396500000028,112.69238299999961,-59.10253899999998,108.7177729999994
355,2.6923829999996087,19.615234000000783,108.3334960000002,104.87158199999976,115.38476599999922,112.05126999999993,108.3334960000002,112.05126999999993,108.7177729999994,114.87158199999976,102.69238299999961,116.15380900000036,-57.051270000000386,107.17968800000017
356,4.487304999999651,18.717772999999397,109.35888699999941,105.64111300000059,114.48730499999965,110.51269500000035,108.0771479999994,113.46142599999985,108.46142599999985,115.0,103.3334960000002,118.84619099999964,-55.25634799999989,110.0
357,6.153809000000365,16.153809000000365,109.87158199999976,104.35888699999941,112.94873000000007,109.23095699999976,107.94873000000007,116.53857400000015,107.17968800000017,116.41015599999992,104.48730499999965,120.38476599999922,-53.58984399999963,112.43603499999972
358,8.333496000000196,13.333496000000196,110.25634799999989,101.9228520000006,110.25634799999989,108.0771479999994,107.30761700000039,119.48730499999965,106.53857400000015,118.58984400000008,105.0,121.41015599999992,-51.92309599999999,110.51269500000035
359,8.974121000000196,11.410155999999915,110.51269500000035,99.48730499999965,106.41015599999992,106.0258789999998,105.12841800000024,120.64111300000059,107.05126999999993,119.87158199999976,103.7177729999994,121.6665039999998,-51.66674799999964,108.20507799999996
360,6.153809000000365,10.512695000000349,109.87158199999976,97.94873000000007,102.82031300000017,102.82031300000017,101.6665039999998,118.58984400000008,108.0771479999994,118.3334960000002,100.38476599999922,120.25634799999989,-54.10253899999998,110.0
361,3.4614259999998467,10.897460999999566,108.9741210000002,98.20507799999996,101.53857400000015,100.0,98.46142599999985,114.74365200000011,108.7177729999994,114.23095699999976,96.79492200000004,118.20507799999996,-57.69238299999961,112.30761700000039
362,9.358886999999413,13.717772999999397,109.61523400000078,100.64111300000059,104.10253900000043,99.35888699999941,97.17968800000017,112.17968800000017,108.0771479999994,110.76904300000024,96.2822270000006,118.3334960000002,-58.58984399999963,110.0
363,28.974121000000196,19.230956999999762,113.58984400000008,104.74365200000011,108.7177729999994,100.64111300000059,97.82031300000017,112.94873000000007,106.15380900000036,110.25634799999989,100.64111300000059,123.58984400000008,-53.71801800000003,106.2822270000006
364,58.333496000000196,27.30761700000039,119.87158199999976,109.61523400000078,111.79492200000004,101.6665039999998,98.0771479999994,115.76904300000024,103.84619099999964,113.0771479999994,108.3334960000002,133.20507799999996,-44.35888699999987,107.30761700000039
365,85.51269500000035,37.05126999999993,125.64111300000059,114.35888699999941,112.17968800000017,101.15380900000036,96.53857400000015,117.69238299999961,102.94873000000007,116.79492200000004,116.0258789999998,142.6923829999996,-34.48706099999981,111.15380900000036
366,97.05126999999993,46.9228520000006,127.56396500000028,117.94873000000007,111.79492200000004,100.25634799999989,94.10253900000043,116.9228520000006,104.23095699999976,118.84619099999964,120.25634799999989,147.05126999999993,-28.205077999999958,111.2822270000006
367,87.94873000000007,53.589844000000085,124.74365200000011,119.10253900000043,113.0771479999994,100.76904300000024,93.20507799999996,114.48730499999965,106.79492200000004,118.7177729999994,119.23095699999976,143.7177729999994,-27.051270000000386,108.0771479999994
368,67.17968800000017,53.7177729999994,118.58984400000008,117.05126999999993,115.64111300000059,102.82031300000017,94.61523400000078,112.30761700000039,108.0771479999994,117.17968800000017,114.10253900000043,135.0,-29.358886999999868,108.0771479999994
369,55.25634799999989,46.79492200000004,112.43603499999972,113.0771479999994,117.17968800000017,105.0,97.05126999999993,111.53857400000015,107.17968800000017,115.76904300000024,107.82031300000017,126.53857400000015,-31.538574000000153,112.17968800000017
370,70.64111300000059,37.43603499999972,110.12841800000024,110.64111300000059,116.15380900000036,105.89746099999957,98.58984400000008,112.69238299999961,105.25634799999989,114.87158199999976,104.23095699999976,123.9741210000002,-30.89746100000002,114.35888699999941
371,114.87158199999976,31.153809000000365,112.56396500000028,112.05126999999993,112.69238299999961,105.76904300000024,98.9741210000002,114.87158199999976,105.0,114.35888699999941,105.12841800000024,129.23095699999976,-27.051270000000386,112.56396500000028
372,171.9228520000006,30.384765999999217,117.43603499999972,116.41015599999992,108.9741210000002,105.25634799999989,99.23095699999976,117.30761700000039,107.30761700000039,114.48730499999965,109.35888699999941,138.7177729999994,-21.538574000000153,111.9228520000006
373,220.12841800000024,32.69238299999961,120.12841800000024,121.15380900000036,107.30761700000039,105.51269500000035,100.51269500000035,119.10253900000043,110.51269500000035,115.38476599999922,113.9741210000002,146.2822270000006,-16.153809000000365,114.87158199999976
374,247.82031300000017,34.87158199999976,117.94873000000007,123.84619099999964,108.84619099999964,107.05126999999993,102.56396500000028,119.48730499999965,111.9228520000006,116.9228520000006,115.25634799999989,147.17968800000017,-11.666747999999643,115.76904300000024
375,258.84619099999964,35.897460999999566,112.05126999999993,124.35888699999941,111.53857400000015,108.7177729999994,103.7177729999994,117.94873000000007,109.35888699999941,116.41015599999992,111.15380900000036,141.0258789999998,-8.71801800000003,111.9228520000006
376,268.46142599999985,37.17968800000017,106.53857400000015,123.3334960000002,111.41015599999992,108.20507799999996,101.53857400000015,113.58984400000008,103.0771479999994,110.89746099999957,102.82031300000017,132.43603499999972,-7.692382999999609,108.9741210000002
377,292.05126999999993,40.897460999999566,104.74365200000011,122.30761700000039,106.15380900000036,104.61523400000078,96.53857400000015,107.82031300000017,95.76904300000024,100.12841800000024,94.48730499999965,127.30761700000039,-7.051270000000386,112.05126999999993
378,335.0,47.69238299999961,107.30761700000039,122.69238299999961,99.10253900000043,100.12841800000024,92.17968800000017,103.58984400000008,91.79492200000004,89.23095699999976,92.05126999999993,129.61523400000078,-3.3334960000001956,116.41015599999992
379,387.6923829999996,56.025878999999804,112.30761700000039,124.87158199999976,95.76904300000024,98.9741210000002,92.69238299999961,103.9741210000002,94.10253900000043,85.76904300000024,97.94873000000007,138.58984400000008,7.307617000000391,115.38476599999922
380,431.4101559999999,62.94873000000007,116.53857400000015,127.69238299999961,99.48730499999965,102.69238299999961,98.7177729999994,108.46142599999985,101.2822270000006,93.0771479999994,108.46142599999985,148.58984400000008,24.358886999999413,111.6665039999998
381,450.76904300000024,67.05126999999993,117.05126999999993,129.3588869999994,108.0771479999994,109.23095699999976,106.6665039999998,113.7177729999994,108.58984400000008,107.17968800000017,115.25634799999989,152.56396500000028,42.30761700000039,111.79492200000004
382,444.6152340000008,70.64111300000059,112.82031300000017,129.87158199999976,116.41015599999992,114.35888699999941,111.53857400000015,115.64111300000059,111.15380900000036,118.84619099999964,112.43603499999972,146.9228520000006,55.51269500000035,115.12841800000024
383,429.6152340000008,78.0771479999994,106.15380900000036,130.6411130000006,120.51269500000035,115.51269500000035,110.51269500000035,112.69238299999961,107.94873000000007,120.12841800000024,101.15380900000036,135.0,64.23095699999976,115.76904300000024
