,EEG.AF3,EEG.F7,EEG.F3,EEG.FC5,EEG.T7,EEG.P7,EEG.O1,EEG.O2,EEG.P8,EEG.T8,EEG.FC6,EEG.F4,EEG.F8,EEG.AF4
0,228.0771479999994,-40.1281740000004,107.43603499999972,122.43603499999972,122.17968800000017,111.15380900000036,112.30761700000039,116.6665039999998,111.15380900000036,114.74365200000011,101.6665039999998,130.89746099999957,-23.333252000000357,111.15380900000036
1,228.3334960000002,-49.61547900000005,106.9228520000006,118.84619099999964,121.9228520000006,110.89746099999957,108.20507799999996,113.7177729999994,109.74365200000011,111.2822270000006,98.20507799999996,125.51269500000035,-7.820557000000008,114.87158199999976
2,266.15380900000036,-51.53857400000015,109.87158199999976,120.38476599999922,122.05126999999993,110.25634799999989,105.12841800000024,110.25634799999989,108.46142599999985,108.9741210000002,100.76904300000024,128.46142599999985,18.461425999999847,115.51269500000035
3,336.9228520000006,-42.564209000000574,115.25634799999989,127.82031300000017,121.9228520000006,108.46142599999985,104.48730499999965,107.94873000000007,107.43603499999972,108.0771479999994,108.7177729999994,141.0258789999998,59.61523400000078,113.20507799999996
4,406.4101559999999,-27.179442999999992,119.74365200000011,137.05126999999993,120.12841800000024,105.89746099999957,105.64111300000059,107.43603499999972,106.9228520000006,108.84619099999964,118.58984400000008,156.0258789999998,112.17968800000017,113.46142599999985
5,436.15380900000036,-12.564209000000574,119.87158199999976,142.82031300000017,116.53857400000015,103.9741210000002,106.6665039999998,108.3334960000002,107.56396500000028,111.41015599999992,126.53857400000015,163.7177729999994,168.0771479999994,115.64111300000059
6,417.4360349999997,-2.9487300000000687,115.76904300000024,143.58984400000008,113.20507799999996,104.35888699999941,106.9228520000006,109.74365200000011,109.48730499999965,115.25634799999989,130.6411130000006,161.0258789999998,220.38476599999922,114.87158199999976
7,377.94873000000007,3.3334960000001956,111.41015599999992,142.43603499999972,111.9228520000006,106.9228520000006,106.15380900000036,110.25634799999989,111.0258789999998,118.58984400000008,130.51269500000035,154.10253900000043,266.6665039999998,111.2822270000006
8,354.48730499999965,10.512695000000349,110.25634799999989,142.6923829999996,112.30761700000039,109.23095699999976,104.61523400000078,108.3334960000002,110.12841800000024,118.58984400000008,126.79492200000004,150.89746099999957,309.6152340000008,110.51269500000035
9,364.23095699999976,22.30761700000039,112.05126999999993,145.2563479999999,112.56396500000028,108.9741210000002,102.43603499999972,103.7177729999994,106.15380900000036,113.9741210000002,120.89746099999957,154.3588869999994,354.7436520000001,113.58984400000008
10,398.7177729999994,40.38476599999922,114.35888699999941,148.84619099999964,112.05126999999993,106.0258789999998,100.12841800000024,97.94873000000007,100.76904300000024,106.6665039999998,116.53857400000015,162.17968800000017,409.10253900000043,114.48730499999965
11,436.53857400000015,64.10253900000043,115.89746099999957,152.3076170000004,111.53857400000015,102.69238299999961,98.9741210000002,93.84619099999964,96.41015599999992,101.15380900000036,116.9228520000006,169.61523400000078,477.3076170000004,111.15380900000036
12,459.6152340000008,92.05126999999993,117.05126999999993,154.87158199999976,111.6665039999998,101.41015599999992,99.48730499999965,93.0771479999994,94.23095699999976,100.12841800000024,122.43603499999972,173.3334960000002,558.0771479999994,109.35888699999941
13,463.20507799999996,123.0771479999994,118.3334960000002,156.53857400000015,111.79492200000004,102.69238299999961,101.41015599999992,95.12841800000024,93.7177729999994,102.94873000000007,130.0,173.3334960000002,645.3847659999992,112.56396500000028
14,456.79492200000004,156.53857400000015,119.48730499999965,158.7177729999994,111.6665039999998,105.51269500000035,103.84619099999964,98.46142599999985,94.10253900000043,106.6665039999998,136.6665039999998,172.56396500000028,733.205078,115.25634799999989
15,455.76904300000024,190.76904300000024,120.76904300000024,163.0771479999994,111.2822270000006,107.69238299999961,105.38476599999922,100.76904300000024,94.35888699999941,108.7177729999994,142.05126999999993,173.7177729999994,819.2309569999998,112.94873000000007
16,467.5639650000003,221.9228520000006,122.43603499999972,169.61523400000078,110.89746099999957,106.9228520000006,104.35888699999941,100.76904300000024,93.84619099999964,108.3334960000002,148.0771479999994,177.56396500000028,904.3588869999994,109.23095699999976
17,484.48730499999965,245.38476599999922,123.7177729999994,175.0,110.25634799999989,103.0771479999994,100.0,98.20507799999996,92.56396500000028,106.53857400000015,157.05126999999993,181.2822270000006,988.7177729999994,109.23095699999976
18,491.6665039999998,260.76904300000024,123.0771479999994,175.89746099999957,109.61523400000078,99.35888699999941,94.23095699999976,95.25634799999989,91.6665039999998,105.76904300000024,169.23095699999976,181.15380900000036,1070.1284180000002,110.51269500000035
19,482.17968800000017,272.17968800000017,120.12841800000024,172.56396500000028,108.9741210000002,98.46142599999985,90.51269500000035,94.48730499999965,92.17968800000017,107.17968800000017,182.6923829999996,175.76904300000024,1145.1284180000002,108.58984400000008
20,467.82031300000017,286.6665039999998,116.2822270000006,169.10253900000043,108.46142599999985,100.51269500000035,90.64111300000059,96.2822270000006,93.7177729999994,109.35888699999941,194.10253900000043,168.3334960000002,1212.05127,106.41015599999992
21,472.3076170000004,310.51269500000035,114.74365200000011,170.12841800000024,108.46142599999985,102.30761700000039,93.9741210000002,98.9741210000002,94.23095699999976,110.12841800000024,202.17968800000017,165.2563479999999,1273.589844,109.23095699999976
22,508.7177729999994,346.0258789999998,118.0771479999994,177.6923829999996,110.0,102.17968800000017,98.20507799999996,100.51269500000035,92.94873000000007,109.35888699999941,209.23095699999976,171.41015599999992,1335.0,114.10253900000043
23,563.4614259999998,388.46142599999985,125.38476599999922,189.23095699999976,113.3334960000002,101.0258789999998,101.15380900000036,101.15380900000036,91.53857400000015,109.74365200000011,218.7177729999994,185.2563479999999,1397.4360349999997,113.84619099999964
24,603.9741210000002,426.53857400000015,132.56396500000028,198.58984400000008,116.6665039999998,100.76904300000024,101.79492200000004,102.82031300000017,91.9228520000006,113.58984400000008,230.38476599999922,198.46142599999985,1452.5639650000003,109.35888699999941
25,606.0258789999998,448.20507799999996,134.87158199999976,201.0258789999998,117.05126999999993,102.30761700000039,100.89746099999957,105.64111300000059,93.9741210000002,119.74365200000011,238.9741210000002,202.6923829999996,1487.05127,107.69238299999961
26,575.2563479999999,451.2822270000006,131.0258789999998,196.53857400000015,114.23095699999976,104.87158199999976,100.25634799999989,108.46142599999985,95.51269500000035,124.35888699999941,239.48730499999965,195.89746099999957,1496.410156,110.64111300000059
27,539.7436520000001,445.51269500000035,124.35888699999941,190.38476599999922,111.15380900000036,107.56396500000028,101.6665039999998,109.87158199999976,95.0,124.48730499999965,232.3076170000004,183.9741210000002,1491.6665039999998,111.9228520000006
28,525.0,446.2822270000006,119.35888699999941,188.20507799999996,111.0258789999998,109.48730499999965,104.74365200000011,109.35888699999941,92.82031300000017,119.87158199999976,224.10253900000043,174.87158199999976,1492.1796880000002,109.23095699999976
29,536.794922,463.20507799999996,118.7177729999994,192.17968800000017,113.7177729999994,108.9741210000002,106.9228520000006,107.17968800000017,89.61523400000078,113.3334960000002,221.41015599999992,173.0771479999994,1510.5126950000003,108.0771479999994
30,562.8203130000002,494.3588869999994,121.2822270000006,200.12841800000024,116.79492200000004,105.76904300000024,106.41015599999992,103.7177729999994,86.41015599999992,107.56396500000028,225.76904300000024,176.9228520000006,1543.7177729999994,111.15380900000036
31,584.1025390000004,529.2309569999998,124.48730499999965,207.43603499999972,117.43603499999972,101.53857400000015,103.46142599999985,100.12841800000024,83.7177729999994,104.10253900000043,233.20507799999996,180.51269500000035,1578.589844,113.20507799999996
32,588.4614259999998,555.8974609999996,125.51269500000035,210.6411130000006,114.74365200000011,98.9741210000002,100.12841800000024,98.0771479999994,82.69238299999961,102.56396500000028,238.46142599999985,179.87158199999976,1604.1025390000004,111.15380900000036
33,578.5898440000001,568.205078,123.46142599999985,209.10253900000043,110.0,98.9741210000002,98.3334960000002,98.20507799999996,83.46142599999985,101.79492200000004,239.3588869999994,175.6411130000006,1621.9228520000006,109.48730499999965
34,566.6665039999998,569.7436520000001,119.87158199999976,205.12841800000024,106.0258789999998,99.87158199999976,98.46142599999985,100.38476599999922,85.12841800000024,101.41015599999992,238.3334960000002,172.17968800000017,1643.3334960000002,111.79492200000004
35,559.4873049999997,569.7436520000001,116.53857400000015,201.79492200000004,105.12841800000024,100.38476599999922,99.61523400000078,103.0771479999994,86.41015599999992,101.2822270000006,238.46142599999985,171.2822270000006,1677.1796880000002,113.46142599999985
36,551.5385740000002,576.1538090000004,113.9741210000002,200.38476599999922,107.17968800000017,100.12841800000024,100.51269500000035,104.61523400000078,87.05126999999993,101.0258789999998,238.58984400000008,170.0,1720.3847659999992,110.12841800000024
37,535.8974609999996,590.2563479999999,111.79492200000004,199.7436520000001,108.7177729999994,99.10253900000043,99.87158199999976,103.0771479999994,86.9228520000006,98.9741210000002,235.2563479999999,163.9741210000002,1762.05127,106.15380900000036
38,520.5126950000003,607.9487300000001,109.61523400000078,199.48730499999965,106.2822270000006,96.79492200000004,97.30761700000039,98.58984400000008,85.64111300000059,94.35888699999941,226.79492200000004,153.58984400000008,1797.4360349999997,108.20507799999996
39,523.4614259999998,624.2309569999998,108.58984400000008,200.89746099999957,100.51269500000035,94.35888699999941,94.10253900000043,93.58984400000008,83.46142599999985,88.9741210000002,218.3334960000002,145.6411130000006,1835.8974609999996,113.46142599999985
40,550.1284180000002,637.6923829999996,110.12841800000024,204.61523400000078,96.53857400000015,93.84619099999964,92.56396500000028,91.2822270000006,82.05126999999993,86.15380900000036,216.6665039999998,146.79492200000004,1891.2822270000006,114.48730499999965
41,582.3076170000004,649.7436520000001,113.3334960000002,208.46142599999985,97.43603499999972,96.2822270000006,93.46142599999985,92.94873000000007,82.56396500000028,88.0771479999994,223.20507799999996,155.89746099999957,1966.0258789999998,111.15380900000036
42,594.8715819999998,663.7177729999994,115.64111300000059,208.7177729999994,101.15380900000036,99.23095699999976,95.64111300000059,96.41015599999992,84.48730499999965,92.94873000000007,231.9228520000006,164.61523400000078,2044.743652,109.35888699999941
43,581.794922,683.3334960000002,114.74365200000011,204.48730499999965,103.20507799999996,99.35888699999941,97.05126999999993,98.46142599999985,86.15380900000036,96.41015599999992,235.6411130000006,164.48730499999965,2107.179688,110.38476599999922
44,562.4360349999997,711.5385740000002,111.79492200000004,199.23095699999976,101.2822270000006,96.41015599999992,96.79492200000004,97.69238299999961,86.6665039999998,95.51269500000035,232.17968800000017,155.51269500000035,2146.538574,109.87158199999976
45,560.7690430000002,746.6665039999998,109.74365200000011,197.82031300000017,96.9228520000006,92.56396500000028,95.38476599999922,95.51269500000035,85.89746099999957,91.0258789999998,225.0,145.12841800000024,2175.0,107.43603499999972
46,580.6411130000006,782.3076170000004,109.74365200000011,201.2822270000006,93.46142599999985,90.76904300000024,94.10253900000043,93.9741210000002,84.35888699999941,85.38476599999922,219.10253900000043,140.2563479999999,2211.538574,108.7177729999994
47,603.4614259999998,810.1284180000002,110.38476599999922,206.2822270000006,92.82031300000017,91.53857400000015,93.7177729999994,93.84619099999964,82.43603499999972,81.15380900000036,216.53857400000015,141.53857400000015,2264.615234000001,113.3334960000002
48,609.1025390000004,827.1796880000002,109.35888699999941,209.10253900000043,95.0,93.46142599999985,93.58984400000008,94.61523400000078,80.38476599999922,79.48730499999965,216.9228520000006,143.58984400000008,2327.05127,114.74365200000011
49,598.4614259999998,839.8715819999998,107.05126999999993,208.46142599999985,97.69238299999961,93.9741210000002,92.17968800000017,94.87158199999976,78.7177729999994,79.74365200000011,218.20507799999996,143.20507799999996,2383.205078,110.25634799999989
50,591.4101559999999,859.7436520000001,105.51269500000035,206.2822270000006,97.56396500000028,91.15380900000036,88.20507799999996,93.3334960000002,77.43603499999972,80.38476599999922,219.10253900000043,141.0258789999998,2423.589844,106.79492200000004
51,606.0258789999998,895.1284180000002,105.38476599999922,205.0,93.7177729999994,85.0,82.17968800000017,90.25634799999989,76.6665039999998,79.87158199999976,218.84619099999964,139.48730499999965,2450.8974609999996,108.9741210000002
52,640.6411130000006,944.8715819999998,105.89746099999957,206.15380900000036,88.46142599999985,78.58984400000008,76.53857400000015,87.30761700000039,75.64111300000059,77.17968800000017,217.17968800000017,138.9741210000002,2475.5126950000003,112.17968800000017
53,676.794922,998.4614259999998,105.89746099999957,209.3588869999994,85.51269500000035,75.25634799999989,74.48730499999965,85.25634799999989,74.10253900000043,72.43603499999972,214.10253900000043,137.56396500000028,2505.7690430000002,111.15380900000036
54,696.6665039999998,1042.6923829999996,105.25634799999989,213.0771479999994,86.15380900000036,75.76904300000024,76.2822270000006,83.9741210000002,70.76904300000024,66.6665039999998,209.48730499999965,133.58984400000008,2542.179688,109.23095699999976
55,697.8203130000002,1070.6411130000006,104.23095699999976,215.76904300000024,88.20507799999996,78.3334960000002,79.61523400000078,82.94873000000007,65.25634799999989,62.30761700000039,204.61523400000078,127.56396500000028,2580.6411130000006,111.15380900000036
56,695.6411130000006,1088.4614259999998,103.7177729999994,217.94873000000007,88.9741210000002,81.15380900000036,81.79492200000004,82.94873000000007,59.102539000000434,61.79492200000004,202.17968800000017,123.3334960000002,2618.205078,114.10253900000043
57,708.7177729999994,1110.7690430000002,104.35888699999941,221.15380900000036,88.3334960000002,83.46142599999985,82.30761700000039,85.25634799999989,54.61523400000078,66.0258789999998,204.48730499999965,124.61523400000078,2655.128418000001,112.82031300000017
58,740.1284180000002,1149.743652,105.89746099999957,226.2822270000006,87.69238299999961,85.0,81.9228520000006,89.35888699999941,52.82031300000017,71.9228520000006,209.61523400000078,130.89746099999957,2690.384765999999,109.74365200000011
59,773.205078,1206.1538090000004,106.6665039999998,232.05126999999993,88.46142599999985,85.25634799999989,81.2822270000006,92.56396500000028,52.56396500000028,74.61523400000078,211.79492200000004,136.41015599999992,2718.9741209999993,111.0258789999998
60,788.9741210000002,1269.8715819999998,105.0,236.0258789999998,90.89746099999957,85.0,81.0258789999998,92.56396500000028,51.9228520000006,71.6665039999998,207.3076170000004,134.7436520000001,2736.1538090000004,115.0
61,787.8203130000002,1326.2822270000006,102.05126999999993,238.20507799999996,93.9741210000002,85.12841800000024,81.6665039999998,89.61523400000078,51.025878999999804,65.51269500000035,198.58984400000008,126.0258789999998,2742.5639650000003,115.12841800000024
62,789.3588869999994,1363.8461909999996,100.89746099999957,239.7436520000001,95.89746099999957,85.89746099999957,83.58984400000008,86.6665039999998,50.897460999999566,61.410155999999915,192.82031300000017,117.56396500000028,2745.256348000001,111.0258789999998
63,810.3847659999992,1379.1025390000004,102.94873000000007,241.6665039999998,95.38476599999922,85.89746099999957,86.2822270000006,86.0258789999998,52.05126999999993,62.94873000000007,194.87158199999976,116.6665039999998,2750.5126950000003,109.35888699999941
64,849.4873049999997,1380.6411130000006,106.79492200000004,244.10253900000043,92.69238299999961,84.23095699999976,88.58984400000008,88.20507799999996,53.846190999999635,69.35888699999941,203.46142599999985,123.7177729999994,2759.871581999999,111.79492200000004
65,891.5385740000002,1386.410156,109.61523400000078,247.17968800000017,90.12841800000024,81.41015599999992,89.23095699999976,91.2822270000006,54.87158199999976,75.76904300000024,212.3076170000004,132.6923829999996,2769.871581999999,112.94873000000007
66,920.5126950000003,1413.205078,109.48730499999965,251.53857400000015,89.10253900000043,78.58984400000008,87.69238299999961,93.46142599999985,54.23095699999976,77.56396500000028,215.2563479999999,136.6665039999998,2775.6411129999997,110.76904300000024
67,927.3076170000004,1464.1025390000004,106.0258789999998,256.9228520000006,89.35888699999941,75.89746099999957,84.35888699999941,93.46142599999985,52.17968800000017,72.82031300000017,209.7436520000001,131.53857400000015,2775.6411129999997,110.25634799999989
68,913.5898440000001,1525.256348,99.48730499999965,261.53857400000015,90.12841800000024,74.35888699999941,80.51269500000035,91.79492200000004,49.61523400000078,65.38476599999922,198.46142599999985,118.7177729999994,2774.615234000001,113.9741210000002
69,894.7436520000001,1575.256348,91.9228520000006,264.3588869999994,90.51269500000035,74.61523400000078,78.20507799999996,90.38476599999922,48.7177729999994,60.51269500000035,187.3076170000004,103.9741210000002,2783.0771480000003,116.2822270000006
70,894.6152340000008,1600.8974609999996,87.69238299999961,266.2822270000006,90.51269500000035,76.0258789999998,78.46142599999985,90.12841800000024,50.12841800000024,61.025878999999804,182.3076170000004,95.25634799999989,2810.6411129999997,113.46142599999985
71,928.0771479999994,1603.589844,89.87158199999976,269.48730499999965,89.10253900000043,76.0258789999998,79.61523400000078,90.0,52.05126999999993,64.74365200000011,185.6411130000006,97.05126999999993,2857.94873,110.51269500000035
72,987.4360349999997,1596.6665039999998,97.82031300000017,275.2563479999999,85.76904300000024,72.82031300000017,79.23095699999976,88.46142599999985,52.05126999999993,66.6665039999998,193.9741210000002,107.56396500000028,2914.230956999999,111.9228520000006
73,1044.6152340000008,1595.1284180000002,106.15380900000036,282.94873000000007,81.9228520000006,67.82031300000017,76.41015599999992,85.51269500000035,49.87158199999976,64.87158199999976,201.15380900000036,119.48730499999965,2961.9228519999997,113.58984400000008
74,1072.8203130000002,1606.2822270000006,109.61523400000078,290.12841800000024,80.25634799999989,65.12841800000024,72.82031300000017,83.58984400000008,47.56396500000028,61.666503999999804,202.94873000000007,125.12841800000024,2986.9228519999997,110.51269500000035
75,1067.8203130000002,1627.6923829999996,106.6665039999998,294.6152340000008,81.79492200000004,67.30761700000039,71.9228520000006,84.87158199999976,48.0771479999994,60.897460999999566,199.10253900000043,121.41015599999992,2985.128418000001,106.41015599999992
76,1052.05127,1652.94873,101.2822270000006,296.15380900000036,85.38476599999922,73.3334960000002,75.0,88.58984400000008,51.53857400000015,63.974121000000196,192.6923829999996,112.56396500000028,2964.743651999999,107.82031300000017
77,1055.8974609999996,1677.05127,98.7177729999994,296.79492200000004,88.84619099999964,79.48730499999965,80.51269500000035,91.9228520000006,56.153809000000365,68.9741210000002,188.3334960000002,105.89746099999957,2940.128418000001,112.56396500000028
78,1090.0,1696.1538090000004,101.6665039999998,298.46142599999985,90.25634799999989,82.56396500000028,84.48730499999965,92.30761700000039,58.974121000000196,72.30761700000039,188.58984400000008,106.15380900000036,2921.2822269999997,113.84619099999964
79,1134.2309569999998,1703.8461909999996,106.9228520000006,301.2822270000006,89.10253900000043,81.2822270000006,83.9741210000002,89.10253900000043,58.46142599999985,71.2822270000006,191.6665039999998,111.41015599999992,2906.2822269999997,111.41015599999992
80,1155.3847659999992,1692.4360349999997,108.9741210000002,303.20507799999996,86.2822270000006,76.9228520000006,79.10253900000043,84.23095699999976,55.25634799999989,66.41015599999992,192.82031300000017,114.87158199999976,2885.0,111.41015599999992
81,1137.8203130000002,1658.9741210000002,104.87158199999976,302.5639650000003,84.10253900000043,73.0771479999994,73.84619099999964,80.76904300000024,52.43603499999972,60.64111300000059,189.23095699999976,111.2822270000006,2850.384765999999,114.23095699999976
82,1096.794922,1610.256348,98.0771479999994,300.12841800000024,85.38476599999922,73.0771479999994,72.43603499999972,81.2822270000006,52.82031300000017,57.82031300000017,182.3076170000004,102.17968800000017,2807.4360349999997,113.84619099999964
83,1063.9741210000002,1561.1538090000004,94.74365200000011,298.0771479999994,90.12841800000024,77.69238299999961,76.0258789999998,85.64111300000059,56.53857400000015,59.61523400000078,176.15380900000036,93.3334960000002,2769.3588870000003,109.23095699999976
84,1062.4360349999997,1525.7690430000002,98.3334960000002,298.5898440000001,95.25634799999989,83.84619099999964,81.53857400000015,91.2822270000006,61.025878999999804,64.35888699999941,174.3588869999994,89.87158199999976,2746.9228519999997,106.41015599999992
85,1092.3076170000004,1509.6152340000008,106.2822270000006,301.79492200000004,97.56396500000028,87.43603499999972,85.64111300000059,94.35888699999941,63.333496000000196,68.7177729999994,177.3076170000004,93.0771479999994,2741.1538090000004,107.82031300000017
86,1132.1796880000002,1505.1284180000002,113.0771479999994,305.6411130000006,96.9228520000006,87.05126999999993,86.9228520000006,94.10253900000043,62.94873000000007,70.89746099999957,183.3334960000002,100.0,2742.6923829999996,108.58984400000008
87,1156.6665039999998,1497.6923829999996,114.61523400000078,307.05126999999993,95.12841800000024,85.0,86.6665039999998,92.17968800000017,62.17968800000017,71.79492200000004,189.48730499999965,106.15380900000036,2738.0771480000003,106.41015599999992
88,1154.743652,1476.0258789999998,111.41015599999992,304.7436520000001,93.58984400000008,84.10253900000043,86.9228520000006,91.6665039999998,62.94873000000007,73.84619099999964,192.94873000000007,108.58984400000008,2718.205078,106.53857400000015
89,1137.05127,1441.1538090000004,107.69238299999961,299.87158199999976,93.20507799999996,85.76904300000024,88.46142599999985,94.61523400000078,66.15380900000036,78.0771479999994,192.94873000000007,107.69238299999961,2682.94873,111.79492200000004
90,1123.9741210000002,1403.589844,107.56396500000028,295.76904300000024,93.9741210000002,89.61523400000078,91.15380900000036,100.64111300000059,71.0258789999998,83.0771479999994,191.9228520000006,106.41015599999992,2639.230956999999,116.53857400000015
91,1125.5126950000003,1371.9228520000006,112.43603499999972,294.48730499999965,96.15380900000036,93.58984400000008,93.7177729999994,107.05126999999993,75.51269500000035,86.6665039999998,192.3076170000004,107.30761700000039,2594.743652,114.61523400000078
92,1133.205078,1345.1284180000002,118.7177729999994,294.48730499999965,98.46142599999985,95.51269500000035,94.87158199999976,110.12841800000024,77.94873000000007,87.30761700000039,195.0,109.61523400000078,2551.9228520000006,109.74365200000011
93,1132.6923829999996,1315.5126950000003,122.17968800000017,292.5639650000003,99.35888699999941,94.23095699999976,94.35888699999941,108.58984400000008,77.56396500000028,85.38476599999922,197.94873000000007,111.15380900000036,2507.820313,108.46142599999985
94,1119.4873049999997,1277.3076170000004,121.15380900000036,287.3076170000004,98.7177729999994,91.2822270000006,92.94873000000007,104.87158199999976,75.89746099999957,83.58984400000008,199.10253900000043,110.25634799999989,2459.2309569999998,109.48730499999965
95,1101.0258789999998,1232.4360349999997,117.94873000000007,279.87158199999976,97.56396500000028,88.84619099999964,92.05126999999993,102.69238299999961,75.51269500000035,83.7177729999994,198.46142599999985,108.20507799999996,2404.4873049999997,108.0771479999994
96,1085.256348,1186.0258789999998,115.89746099999957,272.6923829999996,96.9228520000006,88.58984400000008,91.9228520000006,103.58984400000008,76.9228520000006,85.89746099999957,197.3076170000004,107.05126999999993,2344.1025390000004,105.51269500000035
97,1074.1025390000004,1141.6665039999998,116.9228520000006,266.6665039999998,96.53857400000015,89.61523400000078,91.6665039999998,105.76904300000024,79.10253900000043,88.58984400000008,196.79492200000004,107.43603499999972,2279.615234000001,107.30761700000039
98,1064.3588869999994,1099.1025390000004,119.87158199999976,261.79492200000004,95.64111300000059,90.89746099999957,90.38476599999922,107.17968800000017,80.89746099999957,90.38476599999922,197.56396500000028,109.23095699999976,2213.589844,112.30761700000039
99,1053.7177729999994,1056.794922,123.20507799999996,257.5639650000003,95.12841800000024,91.9228520000006,89.10253900000043,106.9228520000006,82.30761700000039,91.41015599999992,199.7436520000001,111.9228520000006,2148.8461909999996,113.46142599999985
100,1041.410156,1013.0771479999994,125.89746099999957,252.82031300000017,95.89746099999957,92.69238299999961,89.74365200000011,105.89746099999957,83.84619099999964,92.17968800000017,202.3076170000004,115.38476599999922,2085.5126950000003,110.25634799999989
101,1027.3076170000004,967.6923829999996,127.69238299999961,246.6665039999998,97.94873000000007,93.20507799999996,92.43603499999972,105.51269500000035,85.51269500000035,92.94873000000007,203.0771479999994,118.58984400000008,2021.5385740000002,108.46142599999985
102,1012.4360349999997,923.205078,128.3334960000002,239.23095699999976,100.64111300000059,93.9741210000002,96.0258789999998,106.15380900000036,86.79492200000004,93.46142599999985,200.76904300000024,120.51269500000035,1955.0,110.12841800000024
103,999.3588869999994,883.3334960000002,128.46142599999985,232.43603499999972,103.3334960000002,96.15380900000036,99.10253900000043,107.94873000000007,88.0771479999994,93.46142599999985,196.41015599999992,120.64111300000059,1886.6665039999998,109.87158199999976
104,988.3334960000002,850.2563479999999,129.3588869999994,226.9228520000006,105.38476599999922,99.61523400000078,100.64111300000059,110.12841800000024,90.0,93.0771479999994,191.6665039999998,119.61523400000078,1819.1025390000004,106.2822270000006
105,976.0258789999998,821.5385740000002,131.41015599999992,221.53857400000015,106.0258789999998,102.43603499999972,100.64111300000059,111.41015599999992,92.30761700000039,92.56396500000028,187.17968800000017,117.82031300000017,1752.94873,105.12841800000024
106,956.9228520000006,792.0512699999999,133.7177729999994,214.23095699999976,105.64111300000059,102.43603499999972,99.23095699999976,110.76904300000024,94.35888699999941,92.43603499999972,182.05126999999993,115.25634799999989,1686.5385740000002,108.9741210000002
107,929.7436520000001,759.6152340000008,135.38476599999922,205.12841800000024,106.0258789999998,100.38476599999922,97.43603499999972,108.9741210000002,95.76904300000024,93.3334960000002,175.89746099999957,112.30761700000039,1618.0771479999994,111.6665039999998
108,899.2309569999998,727.0512699999999,135.89746099999957,196.53857400000015,108.7177729999994,98.9741210000002,96.6665039999998,107.69238299999961,96.79492200000004,95.38476599999922,168.7177729999994,110.0,1547.8203130000002,109.10253900000043
109,872.3076170000004,698.8461909999996,135.89746099999957,190.51269500000035,113.20507799999996,100.25634799999989,97.82031300000017,108.3334960000002,97.94873000000007,97.69238299999961,162.05126999999993,109.35888699999941,1477.6923829999996,106.53857400000015
110,851.9228520000006,677.0512699999999,135.89746099999957,186.6665039999998,116.9228520000006,104.35888699999941,101.0258789999998,110.25634799999989,99.48730499999965,99.23095699999976,156.9228520000006,110.51269500000035,1411.2822270000006,109.74365200000011
111,836.4101559999999,661.1538090000004,136.6665039999998,183.46142599999985,118.46142599999985,110.25634799999989,105.76904300000024,112.43603499999972,101.2822270000006,100.89746099999957,154.87158199999976,112.82031300000017,1352.4360349999997,115.12841800000024
112,820.3847659999992,648.205078,138.7177729999994,179.48730499999965,118.46142599999985,115.89746099999957,111.0258789999998,114.61523400000078,103.3334960000002,104.74365200000011,155.2563479999999,115.12841800000024,1303.0771479999994,116.0258789999998
113,799.2309569999998,634.2309569999998,141.79492200000004,173.58984400000008,117.69238299999961,119.61523400000078,115.25634799999989,117.17968800000017,105.64111300000059,111.2822270000006,155.6411130000006,116.79492200000004,1260.1284180000002,113.58984400000008
114,771.5385740000002,616.5385740000002,144.10253900000043,165.6411130000006,116.79492200000004,120.12841800000024,116.53857400000015,119.87158199999976,107.17968800000017,118.46142599999985,153.0771479999994,116.2822270000006,1217.3076170000004,113.58984400000008
115,740.6411130000006,596.2822270000006,144.10253900000043,157.05126999999993,116.15380900000036,118.7177729999994,114.61523400000078,122.30761700000039,108.20507799999996,123.3334960000002,147.43603499999972,113.3334960000002,1171.0258789999998,115.51269500000035
116,713.205078,577.6923829999996,142.43603499999972,150.2563479999999,116.6665039999998,118.3334960000002,111.53857400000015,123.7177729999994,109.23095699999976,124.74365200000011,141.0258789999998,109.35888699999941,1123.0771479999994,113.9741210000002
117,693.0771479999994,563.9741210000002,141.41015599999992,146.6665039999998,118.9741210000002,120.0,110.51269500000035,124.23095699999976,110.38476599999922,123.58984400000008,137.17968800000017,106.9228520000006,1078.4614259999998,109.61523400000078
118,678.0771479999994,555.3847659999992,142.82031300000017,145.51269500000035,122.05126999999993,122.56396500000028,112.69238299999961,123.9741210000002,111.6665039999998,121.9228520000006,136.79492200000004,107.82031300000017,1040.0,108.84619099999964
119,662.3076170000004,549.4873049999997,146.0258789999998,144.61523400000078,124.23095699999976,124.48730499999965,116.6665039999998,122.94873000000007,112.17968800000017,120.51269500000035,138.0771479999994,111.53857400000015,1006.794922,111.79492200000004
120,641.5385740000002,543.8461909999996,148.9741210000002,142.82031300000017,124.87158199999976,125.64111300000059,120.12841800000024,122.30761700000039,112.17968800000017,120.0,138.9741210000002,115.51269500000035,975.0,112.30761700000039
121,616.1538090000004,536.6665039999998,150.38476599999922,140.0,124.48730499999965,126.53857400000015,121.6665039999998,122.69238299999961,111.79492200000004,120.38476599999922,138.20507799999996,117.30761700000039,941.4101559999999,108.84619099999964
122,589.3588869999994,527.0512699999999,149.7436520000001,135.89746099999957,123.7177729999994,127.82031300000017,120.64111300000059,123.9741210000002,111.41015599999992,120.76904300000024,136.0258789999998,115.64111300000059,904.8715819999998,107.69238299999961
123,565.1284180000002,515.8974609999996,147.43603499999972,130.76904300000024,123.46142599999985,129.10253900000043,118.0771479999994,124.87158199999976,111.0258789999998,120.0,133.20507799999996,111.53857400000015,867.3076170000004,111.15380900000036
124,544.4873049999997,505.2563479999999,145.38476599999922,125.51269500000035,124.23095699999976,130.51269500000035,116.0258789999998,123.9741210000002,110.64111300000059,117.94873000000007,129.3588869999994,107.94873000000007,831.9228520000006,113.46142599999985
125,525.6411130000006,496.9228520000006,145.2563479999999,121.41015599999992,125.76904300000024,131.9228520000006,116.0258789999998,121.53857400000015,109.87158199999976,115.38476599999922,122.43603499999972,107.17968800000017,801.1538090000004,110.64111300000059
126,505.12841800000024,491.15380900000036,147.05126999999993,118.9741210000002,126.9228520000006,132.6923829999996,118.46142599999985,118.20507799999996,108.7177729999994,113.20507799999996,109.74365200000011,108.84619099999964,774.3588869999994,107.94873000000007
127,481.6665039999998,486.79492200000004,148.9741210000002,117.94873000000007,126.6665039999998,132.56396500000028,121.2822270000006,115.64111300000059,107.69238299999961,111.9228520000006,92.30761700000039,111.0258789999998,750.1284180000002,110.0
128,458.5898440000001,483.5898440000001,150.12841800000024,117.94873000000007,126.0258789999998,132.17968800000017,122.82031300000017,115.64111300000059,108.3334960000002,112.94873000000007,75.51269500000035,112.69238299999961,728.0771479999994,113.20507799999996
129,440.0,482.05126999999993,150.89746099999957,118.3334960000002,126.41015599999992,132.56396500000028,122.43603499999972,119.10253900000043,111.6665039999998,116.9228520000006,66.6665039999998,114.35888699999941,708.8461909999996,111.9228520000006
130,426.2822270000006,482.5639650000003,152.6923829999996,118.58984400000008,128.3334960000002,133.3334960000002,120.51269500000035,125.0,116.79492200000004,123.58984400000008,68.0771479999994,117.30761700000039,691.794922,109.10253900000043
131,413.46142599999985,484.48730499999965,155.2563479999999,117.56396500000028,129.87158199999976,132.6923829999996,117.82031300000017,130.0,120.89746099999957,129.87158199999976,75.51269500000035,120.89746099999957,674.1025390000004,110.0
132,396.9228520000006,486.9228520000006,157.43603499999972,115.51269500000035,129.87158199999976,130.2563479999999,115.38476599999922,131.2822270000006,122.17968800000017,132.94873000000007,81.9228520000006,123.3334960000002,652.9487300000001,113.3334960000002
133,375.12841800000024,489.10253900000043,158.20507799999996,113.20507799999996,128.84619099999964,127.82031300000017,113.9741210000002,129.3588869999994,121.41015599999992,131.79492200000004,83.20507799999996,123.58984400000008,628.0771479999994,113.7177729999994
134,349.48730499999965,489.3588869999994,157.82031300000017,111.9228520000006,128.20507799999996,127.17968800000017,114.10253900000043,126.9228520000006,121.0258789999998,128.7177729999994,80.25634799999989,122.17968800000017,601.6665039999998,111.79492200000004
135,322.82031300000017,485.6411130000006,156.9228520000006,111.53857400000015,128.46142599999985,128.20507799999996,115.25634799999989,125.89746099999957,122.30761700000039,126.53857400000015,77.17968800000017,120.12841800000024,577.4360349999997,112.82031300000017
136,298.5898440000001,476.9228520000006,156.2822270000006,111.9228520000006,129.10253900000043,129.48730499999965,117.30761700000039,126.79492200000004,125.25634799999989,127.05126999999993,76.9228520000006,118.7177729999994,557.6923829999996,115.89746099999957
137,279.6152340000008,465.3847659999992,156.15380900000036,112.43603499999972,130.2563479999999,130.76904300000024,119.48730499999965,128.84619099999964,128.84619099999964,130.0,79.23095699999976,117.94873000000007,542.8203130000002,115.25634799999989
138,267.05126999999993,454.23095699999976,156.41015599999992,112.56396500000028,132.05126999999993,132.3076170000004,121.6665039999998,131.0258789999998,131.9228520000006,134.10253900000043,82.05126999999993,117.94873000000007,530.1284180000002,111.15380900000036
139,259.48730499999965,445.12841800000024,156.6665039999998,111.79492200000004,133.9741210000002,134.48730499999965,123.46142599999985,132.56396500000028,133.20507799999996,137.05126999999993,82.94873000000007,118.58984400000008,516.0258789999998,110.12841800000024
140,254.3588869999994,438.3334960000002,156.41015599999992,110.51269500000035,135.76904300000024,136.79492200000004,125.0,133.58984400000008,132.3076170000004,137.82031300000017,81.79492200000004,119.35888699999941,498.84619099999964,113.84619099999964
141,249.48730499999965,433.0771479999994,156.15380900000036,109.74365200000011,137.56396500000028,138.84619099999964,126.15380900000036,134.61523400000078,130.76904300000024,137.17968800000017,81.0258789999998,120.25634799999989,480.76904300000024,115.76904300000024
142,242.94873000000007,427.6923829999996,156.9228520000006,109.87158199999976,139.61523400000078,140.2563479999999,127.05126999999993,135.89746099999957,130.2563479999999,136.2822270000006,82.30761700000039,121.2822270000006,463.7177729999994,112.30761700000039
143,233.20507799999996,419.3588869999994,158.3334960000002,109.87158199999976,141.15380900000036,139.87158199999976,127.17968800000017,136.15380900000036,130.76904300000024,135.38476599999922,84.10253900000043,121.53857400000015,447.17968800000017,108.84619099999964
144,219.7436520000001,406.9228520000006,159.3588869999994,108.9741210000002,141.2822270000006,137.17968800000017,126.2822270000006,134.23095699999976,130.76904300000024,133.84619099999964,83.84619099999964,120.25634799999989,428.9741210000002,110.0
145,204.87158199999976,392.5639650000003,159.61523400000078,107.69238299999961,140.38476599999922,133.58984400000008,124.87158199999976,130.38476599999922,129.10253900000043,131.41015599999992,80.38476599999922,117.69238299999961,409.6152340000008,112.17968800000017
146,191.15380900000036,380.3847659999992,159.87158199999976,107.43603499999972,139.61523400000078,131.79492200000004,123.58984400000008,126.53857400000015,126.41015599999992,129.23095699999976,76.0258789999998,115.89746099999957,391.6665039999998,110.89746099999957
147,178.7177729999994,372.17968800000017,160.12841800000024,108.58984400000008,139.48730499999965,132.43603499999972,122.30761700000039,124.35888699999941,123.9741210000002,127.94873000000007,73.46142599999985,116.2822270000006,377.3076170000004,109.48730499999965
148,165.89746099999957,366.53857400000015,159.61523400000078,109.87158199999976,139.10253900000043,134.10253900000043,120.89746099999957,124.10253900000043,122.30761700000039,127.30761700000039,72.94873000000007,117.69238299999961,364.87158199999976,112.43603499999972
149,151.53857400000015,360.2563479999999,157.82031300000017,109.87158199999976,138.3334960000002,135.0,119.48730499999965,125.0,121.6665039999998,126.41015599999992,72.94873000000007,117.69238299999961,351.4101559999999,116.53857400000015
150,137.3076170000004,351.15380900000036,155.38476599999922,108.58984400000008,137.94873000000007,135.12841800000024,118.7177729999994,125.64111300000059,121.6665039999998,124.74365200000011,72.05126999999993,115.38476599999922,334.87158199999976,115.51269500000035
151,125.0,338.9741210000002,153.58984400000008,106.2822270000006,138.7177729999994,135.12841800000024,118.84619099999964,125.12841800000024,121.79492200000004,122.17968800000017,70.12841800000024,111.9228520000006,315.0,111.41015599999992
152,114.74365200000011,324.3588869999994,153.3334960000002,103.84619099999964,139.48730499999965,135.0,119.48730499999965,123.7177729999994,121.6665039999998,119.35888699999941,68.0771479999994,109.35888699999941,293.46142599999985,110.76904300000024
153,105.64111300000059,309.87158199999976,154.10253900000043,101.79492200000004,139.10253900000043,134.48730499999965,120.0,122.82031300000017,121.53857400000015,117.82031300000017,66.9228520000006,108.58984400000008,273.46142599999985,113.46142599999985
154,97.17968800000017,298.7177729999994,154.87158199999976,101.0258789999998,137.94873000000007,133.9741210000002,120.64111300000059,123.9741210000002,122.17968800000017,118.46142599999985,67.56396500000028,109.48730499999965,258.46142599999985,113.46142599999985
155,89.48730499999965,291.53857400000015,154.7436520000001,101.41015599999992,137.3076170000004,133.7177729999994,121.53857400000015,126.41015599999992,123.7177729999994,121.41015599999992,69.74365200000011,110.89746099999957,249.3588869999994,109.61523400000078
156,82.82031300000017,286.15380900000036,153.7177729999994,101.2822270000006,137.82031300000017,133.20507799999996,121.79492200000004,128.0771479999994,125.12841800000024,125.0,72.17968800000017,111.53857400000015,243.58984400000008,107.82031300000017
157,77.43603499999972,279.6152340000008,151.9228520000006,99.48730499999965,138.7177729999994,132.94873000000007,120.89746099999957,128.0771479999994,125.64111300000059,127.43603499999972,73.58984400000008,111.15380900000036,237.43603499999972,109.87158199999976
158,73.46142599999985,271.0258789999998,151.0258789999998,96.41015599999992,139.3588869999994,133.58984400000008,120.0,127.17968800000017,125.64111300000059,128.3334960000002,74.61523400000078,110.25634799999989,229.48730499999965,110.89746099999957
159,70.0,261.53857400000015,152.3076170000004,94.48730499999965,139.48730499999965,135.6411130000006,120.76904300000024,126.41015599999992,125.89746099999957,128.20507799999996,76.41015599999992,109.87158199999976,220.76904300000024,109.10253900000043
160,65.38476599999922,252.05126999999993,155.6411130000006,95.0,138.7177729999994,137.43603499999972,123.3334960000002,126.15380900000036,126.53857400000015,127.82031300000017,79.10253900000043,110.25634799999989,211.41015599999992,109.35888699999941
161,58.46142599999985,243.3334960000002,159.23095699999976,97.82031300000017,138.0771479999994,137.43603499999972,125.38476599999922,125.51269500000035,126.6665039999998,127.69238299999961,81.53857400000015,111.0258789999998,200.6411130000006,113.84619099999964
162,50.25634799999989,236.0258789999998,161.41015599999992,101.15380900000036,138.46142599999985,135.76904300000024,124.74365200000011,124.10253900000043,125.76904300000024,127.82031300000017,82.30761700000039,111.2822270000006,187.56396500000028,116.6665039999998
163,43.0771479999994,230.6411130000006,161.6665039999998,103.58984400000008,140.12841800000024,133.9741210000002,121.79492200000004,122.17968800000017,123.7177729999994,127.82031300000017,81.2822270000006,111.41015599999992,173.0771479999994,113.7177729999994
164,37.56396500000028,226.15380900000036,160.6411130000006,104.10253900000043,141.2822270000006,132.6923829999996,117.94873000000007,120.38476599999922,121.2822270000006,127.30761700000039,78.84619099999964,111.9228520000006,157.82031300000017,110.12841800000024
165,32.43603499999972,221.15380900000036,159.23095699999976,102.43603499999972,139.87158199999976,130.89746099999957,114.87158199999976,119.74365200000011,119.48730499999965,126.0258789999998,76.0258789999998,112.69238299999961,142.43603499999972,111.53857400000015
166,26.025878999999804,215.0,157.82031300000017,99.23095699999976,136.2822270000006,128.20507799999996,113.3334960000002,120.38476599999922,119.23095699999976,124.74365200000011,73.9741210000002,113.3334960000002,127.69238299999961,114.61523400000078
167,18.461425999999847,208.20507799999996,156.79492200000004,96.41015599999992,132.82031300000017,125.25634799999989,113.58984400000008,122.43603499999972,120.51269500000035,124.10253900000043,73.9741210000002,114.10253900000043,114.48730499999965,113.3334960000002
168,11.794922000000042,201.6665039999998,156.6665039999998,95.25634799999989,130.76904300000024,122.69238299999961,114.48730499999965,124.48730499999965,121.6665039999998,123.9741210000002,76.2822270000006,114.87158199999976,103.46142599999985,109.48730499999965
169,7.051269999999931,195.76904300000024,157.05126999999993,95.51269500000035,130.2563479999999,121.2822270000006,115.0,125.12841800000024,121.53857400000015,123.84619099999964,79.48730499999965,116.0258789999998,93.7177729999994,109.10253900000043
170,3.9741210000001956,191.0258789999998,157.43603499999972,96.0258789999998,130.6411130000006,122.17968800000017,115.25634799999989,124.10253900000043,120.51269500000035,123.84619099999964,81.6665039999998,116.9228520000006,83.7177729999994,111.6665039999998
171,-0.12841800000023795,187.56396500000028,157.56396500000028,96.6665039999998,132.43603499999972,125.76904300000024,116.41015599999992,122.69238299999961,119.74365200000011,123.9741210000002,82.05126999999993,117.30761700000039,72.30761700000039,111.9228520000006
172,-8.846190999999635,185.12841800000024,157.6923829999996,97.30761700000039,135.6411130000006,130.51269500000035,118.84619099999964,122.30761700000039,120.25634799999989,124.74365200000011,81.2822270000006,117.43603499999972,59.23095699999976,110.76904300000024
173,-23.846190999999635,182.56396500000028,158.20507799999996,98.46142599999985,139.23095699999976,134.10253900000043,122.05126999999993,123.46142599999985,121.6665039999998,125.51269500000035,80.38476599999922,117.43603499999972,45.76904300000024,113.20507799999996
174,-42.82055700000001,179.10253900000043,158.9741210000002,99.74365200000011,142.05126999999993,135.2563479999999,124.87158199999976,125.38476599999922,123.46142599999985,125.76904300000024,80.51269500000035,117.56396500000028,34.35888699999941,118.3334960000002
175,-60.1281740000004,174.48730499999965,159.3588869999994,100.38476599999922,143.3334960000002,134.3588869999994,126.53857400000015,126.9228520000006,125.25634799999989,125.51269500000035,82.05126999999993,117.69238299999961,26.666503999999804,119.10253900000043
176,-71.92309599999999,168.46142599999985,158.58984400000008,99.48730499999965,142.17968800000017,132.56396500000028,126.6665039999998,127.43603499999972,126.6665039999998,125.38476599999922,84.48730499999965,116.79492200000004,20.897460999999566,113.9741210000002
177,-78.97436500000003,160.76904300000024,156.2822270000006,96.53857400000015,138.3334960000002,130.76904300000024,125.12841800000024,126.0258789999998,126.79492200000004,124.87158199999976,85.25634799999989,114.10253900000043,12.692382999999609,110.12841800000024
178,-83.97436500000003,152.6923829999996,152.6923829999996,92.94873000000007,132.6923829999996,128.9741210000002,122.69238299999961,123.20507799999996,124.87158199999976,123.84619099999964,82.82031300000017,110.51269500000035,-0.38476599999921746,111.41015599999992
179,-89.35888699999987,146.2822270000006,149.3588869999994,91.0258789999998,129.10253900000043,128.3334960000002,121.15380900000036,120.51269500000035,122.30761700000039,122.82031300000017,78.9741210000002,107.82031300000017,-16.025634999999966,112.94873000000007
180,-95.1281740000004,143.58984400000008,148.3334960000002,92.30761700000039,130.0,129.23095699999976,121.9228520000006,120.0,120.76904300000024,123.46142599999985,77.17968800000017,107.94873000000007,-29.487060999999812,111.0258789999998
181,-100.64111300000013,143.3334960000002,150.6411130000006,95.51269500000035,134.7436520000001,131.0258789999998,124.48730499999965,121.79492200000004,121.2822270000006,126.2822270000006,79.74365200000011,110.64111300000059,-38.07690400000001,109.74365200000011
182,-105.25634799999989,142.56396500000028,154.23095699999976,97.82031300000017,139.61523400000078,132.43603499999972,126.9228520000006,124.48730499999965,123.20507799999996,130.51269500000035,85.0,113.3334960000002,-43.20507799999996,112.43603499999972
183,-108.84619099999964,138.9741210000002,156.0258789999998,96.9228520000006,141.79492200000004,132.3076170000004,127.43603499999972,126.15380900000036,125.38476599999922,134.10253900000043,88.9741210000002,113.58984400000008,-49.10253899999998,114.23095699999976
184,-112.56420900000057,132.6923829999996,154.48730499999965,93.0771479999994,140.76904300000024,131.15380900000036,125.76904300000024,126.0258789999998,126.2822270000006,135.12841800000024,89.23095699999976,111.2822270000006,-58.58984399999963,110.12841800000024
185,-117.69238299999961,124.48730499999965,151.2822270000006,88.46142599999985,137.94873000000007,128.9741210000002,122.56396500000028,124.74365200000011,125.25634799999989,133.7177729999994,86.0258789999998,108.84619099999964,-71.53857400000015,104.87158199999976
186,-124.74365200000011,116.41015599999992,149.48730499999965,85.89746099999957,134.61523400000078,126.0258789999998,118.58984400000008,123.46142599999985,122.30761700000039,131.53857400000015,82.17968800000017,108.7177729999994,-84.23071300000038,106.2822270000006
187,-131.41015600000037,110.64111300000059,150.51269500000035,87.17968800000017,132.05126999999993,123.58984400000008,116.0258789999998,123.20507799999996,119.48730499999965,130.76904300000024,81.41015599999992,112.05126999999993,-92.82055700000001,112.56396500000028
188,-135.1281740000004,108.58984400000008,153.7177729999994,91.6665039999998,131.15380900000036,123.0771479999994,116.15380900000036,125.25634799999989,119.23095699999976,132.94873000000007,84.74365200000011,117.30761700000039,-96.15380900000036,116.2822270000006
189,-136.53857400000015,108.9741210000002,156.9228520000006,96.15380900000036,131.6665039999998,124.61523400000078,118.84619099999964,129.23095699999976,122.30761700000039,136.6665039999998,89.87158199999976,121.41015599999992,-98.20507799999996,115.64111300000059
190,-139.10253899999998,108.3334960000002,157.6923829999996,97.56396500000028,132.17968800000017,126.15380900000036,121.6665039999998,132.94873000000007,126.2822270000006,139.3588869999994,91.9228520000006,122.05126999999993,-104.10253899999998,115.0
191,-145.5129390000002,104.87158199999976,155.12841800000024,95.12841800000024,132.56396500000028,125.51269500000035,121.9228520000006,132.82031300000017,128.0771479999994,138.84619099999964,88.7177729999994,118.7177729999994,-115.89746100000002,115.12841800000024
192,-154.4870609999998,99.48730499999965,150.38476599999922,90.89746099999957,133.20507799999996,123.20507799999996,119.23095699999976,128.46142599999985,126.41015599999992,135.2563479999999,82.17968800000017,113.58984400000008,-130.64111300000013,111.79492200000004
193,-162.6923829999996,94.61523400000078,146.41015599999992,87.17968800000017,134.23095699999976,121.41015599999992,116.0258789999998,122.05126999999993,122.82031300000017,130.89746099999957,76.9228520000006,109.74365200000011,-143.33325200000036,106.41015599999992
194,-167.179443,90.89746099999957,145.0,85.89746099999957,135.0,121.41015599999992,114.48730499999965,117.30761700000039,119.48730499999965,127.82031300000017,75.76904300000024,109.10253900000043,-151.15380900000036,105.25634799999989
195,-167.9487299999996,87.94873000000007,146.0258789999998,86.9228520000006,134.87158199999976,123.20507799999996,115.64111300000059,115.89746099999957,117.56396500000028,127.17968800000017,78.84619099999964,111.2822270000006,-155.0,109.61523400000078
196,-166.41015600000037,85.76904300000024,148.58984400000008,90.0,134.61523400000078,125.89746099999957,118.7177729999994,117.43603499999972,117.43603499999972,128.3334960000002,83.7177729999994,114.23095699999976,-157.0512700000004,112.82031300000017
197,-164.7436520000001,84.23095699999976,151.79492200000004,94.10253900000043,135.76904300000024,128.58984400000008,122.30761700000039,120.25634799999989,119.23095699999976,130.12841800000024,87.69238299999961,116.0258789999998,-159.23071300000038,110.76904300000024
198,-165.38452099999995,82.69238299999961,154.87158199999976,97.30761700000039,137.56396500000028,129.7436520000001,123.84619099999964,121.9228520000006,121.6665039999998,130.76904300000024,88.58984400000008,116.15380900000036,-163.076904,108.58984400000008
199,-170.0,79.61523400000078,156.79492200000004,97.69238299999961,138.3334960000002,128.0771479999994,122.05126999999993,120.89746099999957,122.30761700000039,129.61523400000078,86.41015599999992,114.48730499999965,-169.8718259999996,110.64111300000059
200,-178.46142599999985,74.74365200000011,156.0258789999998,95.12841800000024,137.3076170000004,124.23095699999976,118.0771479999994,117.43603499999972,120.12841800000024,127.05126999999993,82.82031300000017,111.15380900000036,-179.61547900000005,113.46142599999985
201,-187.9487299999996,68.84619099999964,152.6923829999996,91.15380900000036,135.0,120.64111300000059,115.0,113.9741210000002,116.0258789999998,124.23095699999976,80.0,107.30761700000039,-190.76928699999962,112.43603499999972
202,-195.64111300000013,62.69238299999961,147.6923829999996,88.58984400000008,132.6923829999996,118.9741210000002,115.38476599999922,112.82031300000017,112.30761700000039,121.9228520000006,78.7177729999994,104.74365200000011,-202.179443,111.0258789999998
203,-200.0,56.410155999999915,142.82031300000017,88.3334960000002,131.53857400000015,119.48730499999965,118.3334960000002,113.46142599999985,110.89746099999957,120.25634799999989,78.58984400000008,104.23095699999976,-212.3076170000004,113.7177729999994
204,-201.66674799999964,50.12841800000024,139.87158199999976,89.61523400000078,132.17968800000017,121.15380900000036,121.15380900000036,114.23095699999976,112.17968800000017,119.48730499999965,79.35888699999941,105.64111300000059,-220.0,117.56396500000028
205,-202.43579099999943,43.589844000000085,139.48730499999965,90.38476599999922,133.9741210000002,122.56396500000028,121.2822270000006,114.10253900000043,115.12841800000024,119.74365200000011,80.38476599999922,107.17968800000017,-225.2563479999999,117.05126999999993
206,-205.1281740000004,36.53857400000015,140.76904300000024,88.58984400000008,134.87158199999976,122.17968800000017,118.58984400000008,113.7177729999994,117.94873000000007,120.25634799999989,80.51269500000035,106.9228520000006,-230.1281740000004,113.84619099999964
207,-211.79492200000004,28.846190999999635,141.2822270000006,83.9741210000002,133.3334960000002,119.48730499999965,115.12841800000024,114.10253900000043,118.7177729999994,120.38476599999922,78.58984400000008,103.58984400000008,-236.923096,113.7177729999994
208,-221.28198199999997,22.05126999999993,140.2563479999999,79.48730499999965,130.38476599999922,116.15380900000036,113.0771479999994,115.76904300000024,117.43603499999972,120.0,76.0258789999998,98.46142599999985,-245.0,115.51269500000035
209,-229.23071300000038,18.461425999999847,139.10253900000043,78.84619099999964,128.9741210000002,114.23095699999976,113.20507799999996,118.20507799999996,116.15380900000036,120.25634799999989,76.15380900000036,95.0,-250.89746100000002,113.9741210000002
210,-232.6923829999996,18.589844000000085,139.3588869999994,83.58984400000008,130.51269500000035,114.87158199999976,114.87158199999976,120.25634799999989,117.05126999999993,121.9228520000006,80.89746099999957,96.2822270000006,-252.43579099999943,109.61523400000078
211,-232.179443,19.615234000000783,140.76904300000024,90.51269500000035,133.3334960000002,117.30761700000039,116.15380900000036,120.64111300000059,119.87158199999976,124.74365200000011,88.3334960000002,101.6665039999998,-251.53857400000015,108.7177729999994
212,-231.28198199999997,17.69238299999961,141.79492200000004,94.48730499999965,134.3588869999994,119.61523400000078,116.2822270000006,119.35888699999941,122.94873000000007,127.69238299999961,94.23095699999976,107.43603499999972,-252.6923829999996,112.17968800000017
213,-232.6923829999996,11.794922000000042,141.2822270000006,92.69238299999961,133.0771479999994,121.15380900000036,115.76904300000024,117.56396500000028,124.10253900000043,129.87158199999976,95.38476599999922,109.61523400000078,-258.33325200000036,114.23095699999976
214,-236.53857400000015,3.9741210000001956,139.61523400000078,86.41015599999992,131.2822270000006,121.6665039999998,115.51269500000035,116.41015599999992,122.69238299999961,130.6411130000006,91.9228520000006,107.05126999999993,-267.5642090000006,112.56396500000028
215,-241.15380900000036,-2.3076170000003913,137.82031300000017,80.12841800000024,131.0258789999998,121.53857400000015,115.64111300000059,116.15380900000036,119.74365200000011,129.48730499999965,86.0258789999998,101.53857400000015,-277.3076170000004,111.9228520000006
216,-244.10253899999998,-5.0,136.53857400000015,77.82031300000017,132.94873000000007,121.2822270000006,116.79492200000004,116.2822270000006,117.05126999999993,126.6665039999998,81.79492200000004,96.41015599999992,-284.7436520000001,114.23095699999976
217,-243.58984399999963,-3.846190999999635,136.53857400000015,81.53857400000015,136.53857400000015,122.17968800000017,119.10253900000043,117.30761700000039,116.9228520000006,123.9741210000002,82.05126999999993,95.12841800000024,-287.6923829999996,114.35888699999941
218,-240.0,-0.6411130000005869,138.3334960000002,89.23095699999976,140.51269500000035,125.25634799999989,122.69238299999961,120.12841800000024,120.0,124.35888699999941,87.05126999999993,98.9741210000002,-286.02563499999997,109.23095699999976
219,-235.2563479999999,1.7949220000000423,141.41015599999992,96.9228520000006,143.46142599999985,129.3588869999994,126.15380900000036,123.7177729999994,124.10253900000043,128.84619099999964,93.58984400000008,105.51269500000035,-282.4357909999994,104.87158199999976
220,-231.79492200000004,1.4101559999999154,144.10253900000043,101.15380900000036,144.3588869999994,132.17968800000017,127.82031300000017,126.0258789999998,126.15380900000036,135.2563479999999,97.43603499999972,110.76904300000024,-280.64111300000013,106.79492200000004
221,-230.38452099999995,-1.153809000000365,145.51269500000035,101.0258789999998,143.46142599999985,132.56396500000028,127.17968800000017,126.2822270000006,124.87158199999976,140.12841800000024,97.05126999999993,112.05126999999993,-282.3076170000004,111.6665039999998
222,-230.5129390000002,-3.846190999999635,145.51269500000035,98.7177729999994,141.79492200000004,130.51269500000035,125.25634799999989,125.12841800000024,121.53857400000015,140.6411130000006,94.10253900000043,110.25634799999989,-286.41015600000037,113.3334960000002
223,-232.3076170000004,-6.281981999999971,145.0,96.41015599999992,140.38476599999922,126.79492200000004,123.20507799999996,124.10253900000043,118.84619099999964,136.9228520000006,91.6665039999998,108.7177729999994,-291.53857400000015,112.43603499999972
224,-236.53857400000015,-9.8718259999996,144.10253900000043,95.0,139.23095699999976,122.30761700000039,121.6665039999998,123.7177729999994,117.94873000000007,131.15380900000036,90.38476599999922,108.7177729999994,-297.179443,113.3334960000002
225,-242.56420900000057,-15.769286999999622,142.6923829999996,93.7177729999994,138.0771479999994,118.46142599999985,120.64111300000059,123.9741210000002,118.20507799999996,126.2822270000006,89.23095699999976,109.23095699999976,-303.33325200000036,113.84619099999964
226,-248.20507799999996,-22.435790999999426,140.76904300000024,92.56396500000028,137.17968800000017,116.53857400000015,119.61523400000078,123.9741210000002,118.58984400000008,124.35888699999941,87.30761700000039,108.3334960000002,-309.61547900000005,110.0
227,-251.53857400000015,-27.69238299999961,139.7436520000001,91.6665039999998,136.6665039999998,117.05126999999993,118.3334960000002,122.94873000000007,118.84619099999964,125.12841800000024,85.12841800000024,105.51269500000035,-315.2563479999999,104.87158199999976
228,-252.43579099999943,-30.25634799999989,140.12841800000024,90.89746099999957,136.53857400000015,118.46142599999985,116.9228520000006,120.89746099999957,118.58984400000008,126.79492200000004,83.9741210000002,102.17968800000017,-319.8718259999996,105.76904300000024
229,-252.56420900000057,-30.512939000000188,141.53857400000015,90.12841800000024,136.6665039999998,119.35888699999941,116.2822270000006,119.35888699999941,118.3334960000002,127.43603499999972,84.48730499999965,100.89746099999957,-323.46142599999985,112.17968800000017
230,-253.076904,-29.230713000000378,142.82031300000017,90.0,137.3076170000004,119.74365200000011,117.43603499999972,120.0,118.7177729999994,126.6665039999998,86.41015599999992,102.94873000000007,-325.38452099999995,115.51269500000035
231,-254.7436520000001,-28.205077999999958,143.58984400000008,90.51269500000035,138.20507799999996,120.76904300000024,119.61523400000078,122.69238299999961,120.0,125.64111300000059,88.7177729999994,107.56396500000028,-326.15380900000036,112.43603499999972
232,-257.5642090000006,-29.10253899999998,143.3334960000002,91.0258789999998,138.7177729999994,122.17968800000017,121.15380900000036,125.38476599999922,120.76904300000024,125.38476599999922,90.0,111.53857400000015,-327.6923829999996,108.84619099999964
233,-261.28198199999997,-32.30761700000039,141.53857400000015,90.25634799999989,137.82031300000017,122.56396500000028,120.64111300000059,125.64111300000059,120.0,125.89746099999957,89.35888699999941,112.17968800000017,-331.79492200000004,108.9741210000002
234,-264.7436520000001,-36.92309599999999,138.9741210000002,87.82031300000017,135.76904300000024,121.41015599999992,118.84619099999964,123.7177729999994,117.94873000000007,126.53857400000015,87.43603499999972,109.48730499999965,-338.84619099999964,109.10253900000043
235,-267.820557,-41.28198199999997,137.17968800000017,84.74365200000011,133.46142599999985,118.7177729999994,117.30761700000039,121.53857400000015,116.79492200000004,126.2822270000006,85.51269500000035,105.64111300000059,-347.0512700000004,106.41015599999992
236,-270.897461,-44.8718259999996,137.43603499999972,82.56396500000028,131.6665039999998,115.25634799999989,116.2822270000006,120.64111300000059,117.43603499999972,124.10253900000043,84.35888699999941,102.94873000000007,-354.7436520000001,104.87158199999976
237,-274.7436520000001,-47.82055700000001,138.7177729999994,82.05126999999993,130.38476599999922,112.30761700000039,114.48730499999965,120.76904300000024,118.7177729999994,119.87158199999976,83.20507799999996,102.30761700000039,-360.897461,107.82031300000017
238,-278.33325200000036,-50.25634799999989,139.10253900000043,82.94873000000007,130.2563479999999,110.51269500000035,111.2822270000006,120.51269500000035,119.10253900000043,114.74365200000011,81.79492200000004,102.82031300000017,-364.8718259999996,110.38476599999922
239,-280.64111300000013,-52.564209000000574,137.56396500000028,84.48730499999965,130.6411130000006,110.0,107.30761700000039,119.23095699999976,117.69238299999961,110.89746099999957,80.12841800000024,103.3334960000002,-367.5642090000006,108.46142599999985
240,-281.66674799999964,-55.51293900000019,134.61523400000078,85.12841800000024,130.6411130000006,108.84619099999964,104.10253900000043,116.79492200000004,114.74365200000011,109.35888699999941,78.7177729999994,102.69238299999961,-370.38452099999995,105.76904300000024
241,-282.820557,-59.48706099999981,131.53857400000015,83.9741210000002,129.48730499999965,106.15380900000036,102.69238299999961,114.48730499999965,111.6665039999998,110.0,77.69238299999961,100.64111300000059,-374.61547900000005,107.94873000000007
242,-284.8718259999996,-63.07690400000001,129.48730499999965,82.05126999999993,128.46142599999985,103.58984400000008,104.10253900000043,114.23095699999976,110.25634799999989,112.05126999999993,76.9228520000006,98.0771479999994,-379.8718259999996,112.56396500000028
243,-287.3076170000004,-64.61547900000005,128.84619099999964,81.41015599999992,129.48730499999965,104.61523400000078,108.20507799999996,116.6665039999998,111.2822270000006,114.61523400000078,76.53857400000015,96.2822270000006,-383.97436500000003,113.46142599999985
244,-289.102539,-63.33325200000036,129.3588869999994,82.82031300000017,132.05126999999993,109.87158199999976,113.58984400000008,120.76904300000024,113.46142599999985,116.53857400000015,76.41015599999992,95.38476599999922,-386.28198199999997,111.79492200000004
245,-291.02563499999997,-61.79492200000004,129.87158199999976,84.61523400000078,133.3334960000002,116.6665039999998,117.69238299999961,123.84619099999964,114.87158199999976,116.79492200000004,75.76904300000024,94.87158199999976,-388.20507799999996,112.94873000000007
246,-294.4870609999998,-62.82055700000001,129.10253900000043,84.87158199999976,131.6665039999998,120.89746099999957,118.7177729999994,123.9741210000002,114.48730499999965,115.0,74.35888699999941,94.23095699999976,-391.923096,116.6665039999998
247,-299.35888699999987,-67.05127000000039,126.53857400000015,82.43603499999972,127.94873000000007,120.25634799999989,116.6665039999998,121.0258789999998,113.0771479999994,112.17968800000017,72.43603499999972,93.46142599999985,-398.46142599999985,116.6665039999998
248,-303.46142599999985,-73.07690400000001,123.58984400000008,78.46142599999985,124.74365200000011,115.64111300000059,112.69238299999961,116.2822270000006,111.6665039999998,109.23095699999976,70.0,92.43603499999972,-407.0512700000004,111.79492200000004
249,-305.1281740000004,-78.46142599999985,122.43603499999972,75.38476599999922,123.3334960000002,109.74365200000011,108.84619099999964,111.53857400000015,110.25634799999989,106.53857400000015,67.94873000000007,90.89746099999957,-415.64111300000013,108.3334960000002
250,-303.46142599999985,-80.89746100000002,123.58984400000008,76.15380900000036,124.10253900000043,105.76904300000024,106.6665039999998,107.94873000000007,108.58984400000008,104.10253900000043,66.9228520000006,89.10253900000043,-421.41015600000037,108.84619099999964
251,-299.102539,-79.35888699999987,126.2822270000006,81.53857400000015,126.9228520000006,106.2822270000006,107.82031300000017,106.6665039999998,107.30761700000039,102.94873000000007,68.3334960000002,88.46142599999985,-422.4357909999994,109.23095699999976
252,-293.46142599999985,-75.64111300000013,129.48730499999965,89.10253900000043,130.38476599999922,110.76904300000024,112.05126999999993,107.43603499999972,107.56396500000028,104.23095699999976,72.43603499999972,91.0258789999998,-418.58984399999963,107.82031300000017
253,-288.84619099999964,-72.82055700000001,132.3076170000004,94.61523400000078,132.3076170000004,116.15380900000036,117.17968800000017,109.61523400000078,109.48730499999965,107.82031300000017,78.0771479999994,97.05126999999993,-412.9487299999996,109.23095699999976
254,-286.923096,-72.94872999999961,133.58984400000008,95.51269500000035,131.15380900000036,119.10253900000043,120.64111300000059,112.43603499999972,112.56396500000028,112.69238299999961,83.3334960000002,103.9741210000002,-409.102539,115.38476599999922
255,-287.5642090000006,-75.51293900000019,133.46142599999985,93.20507799999996,128.46142599999985,119.10253900000043,121.41015599999992,115.64111300000059,115.25634799999989,117.17968800000017,87.56396500000028,108.84619099999964,-409.102539,119.48730499999965
256,-288.97436500000003,-77.82055700000001,132.94873000000007,90.25634799999989,127.43603499999972,117.43603499999972,121.0258789999998,119.35888699999941,117.05126999999993,120.89746099999957,90.25634799999989,110.76904300000024,-411.923096,117.05126999999993
257,-290.1281740000004,-78.84619099999964,132.94873000000007,88.9741210000002,129.61523400000078,115.89746099999957,121.0258789999998,122.82031300000017,117.30761700000039,123.58984400000008,91.41015599999992,110.51269500000035,-415.5129390000002,112.43603499999972
258,-291.28198199999997,-79.48706099999981,133.58984400000008,89.61523400000078,133.84619099999964,115.25634799999989,121.79492200000004,124.48730499999965,116.53857400000015,124.87158199999976,90.89746099999957,109.23095699999976,-418.46142599999985,111.79492200000004
259,-292.820557,-80.51293900000019,134.87158199999976,91.2822270000006,137.56396500000028,116.0258789999998,122.56396500000028,123.9741210000002,115.76904300000024,125.25634799999989,89.48730499999965,108.3334960000002,-420.64111300000013,112.82031300000017
260,-294.102539,-81.92309599999999,136.6665039999998,93.58984400000008,139.23095699999976,117.94873000000007,122.43603499999972,122.94873000000007,115.89746099999957,125.38476599999922,88.84619099999964,108.9741210000002,-421.923096,110.76904300000024
261,-294.35888699999987,-82.94872999999961,138.84619099999964,95.38476599999922,138.3334960000002,120.12841800000024,121.41015599999992,122.94873000000007,116.9228520000006,125.89746099999957,89.87158199999976,111.41015599999992,-422.820557,108.0771479999994
262,-293.71801800000003,-83.33325200000036,141.15380900000036,96.0258789999998,135.6411130000006,120.89746099999957,120.0,123.9741210000002,117.56396500000028,126.79492200000004,92.17968800000017,114.35888699999941,-423.97436500000003,110.64111300000059
263,-293.076904,-83.97436500000003,142.43603499999972,95.0,132.94873000000007,119.74365200000011,119.10253900000043,124.74365200000011,117.05126999999993,127.30761700000039,94.48730499999965,116.0258789999998,-425.64111300000013,116.15380900000036
264,-293.20507799999996,-85.89746100000002,141.6665039999998,93.20507799999996,132.17968800000017,117.82031300000017,119.23095699999976,124.10253900000043,115.89746099999957,126.9228520000006,95.51269500000035,115.12841800000024,-427.3076170000004,116.53857400000015
265,-294.35888699999987,-89.61547900000005,139.10253900000043,91.2822270000006,133.58984400000008,116.79492200000004,120.89746099999957,122.82031300000017,115.64111300000059,126.0258789999998,94.48730499999965,112.17968800000017,-429.2307130000004,111.2822270000006
266,-296.02563499999997,-94.35888699999987,136.0258789999998,89.74365200000011,135.76904300000024,117.43603499999972,123.3334960000002,121.53857400000015,116.9228520000006,125.38476599999922,92.05126999999993,108.9741210000002,-432.5642090000006,107.69238299999961
267,-296.53857400000015,-98.46142599999985,133.7177729999994,89.23095699999976,136.53857400000015,119.23095699999976,125.12841800000024,121.2822270000006,118.84619099999964,125.25634799999989,90.0,107.17968800000017,-437.0512700000004,108.20507799999996
268,-295.0,-99.48706099999981,133.7177729999994,89.87158199999976,135.76904300000024,121.41015599999992,125.38476599999922,121.9228520000006,120.51269500000035,125.89746099999957,90.64111300000059,107.69238299999961,-440.38452099999995,108.20507799999996
269,-292.5642090000006,-97.82055700000001,136.15380900000036,91.2822270000006,134.61523400000078,122.82031300000017,124.23095699999976,122.69238299999961,121.0258789999998,126.9228520000006,93.7177729999994,109.61523400000078,-441.15380900000036,105.64111300000059
270,-292.0512700000004,-96.92309599999999,139.10253900000043,92.17968800000017,134.10253900000043,122.17968800000017,121.9228520000006,122.30761700000039,120.25634799999989,127.30761700000039,96.79492200000004,111.2822270000006,-440.5129390000002,105.51269500000035
271,-294.8718259999996,-99.8718259999996,139.7436520000001,91.0258789999998,133.9741210000002,119.48730499999965,119.23095699999976,119.87158199999976,118.3334960000002,126.53857400000015,97.43603499999972,110.89746099999957,-440.897461,109.74365200000011
272,-299.2307130000004,-106.02563499999997,136.79492200000004,87.94873000000007,133.84619099999964,116.2822270000006,117.30761700000039,117.43603499999972,116.15380900000036,125.25634799999989,95.76904300000024,108.46142599999985,-443.076904,112.69238299999961
273,-302.3076170000004,-111.79492200000004,132.05126999999993,85.12841800000024,133.58984400000008,115.0,117.56396500000028,117.30761700000039,114.87158199999976,124.10253900000043,93.7177729999994,105.64111300000059,-445.7692869999996,110.38476599999922
274,-302.820557,-114.10253899999998,128.7177729999994,83.84619099999964,133.46142599999985,115.76904300000024,119.48730499999965,120.76904300000024,114.23095699999976,123.46142599999985,92.17968800000017,104.10253900000043,-447.9487299999996,107.82031300000017
275,-301.66674799999964,-113.71801800000003,128.3334960000002,84.35888699999941,133.46142599999985,117.30761700000039,121.53857400000015,125.25634799999989,113.46142599999985,123.20507799999996,91.15380900000036,103.7177729999994,-448.97436500000003,110.12841800000024
276,-299.8718259999996,-112.94872999999961,130.12841800000024,85.25634799999989,133.7177729999994,118.0771479999994,121.79492200000004,127.43603499999972,112.17968800000017,122.43603499999972,90.0,103.58984400000008,-449.35888699999987,113.58984400000008
277,-297.820557,-113.07690400000001,132.3076170000004,86.15380900000036,134.61523400000078,117.94873000000007,119.74365200000011,125.25634799999989,111.15380900000036,121.15380900000036,89.10253900000043,103.3334960000002,-449.102539,111.9228520000006
278,-296.15380900000036,-114.74365200000011,133.58984400000008,86.79492200000004,135.12841800000024,117.05126999999993,116.41015599999992,119.74365200000011,111.2822270000006,119.74365200000011,88.9741210000002,103.20507799999996,-448.84619099999964,107.82031300000017
279,-296.15380900000036,-117.30761700000039,132.94873000000007,87.17968800000017,134.61523400000078,115.64111300000059,113.7177729999994,114.23095699999976,112.05126999999993,118.3334960000002,89.35888699999941,103.84619099999964,-449.35888699999987,107.30761700000039
280,-298.20507799999996,-119.8718259999996,131.15380900000036,87.43603499999972,132.6923829999996,114.23095699999976,113.3334960000002,112.30761700000039,113.3334960000002,117.17968800000017,89.61523400000078,104.87158199999976,-451.15380900000036,110.12841800000024
281,-301.41015600000037,-121.66674799999964,129.61523400000078,87.69238299999961,131.15380900000036,114.35888699999941,115.89746099999957,115.0,114.74365200000011,116.15380900000036,89.23095699999976,105.0,-453.71801800000003,110.64111300000059
282,-304.102539,-122.69238299999961,129.61523400000078,88.20507799999996,131.79492200000004,116.53857400000015,119.87158199999976,119.87158199999976,115.64111300000059,116.15380900000036,89.23095699999976,104.23095699999976,-455.897461,109.10253900000043
283,-305.1281740000004,-123.84619099999964,130.76904300000024,89.23095699999976,134.48730499999965,119.74365200000011,123.20507799999996,123.7177729999994,116.2822270000006,117.56396500000028,90.38476599999922,103.58984400000008,-456.66674799999964,109.87158199999976
284,-303.58984399999963,-124.35888699999987,132.17968800000017,91.2822270000006,137.94873000000007,122.30761700000039,124.35888699999941,124.61523400000078,117.43603499999972,121.0258789999998,93.46142599999985,105.25634799999989,-454.7436520000001,112.69238299999961
285,-298.58984399999963,-123.33325200000036,133.46142599999985,94.23095699999976,140.76904300000024,124.35888699999941,123.9741210000002,123.46142599999985,119.74365200000011,126.0258789999998,98.0771479999994,109.74365200000011,-449.8718259999996,111.6665039999998
286,-291.28198199999997,-120.64111300000013,135.12841800000024,96.9228520000006,142.17968800000017,126.15380900000036,122.69238299999961,122.05126999999993,122.94873000000007,131.41015599999992,102.94873000000007,115.76904300000024,-443.71801800000003,106.79492200000004
287,-285.1281740000004,-118.84619099999964,137.94873000000007,98.0771479999994,141.9228520000006,127.30761700000039,121.53857400000015,121.79492200000004,125.0,135.0,105.76904300000024,120.38476599999922,-439.4870609999998,104.74365200000011
288,-283.20507799999996,-120.0,140.76904300000024,97.17968800000017,140.6411130000006,127.30761700000039,120.51269500000035,122.69238299999961,125.25634799999989,135.76904300000024,105.38476599999922,121.15380900000036,-439.8718259999996,108.20507799999996
289,-285.64111300000013,-123.58984399999963,142.17968800000017,95.0,139.48730499999965,126.9228520000006,120.0,124.61523400000078,124.35888699999941,133.84619099999964,102.56396500000028,118.46142599999985,-444.2307130000004,111.2822270000006
290,-290.0,-127.05127000000039,141.2822270000006,92.82031300000017,139.10253900000043,127.17968800000017,120.12841800000024,127.05126999999993,123.58984400000008,131.15380900000036,99.61523400000078,114.48730499999965,-450.2563479999999,110.12841800000024
291,-293.84619099999964,-129.23071300000038,137.94873000000007,91.6665039999998,138.20507799999996,128.20507799999996,120.64111300000059,128.7177729999994,123.58984400000008,128.58984400000008,97.94873000000007,111.53857400000015,-455.64111300000013,108.9741210000002
292,-296.41015600000037,-131.02563499999997,133.46142599999985,91.2822270000006,136.15380900000036,128.7177729999994,121.2822270000006,128.84619099999964,123.7177729999994,126.41015599999992,96.53857400000015,110.25634799999989,-460.1281740000004,111.41015599999992
293,-297.4357909999994,-134.23071300000038,130.0,91.2822270000006,133.7177729999994,127.94873000000007,121.53857400000015,127.82031300000017,123.7177729999994,125.0,93.9741210000002,109.74365200000011,-463.71801800000003,113.20507799999996
294,-297.179443,-139.35888699999987,129.48730499999965,91.2822270000006,132.43603499999972,126.41015599999992,121.0258789999998,126.53857400000015,123.7177729999994,123.9741210000002,90.76904300000024,109.10253900000043,-466.53857400000015,110.51269500000035
295,-296.66674799999964,-145.64111300000013,131.41015599999992,91.0258789999998,132.17968800000017,124.61523400000078,119.10253900000043,125.51269500000035,123.46142599999985,123.20507799999996,88.0771479999994,108.58984400000008,-468.58984399999963,107.17968800000017
296,-297.179443,-150.89746100000002,133.46142599999985,90.25634799999989,131.79492200000004,122.43603499999972,115.89746099999957,124.61523400000078,122.30761700000039,122.82031300000017,86.79492200000004,108.3334960000002,-470.38452099999995,108.84619099999964
297,-298.33325200000036,-153.46142599999985,133.46142599999985,89.35888699999941,130.6411130000006,120.25634799999989,112.69238299999961,123.9741210000002,120.51269500000035,122.94873000000007,86.53857400000015,108.3334960000002,-471.53857400000015,112.69238299999961
298,-298.97436500000003,-152.820557,131.15380900000036,89.10253900000043,129.48730499999965,119.23095699999976,111.41015599999992,123.58984400000008,118.20507799999996,123.7177729999994,86.79492200000004,108.46142599999985,-471.41015600000037,112.69238299999961
299,-298.20507799999996,-150.89746100000002,127.94873000000007,89.35888699999941,128.9741210000002,119.61523400000078,112.82031300000017,123.58984400000008,115.89746099999957,124.23095699999976,86.9228520000006,109.23095699999976,-470.5129390000002,109.87158199999976
300,-297.3076170000004,-151.02563499999997,125.25634799999989,89.74365200000011,129.23095699999976,120.89746099999957,115.64111300000059,123.20507799999996,113.0771479999994,123.20507799999996,86.15380900000036,110.12841800000024,-470.5129390000002,110.76904300000024
301,-297.3076170000004,-153.58984399999963,123.7177729999994,90.25634799999989,130.2563479999999,122.56396500000028,118.0771479999994,121.9228520000006,110.12841800000024,120.12841800000024,84.74365200000011,110.25634799999989,-472.4357909999994,115.0
302,-298.33325200000036,-157.179443,123.84619099999964,91.41015599999992,132.43603499999972,124.61523400000078,119.35888699999941,120.38476599999922,108.46142599999985,116.0258789999998,83.46142599999985,108.9741210000002,-475.0,116.0258789999998
303,-300.1281740000004,-159.7436520000001,124.87158199999976,93.0771479999994,134.87158199999976,126.53857400000015,119.87158199999976,120.0,109.10253900000043,112.94873000000007,83.0771479999994,105.89746099999957,-477.6923829999996,112.05126999999993
304,-302.5642090000006,-161.15380900000036,125.51269500000035,93.84619099999964,135.51269500000035,126.79492200000004,119.74365200000011,121.0258789999998,111.6665039999998,111.6665039999998,82.17968800000017,101.6665039999998,-480.7692869999996,108.84619099999964
305,-304.8718259999996,-162.3076170000004,124.74365200000011,92.69238299999961,133.84619099999964,124.10253900000043,118.9741210000002,122.56396500000028,114.87158199999976,112.43603499999972,79.87158199999976,97.69238299999961,-484.35888699999987,108.84619099999964
306,-305.2563479999999,-162.56420900000057,123.20507799999996,90.76904300000024,131.41015599999992,120.12841800000024,118.3334960000002,124.10253900000043,117.69238299999961,115.38476599999922,77.56396500000028,96.41015599999992,-486.41015600000037,108.46142599999985
307,-302.820557,-161.28198199999997,122.94873000000007,90.12841800000024,130.6411130000006,117.05126999999993,118.0771479999994,126.0258789999998,119.87158199999976,120.12841800000024,77.56396500000028,99.48730499999965,-484.35888699999987,106.0258789999998
308,-298.71801800000003,-159.35888699999987,124.23095699999976,91.53857400000015,131.6665039999998,116.0258789999998,117.56396500000028,127.94873000000007,120.89746099999957,124.61523400000078,80.38476599999922,104.87158199999976,-479.2307130000004,106.53857400000015
309,-295.5129390000002,-158.58984399999963,125.64111300000059,93.20507799999996,132.82031300000017,116.2822270000006,116.0258789999998,128.7177729999994,120.38476599999922,126.9228520000006,84.23095699999976,108.7177729999994,-474.61547900000005,111.9228520000006
310,-294.61547900000005,-160.2563479999999,126.0258789999998,92.94873000000007,132.6923829999996,116.41015599999992,113.9741210000002,126.6665039999998,118.7177729999994,126.2822270000006,86.53857400000015,108.58984400000008,-473.46142599999985,116.15380900000036
311,-295.897461,-164.10253899999998,125.12841800000024,90.0,131.0258789999998,115.25634799999989,111.9228520000006,122.43603499999972,116.9228520000006,123.84619099999964,86.6665039999998,105.64111300000059,-475.897461,114.48730499999965
312,-298.58984399999963,-169.10253899999998,123.7177729999994,85.51269500000035,128.0771479999994,111.9228520000006,110.25634799999989,117.94873000000007,115.64111300000059,121.15380900000036,85.12841800000024,102.94873000000007,-479.8718259999996,111.41015599999992
313,-301.66674799999964,-173.71801800000003,121.9228520000006,81.15380900000036,123.84619099999964,107.56396500000028,108.3334960000002,114.48730499999965,113.9741210000002,119.23095699999976,83.7177729999994,102.05126999999993,-483.71801800000003,112.82031300000017
314,-303.97436500000003,-176.15380900000036,120.25634799999989,78.84619099999964,119.87158199999976,104.48730499999965,106.6665039999998,112.82031300000017,111.9228520000006,118.3334960000002,84.35888699999941,102.69238299999961,-486.28198199999997,115.25634799999989
315,-303.71801800000003,-175.0,119.23095699999976,79.87158199999976,118.58984400000008,105.38476599999922,106.41015599999992,113.0771479999994,110.76904300000024,118.9741210000002,87.43603499999972,103.84619099999964,-487.6923829999996,113.3334960000002
316,-300.64111300000013,-171.66674799999964,120.12841800000024,83.84619099999964,121.2822270000006,109.74365200000011,107.69238299999961,115.12841800000024,111.9228520000006,120.76904300000024,91.41015599999992,105.0,-488.20507799999996,109.10253900000043
317,-296.79492200000004,-169.4870609999998,122.56396500000028,87.94873000000007,126.0258789999998,114.35888699999941,109.23095699999976,117.43603499999972,114.74365200000011,122.56396500000028,93.58984400000008,106.0258789999998,-489.35888699999987,109.23095699999976
318,-294.8718259999996,-170.76928699999962,125.25634799999989,89.74365200000011,129.61523400000078,116.2822270000006,110.12841800000024,118.58984400000008,116.9228520000006,122.05126999999993,92.69238299999961,106.79492200000004,-491.53857400000015,113.0771479999994
319,-296.02563499999997,-174.7436520000001,126.15380900000036,88.58984400000008,130.38476599999922,114.74365200000011,109.74365200000011,117.82031300000017,117.05126999999993,118.9741210000002,89.48730499999965,107.43603499999972,-493.46142599999985,113.7177729999994
320,-298.71801800000003,-178.84619099999964,125.0,86.41015599999992,128.84619099999964,111.41015599999992,108.9741210000002,116.2822270000006,115.0,114.48730499999965,86.0258789999998,107.94873000000007,-493.84619099999964,109.87158199999976
321,-300.897461,-181.28198199999997,122.69238299999961,85.0,126.41015599999992,108.46142599999985,108.20507799999996,115.12841800000024,112.30761700000039,110.89746099999957,84.10253900000043,108.20507799999996,-492.9487299999996,107.05126999999993
322,-301.02563499999997,-181.28198199999997,120.38476599999922,85.12841800000024,124.61523400000078,107.69238299999961,107.94873000000007,115.0,110.89746099999957,110.0,84.23095699999976,108.20507799999996,-492.179443,107.43603499999972
323,-298.71801800000003,-179.35888699999987,119.48730499999965,86.53857400000015,125.25634799999989,109.87158199999976,108.20507799999996,116.15380900000036,112.17968800000017,112.69238299999961,86.53857400000015,108.20507799999996,-492.0512700000004,107.05126999999993
324,-295.5129390000002,-176.923096,120.51269500000035,88.3334960000002,128.46142599999985,113.7177729999994,108.84619099999964,118.0771479999994,115.64111300000059,117.56396500000028,90.12841800000024,108.3334960000002,-492.3076170000004,105.12841800000024
325,-293.97436500000003,-176.28198199999997,122.82031300000017,88.9741210000002,131.9228520000006,116.41015599999992,109.87158199999976,120.0,118.9741210000002,122.56396500000028,93.46142599999985,108.58984400000008,-492.179443,106.15380900000036
326,-296.02563499999997,-178.71801800000003,124.74365200000011,87.56396500000028,132.6923829999996,116.0258789999998,111.15380900000036,120.89746099999957,119.74365200000011,125.25634799999989,95.25634799999989,108.58984400000008,-491.66674799999964,110.76904300000024
327,-299.8718259999996,-182.9487299999996,124.61523400000078,84.61523400000078,130.0,113.58984400000008,112.82031300000017,121.2822270000006,118.0771479999994,125.12841800000024,95.76904300000024,108.7177729999994,-491.28198199999997,112.05126999999993
328,-301.53857400000015,-185.89746100000002,122.43603499999972,82.30761700000039,125.51269500000035,111.6665039999998,114.74365200000011,122.17968800000017,115.89746099999957,123.9741210000002,96.0258789999998,109.48730499999965,-490.7692869999996,106.9228520000006
329,-298.58984399999963,-185.64111300000013,120.25634799999989,82.17968800000017,122.05126999999993,111.53857400000015,116.6665039999998,123.46142599999985,115.51269500000035,123.58984400000008,96.9228520000006,111.0258789999998,-489.7436520000001,102.43603499999972
330,-292.3076170000004,-183.33325200000036,119.61523400000078,84.23095699999976,121.0258789999998,112.56396500000028,117.82031300000017,124.35888699999941,117.17968800000017,124.74365200000011,98.3334960000002,112.82031300000017,-488.33325200000036,104.61523400000078
331,-285.38452099999995,-181.53857400000015,121.0258789999998,87.05126999999993,122.30761700000039,113.20507799999996,117.82031300000017,123.9741210000002,119.23095699999976,126.53857400000015,100.12841800000024,113.46142599999985,-486.79492200000004,109.35888699999941
332,-279.35888699999987,-181.79492200000004,123.3334960000002,89.10253900000043,125.64111300000059,113.0771479999994,116.79492200000004,122.82031300000017,119.74365200000011,127.17968800000017,101.41015599999992,112.69238299999961,-485.2563479999999,109.35888699999941
333,-274.8718259999996,-184.4870609999998,125.0,89.74365200000011,129.10253900000043,112.17968800000017,114.87158199999976,120.89746099999957,117.56396500000028,125.51269500000035,101.79492200000004,111.6665039999998,-485.2563479999999,106.0258789999998
334,-270.2563479999999,-188.46142599999985,124.87158199999976,89.10253900000043,130.38476599999922,109.87158199999976,112.05126999999993,118.0771479999994,113.0771479999994,121.15380900000036,100.12841800000024,111.79492200000004,-487.6923829999996,105.38476599999922
335,-261.66674799999964,-191.66674799999964,122.56396500000028,88.0771479999994,128.0771479999994,107.17968800000017,108.7177729999994,114.35888699999941,108.3334960000002,115.25634799999989,97.17968800000017,113.20507799999996,-491.66674799999964,107.43603499999972
336,-244.35888699999987,-191.41015600000037,120.0,88.3334960000002,123.46142599999985,105.64111300000059,106.53857400000015,111.2822270000006,106.2822270000006,110.76904300000024,94.87158199999976,116.2822270000006,-494.4870609999998,107.69238299999961
337,-217.56420900000057,-187.0512700000004,120.12841800000024,90.0,119.10253900000043,106.41015599999992,107.17968800000017,110.51269500000035,107.82031300000017,109.61523400000078,95.51269500000035,121.15380900000036,-493.33325200000036,106.9228520000006
338,-186.79492200000004,-180.64111300000013,124.10253900000043,92.43603499999972,116.9228520000006,108.58984400000008,110.38476599999922,112.56396500000028,111.41015599999992,111.9228520000006,99.10253900000043,127.82031300000017,-488.58984399999963,110.0
339,-161.53857400000015,-174.7436520000001,129.87158199999976,94.87158199999976,117.82031300000017,110.89746099999957,114.35888699999941,116.6665039999998,114.23095699999976,115.12841800000024,103.7177729999994,134.61523400000078,-482.820557,115.38476599999922
340,-149.61547900000005,-170.0,133.84619099999964,96.79492200000004,121.6665039999998,113.0771479999994,116.9228520000006,121.0258789999998,114.48730499999965,116.6665039999998,107.05126999999993,139.3588869999994,-479.2307130000004,116.53857400000015
341,-154.61547900000005,-167.6923829999996,133.3334960000002,97.94873000000007,126.0258789999998,114.74365200000011,117.43603499999972,123.20507799999996,112.82031300000017,115.51269500000035,107.43603499999972,139.48730499999965,-478.97436500000003,112.30761700000039
342,-172.820557,-170.89746100000002,128.0771479999994,97.05126999999993,127.69238299999961,115.64111300000059,116.2822270000006,121.9228520000006,111.0258789999998,113.3334960000002,104.23095699999976,133.3334960000002,-481.66674799999964,109.74365200000011
343,-192.43579099999943,-182.9487299999996,119.74365200000011,93.3334960000002,125.25634799999989,115.12841800000024,115.12841800000024,118.7177729999994,110.89746099999957,112.69238299999961,98.46142599999985,122.05126999999993,-485.2563479999999,112.30761700000039
344,-195.76928699999962,-201.53857400000015,111.79492200000004,88.84619099999964,120.76904300000024,114.48730499999965,115.12841800000024,116.79492200000004,112.69238299999961,114.48730499999965,92.30761700000039,110.12841800000024,-487.179443,114.74365200000011
345,-169.7436520000001,-217.6923829999996,108.20507799999996,86.41015599999992,117.43603499999972,114.35888699999941,115.64111300000059,118.20507799999996,114.61523400000078,117.05126999999993,88.20507799999996,104.10253900000043,-485.7692869999996,113.58984400000008
346,-116.41015600000037,-222.56420900000057,110.12841800000024,88.46142599999985,116.79492200000004,114.74365200000011,114.87158199999976,121.6665039999998,114.61523400000078,117.30761700000039,86.6665039999998,106.79492200000004,-481.15380900000036,112.82031300000017
347,-54.61547900000005,-214.61547900000005,115.0,94.10253900000043,117.69238299999961,114.48730499999965,112.05126999999993,124.23095699999976,112.69238299999961,114.87158199999976,87.43603499999972,115.12841800000024,-474.102539,115.76904300000024
348,-6.41015600000037,-202.820557,118.58984400000008,100.51269500000035,118.20507799999996,113.9741210000002,108.7177729999994,124.48730499999965,111.2822270000006,112.69238299999961,89.48730499999965,122.56396500000028,-465.1281740000004,117.94873000000007
349,20.128418000000238,-198.71801800000003,118.58984400000008,104.87158199999976,117.43603499999972,114.10253900000043,108.3334960000002,123.46142599999985,112.05126999999993,114.61523400000078,92.69238299999961,125.12841800000024,-453.97436500000003,114.74365200000011
350,34.87158199999976,-208.20507799999996,116.79492200000004,106.53857400000015,115.64111300000059,115.12841800000024,111.9228520000006,122.56396500000028,114.74365200000011,120.76904300000024,95.51269500000035,124.10253900000043,-442.5642090000006,110.51269500000035
351,53.974121000000196,-225.76928699999962,115.76904300000024,107.17968800000017,113.84619099999964,116.15380900000036,116.6665039999998,122.30761700000039,116.41015599999992,126.15380900000036,95.64111300000059,123.46142599999985,-433.076904,111.0258789999998
352,85.0,-238.33325200000036,116.15380900000036,109.23095699999976,113.9741210000002,116.41015599999992,119.10253900000043,121.2822270000006,115.0,125.38476599999922,91.79492200000004,125.89746099999957,-426.15380900000036,113.9741210000002
353,120.89746099999957,-235.1281740000004,116.9228520000006,114.48730499999965,117.43603499999972,116.53857400000015,117.69238299999961,118.84619099999964,110.76904300000024,117.30761700000039,85.0,130.6411130000006,-418.076904,112.94873000000007
354,148.46142599999985,-217.179443,117.43603499999972,121.79492200000004,123.0771479999994,117.17968800000017,114.48730499999965,115.64111300000059,106.41015599999992,106.6665039999998,79.35888699999941,135.76904300000024,-402.5642090000006,109.35888699999941
355,159.61523400000078,-198.20507799999996,117.69238299999961,127.82031300000017,127.69238299999961,118.46142599999985,112.43603499999972,113.84619099999964,104.48730499999965,100.76904300000024,78.58984400000008,139.23095699999976,-375.64111300000013,109.61523400000078
356,157.43603499999972,-192.179443,118.0771479999994,130.0,129.23095699999976,120.12841800000024,113.46142599999985,114.87158199999976,106.0258789999998,103.7177729999994,82.82031300000017,140.12841800000024,-339.7436520000001,113.84619099999964
357,151.6665039999998,-202.56420900000057,118.58984400000008,128.46142599999985,128.3334960000002,121.6665039999998,117.05126999999993,118.20507799999996,109.10253900000043,112.82031300000017,88.20507799999996,139.10253900000043,-302.6923829999996,115.38476599999922
358,150.6411130000006,-220.1281740000004,118.9741210000002,126.0258789999998,126.9228520000006,122.30761700000039,121.15380900000036,121.0258789999998,110.64111300000059,121.15380900000036,90.25634799999989,137.56396500000028,-271.53857400000015,111.79492200000004
359,156.15380900000036,-231.79492200000004,118.9741210000002,125.12841800000024,125.76904300000024,121.2822270000006,123.46142599999985,120.89746099999957,108.84619099999964,123.0771479999994,87.30761700000039,137.3076170000004,-246.15380900000036,108.7177729999994
360,164.10253900000043,-231.66674799999964,119.35888699999941,126.9228520000006,125.0,119.48730499999965,123.20507799999996,118.58984400000008,105.51269500000035,118.9741210000002,82.82031300000017,139.7436520000001,-216.41015600000037,108.9741210000002
361,170.89746099999957,-223.20507799999996,121.6665039999998,131.15380900000036,124.48730499999965,118.58984400000008,121.6665039999998,117.05126999999993,104.23095699999976,114.61523400000078,82.82031300000017,145.38476599999922,-169.7436520000001,109.35888699999941
362,178.0771479999994,-214.35888699999987,126.41015599999992,136.6665039999998,124.48730499999965,119.10253900000043,120.38476599999922,118.3334960000002,106.6665039999998,115.51269500000035,90.76904300000024,153.46142599999985,-101.02563499999997,108.46142599999985
363,190.0,-210.2563479999999,131.9228520000006,141.9228520000006,124.74365200000011,119.61523400000078,119.61523400000078,121.9228520000006,111.15380900000036,121.0258789999998,103.7177729999994,162.3076170000004,-18.846190999999635,110.51269500000035
364,209.10253900000043,-209.4870609999998,135.2563479999999,145.89746099999957,124.35888699999941,118.3334960000002,118.58984400000008,125.0,114.35888699999941,126.53857400000015,114.87158199999976,169.10253900000043,60.51269500000035,115.64111300000059
365,230.2563479999999,-207.56420900000057,134.7436520000001,148.0771479999994,123.46142599999985,115.64111300000059,117.05126999999993,125.51269500000035,115.0,127.94873000000007,119.48730499999965,171.6665039999998,125.76904300000024,117.30761700000039
366,243.58984400000008,-201.66674799999964,131.0258789999998,149.23095699999976,122.56396500000028,113.0771479999994,116.15380900000036,123.9741210000002,113.9741210000002,125.64111300000059,119.23095699999976,169.48730499999965,177.43603499999972,111.9228520000006
367,243.84619099999964,-192.820557,126.53857400000015,150.0,122.05126999999993,111.9228520000006,116.41015599999992,122.30761700000039,112.17968800000017,122.43603499999972,120.64111300000059,164.7436520000001,226.0258789999998,105.89746099999957
368,236.79492200000004,-183.58984399999963,123.84619099999964,151.53857400000015,121.6665039999998,111.41015599999992,116.79492200000004,121.2822270000006,109.48730499999965,120.89746099999957,129.23095699999976,161.6665039999998,283.7177729999994,106.79492200000004
369,235.51269500000035,-173.84619099999964,124.74365200000011,154.3588869999994,121.6665039999998,111.0258789999998,116.53857400000015,120.25634799999989,106.15380900000036,121.2822270000006,145.38476599999922,163.9741210000002,357.05126999999993,111.2822270000006
370,247.43603499999972,-162.6923829999996,128.0771479999994,158.58984400000008,122.43603499999972,110.89746099999957,115.25634799999989,118.9741210000002,103.7177729999994,122.82031300000017,163.84619099999964,171.15380900000036,442.05126999999993,112.30761700000039
371,266.53857400000015,-151.66674799999964,130.76904300000024,162.05126999999993,122.82031300000017,111.15380900000036,113.9741210000002,117.56396500000028,103.46142599999985,123.9741210000002,177.3076170000004,178.84619099999964,526.2822270000006,110.25634799999989
372,280.76904300000024,-144.8718259999996,130.12841800000024,162.82031300000017,121.79492200000004,111.2822270000006,113.9741210000002,116.79492200000004,104.74365200000011,123.9741210000002,181.79492200000004,181.79492200000004,596.6665039999998,110.12841800000024
373,284.87158199999976,-143.33325200000036,127.05126999999993,161.53857400000015,119.10253900000043,111.41015599999992,115.89746099999957,117.30761700000039,105.64111300000059,123.0771479999994,179.3588869999994,178.7177729999994,648.4614259999998,111.53857400000015
374,284.87158199999976,-142.0512700000004,125.12841800000024,161.9228520000006,116.9228520000006,111.53857400000015,119.10253900000043,118.46142599999985,105.0,121.9228520000006,176.2822270000006,173.7177729999994,687.5639650000003,110.12841800000024
375,288.7177729999994,-133.33325200000036,127.43603499999972,167.05126999999993,116.79492200000004,111.79492200000004,121.2822270000006,118.7177729999994,102.82031300000017,120.89746099999957,177.94873000000007,171.53857400000015,724.3588869999994,106.79492200000004
376,297.4360349999997,-113.71801800000003,132.43603499999972,175.89746099999957,118.46142599999985,111.2822270000006,120.51269500000035,116.53857400000015,100.25634799999989,119.48730499999965,184.23095699999976,173.9741210000002,764.1025390000004,107.17968800000017
377,306.2822270000006,-87.17944299999999,135.89746099999957,184.3588869999994,120.12841800000024,109.74365200000011,116.79492200000004,112.94873000000007,98.58984400000008,117.69238299999961,191.15380900000036,178.58984400000008,804.7436520000001,111.41015599999992
378,310.2563479999999,-62.435790999999426,135.0,188.84619099999964,120.76904300000024,108.58984400000008,112.43603499999972,110.12841800000024,98.84619099999964,116.41015599999992,194.23095699999976,181.6665039999998,839.7436520000001,113.20507799999996
379,306.0258789999998,-47.17944299999999,129.61523400000078,188.0771479999994,119.74365200000011,108.84619099999964,110.12841800000024,110.0,101.0258789999998,115.38476599999922,191.0258789999998,179.23095699999976,863.5898440000001,110.51269500000035
380,292.94873000000007,-42.82055700000001,122.30761700000039,183.7177729999994,117.56396500000028,110.76904300000024,110.12841800000024,111.41015599999992,102.05126999999993,112.43603499999972,182.05126999999993,169.61523400000078,876.4101559999999,108.84619099999964
381,276.4101559999999,-42.69238299999961,115.76904300000024,179.87158199999976,115.0,112.94873000000007,111.41015599999992,111.2822270000006,99.23095699999976,106.15380900000036,171.6665039999998,155.76904300000024,886.2822270000006,110.51269500000035
382,267.3076170000004,-36.41015600000037,112.05126999999993,180.2563479999999,113.3334960000002,114.23095699999976,112.30761700000039,108.46142599999985,92.82031300000017,98.46142599999985,166.6665039999998,144.48730499999965,905.2563479999999,110.76904300000024
383,275.51269500000035,-18.205077999999958,112.30761700000039,185.38476599999922,112.56396500000028,114.23095699999976,111.9228520000006,104.61523400000078,86.9228520000006,93.58984400000008,171.6665039999998,141.9228520000006,940.2563479999999,106.79492200000004
