,EEG.AF3,EEG.F7,EEG.F3,EEG.FC5,EEG.T7,EEG.P7,EEG.O1,EEG.O2,EEG.P8,EEG.T8,EEG.FC6,EEG.F4,EEG.F8,EEG.AF4
0,53.7177729999994,20.769043000000238,101.9228520000006,103.0771479999994,101.6665039999998,111.15380900000036,109.48730499999965,109.35888699999941,108.58984400000008,116.79492200000004,113.46142599999985,113.0771479999994,-135.64111300000013,113.20507799999996
1,58.589844000000085,25.769043000000238,105.51269500000035,105.25634799999989,112.56396500000028,115.12841800000024,109.74365200000011,112.43603499999972,112.94873000000007,120.76904300000024,120.12841800000024,118.3334960000002,-126.02563499999997,116.53857400000015
2,63.846190999999635,31.666503999999804,108.3334960000002,108.0771479999994,120.38476599999922,117.30761700000039,110.0,115.89746099999957,117.69238299999961,125.64111300000059,124.35888699999941,122.17968800000017,-119.61547900000005,117.17968800000017
3,67.43603499999972,35.897460999999566,109.23095699999976,110.38476599999922,121.41015599999992,117.30761700000039,110.38476599999922,118.0771479999994,120.38476599999922,129.23095699999976,124.35888699999941,122.69238299999961,-117.56420900000057,111.79492200000004
4,68.0771479999994,36.79492200000004,108.58984400000008,110.89746099999957,116.0258789999998,115.76904300000024,110.89746099999957,118.58984400000008,119.35888699999941,129.7436520000001,120.89746099999957,120.25634799999989,-119.10253899999998,106.9228520000006
5,66.41015599999992,34.87158199999976,107.69238299999961,109.48730499999965,108.0771479999994,113.9741210000002,111.9228520000006,117.94873000000007,115.51269500000035,126.9228520000006,116.0258789999998,116.41015599999992,-121.66674799999964,108.58984400000008
6,65.25634799999989,32.69238299999961,107.30761700000039,107.82031300000017,103.0771479999994,113.0771479999994,113.58984400000008,117.30761700000039,111.53857400000015,122.69238299999961,112.56396500000028,114.23095699999976,-122.17944299999999,112.69238299999961
7,66.79492200000004,33.20507799999996,108.46142599999985,107.43603499999972,105.12841800000024,114.10253900000043,115.51269500000035,117.43603499999972,110.38476599999922,120.38476599999922,112.69238299999961,115.89746099999957,-118.58984399999963,111.9228520000006
8,71.2822270000006,36.410155999999915,111.15380900000036,108.9741210000002,113.20507799999996,116.41015599999992,116.53857400000015,117.56396500000028,111.79492200000004,121.53857400000015,116.53857400000015,121.0258789999998,-111.66674799999964,107.94873000000007
9,75.76904300000024,39.48730499999965,113.9741210000002,111.0258789999998,121.6665039999998,117.94873000000007,115.89746099999957,116.6665039999998,113.46142599999985,124.48730499999965,121.2822270000006,127.05126999999993,-105.0,107.05126999999993
10,77.17968800000017,39.48730499999965,114.74365200000011,111.53857400000015,123.84619099999964,117.56396500000028,113.7177729999994,115.0,113.3334960000002,126.41015599999992,123.46142599999985,130.38476599999922,-101.92309599999999,108.84619099999964
11,73.84619099999964,36.153809000000365,112.56396500000028,108.84619099999964,118.0771479999994,116.15380900000036,111.53857400000015,113.84619099999964,111.79492200000004,125.0,120.89746099999957,128.58984400000008,-103.71801800000003,108.3334960000002
12,65.64111300000059,31.282227000000603,107.94873000000007,103.84619099999964,107.82031300000017,115.0,110.51269500000035,113.84619099999964,110.0,120.89746099999957,114.74365200000011,121.53857400000015,-109.23071300000038,105.76904300000024
13,55.0,26.666503999999804,102.30761700000039,98.7177729999994,99.23095699999976,114.61523400000078,110.64111300000059,114.35888699999941,108.9741210000002,116.2822270000006,107.69238299999961,111.9228520000006,-115.51293900000019,106.79492200000004
14,47.94873000000007,24.102539000000434,97.94873000000007,96.53857400000015,96.9228520000006,114.74365200000011,111.15380900000036,113.7177729999994,108.84619099999964,112.82031300000017,103.58984400000008,103.7177729999994,-119.23071300000038,111.41015599999992
15,50.897460999999566,25.25634799999989,96.9228520000006,99.10253900000043,102.05126999999993,115.12841800000024,111.2822270000006,111.9228520000006,109.35888699999941,111.79492200000004,104.48730499999965,101.0258789999998,-117.82055700000001,113.3334960000002
16,64.74365200000011,29.871581999999762,100.0,105.0,110.76904300000024,115.89746099999957,110.76904300000024,110.38476599999922,109.87158199999976,113.0771479999994,109.23095699999976,105.51269500000035,-110.89746100000002,110.64111300000059
17,82.30761700000039,34.74365200000011,105.76904300000024,110.51269500000035,116.79492200000004,116.2822270000006,110.12841800000024,110.89746099999957,110.12841800000024,115.51269500000035,114.23095699999976,114.48730499999965,-101.66674799999964,109.10253900000043
18,93.58984400000008,36.025878999999804,110.64111300000059,111.79492200000004,115.76904300000024,115.51269500000035,109.87158199999976,113.84619099999964,109.74365200000011,117.56396500000028,115.89746099999957,122.05126999999993,-95.38452099999995,111.53857400000015
19,93.46142599999985,32.43603499999972,112.05126999999993,108.58984400000008,108.9741210000002,114.35888699999941,110.51269500000035,117.56396500000028,109.87158199999976,118.46142599999985,113.3334960000002,123.58984400000008,-95.38452099999995,112.82031300000017
20,84.74365200000011,26.282227000000603,110.0,104.23095699999976,102.05126999999993,114.23095699999976,111.9228520000006,119.35888699999941,110.51269500000035,118.20507799999996,108.84619099999964,118.46142599999985,-100.89746100000002,109.74365200000011
21,76.0258789999998,21.794922000000042,106.53857400000015,102.30761700000039,99.48730499999965,115.12841800000024,112.56396500000028,117.30761700000039,111.0258789999998,116.6665039999998,105.0,110.51269500000035,-107.94872999999961,107.43603499999972
22,75.51269500000035,22.30761700000039,104.10253900000043,104.35888699999941,101.41015599999992,115.38476599999922,111.0258789999998,111.79492200000004,110.64111300000059,113.84619099999964,103.84619099999964,104.74365200000011,-111.28198199999997,110.64111300000059
23,88.0771479999994,28.205077999999958,103.84619099999964,108.58984400000008,105.12841800000024,113.7177729999994,107.56396500000028,106.15380900000036,109.87158199999976,110.51269500000035,105.64111300000059,104.87158199999976,-107.69238299999961,114.61523400000078
24,112.05126999999993,36.025878999999804,105.25634799999989,112.17968800000017,108.0771479999994,111.15380900000036,103.84619099999964,103.46142599999985,109.74365200000011,108.3334960000002,109.61523400000078,111.53857400000015,-97.82055700000001,113.58984400000008
25,140.12841800000024,41.025878999999804,107.56396500000028,113.58984400000008,109.61523400000078,109.35888699999941,102.05126999999993,104.61523400000078,110.12841800000024,108.20507799999996,113.84619099999964,122.43603499999972,-85.76928699999962,110.25634799999989
26,166.0258789999998,41.53857400000015,110.12841800000024,113.7177729999994,109.35888699999941,109.10253900000043,102.56396500000028,107.56396500000028,110.38476599999922,110.12841800000024,116.53857400000015,133.3334960000002,-75.64111300000013,110.64111300000059
27,189.48730499999965,40.76904300000024,112.94873000000007,115.12841800000024,107.43603499999972,109.74365200000011,104.48730499999965,110.38476599999922,110.12841800000024,113.7177729999994,118.20507799999996,141.2822270000006,-68.33325200000036,113.84619099999964
28,214.3588869999994,43.46142599999985,115.89746099999957,119.23095699999976,104.10253900000043,110.25634799999989,105.76904300000024,111.9228520000006,110.0,118.20507799999996,119.35888699999941,145.76904300000024,-60.89746100000002,114.23095699999976
29,238.84619099999964,50.51269500000035,117.82031300000017,123.9741210000002,100.12841800000024,109.87158199999976,104.48730499999965,111.6665039999998,110.25634799999989,121.79492200000004,119.48730499999965,145.76904300000024,-50.51293900000019,112.05126999999993
30,254.48730499999965,56.2822270000006,116.53857400000015,125.89746099999957,97.17968800000017,107.82031300000017,99.87158199999976,109.48730499999965,110.25634799999989,122.05126999999993,116.41015599999992,139.87158199999976,-36.153809000000365,112.30761700000039
31,256.15380900000036,55.0,111.15380900000036,123.20507799999996,97.94873000000007,105.38476599999922,93.9741210000002,105.64111300000059,109.23095699999976,118.7177729999994,109.74365200000011,129.10253900000043,-16.025634999999966,114.87158199999976
32,253.7177729999994,47.43603499999972,104.74365200000011,119.74365200000011,103.7177729999994,104.74365200000011,90.12841800000024,102.56396500000028,107.30761700000039,113.84619099999964,103.0771479999994,119.35888699999941,15.769043000000238,114.48730499999965
33,268.0771479999994,40.76904300000024,102.56396500000028,121.15380900000036,111.79492200000004,106.79492200000004,90.64111300000059,102.17968800000017,105.89746099999957,110.76904300000024,101.6665039999998,119.10253900000043,65.76904300000024,110.76904300000024
34,311.4101559999999,42.82031300000017,106.6665039999998,129.7436520000001,116.79492200000004,109.61523400000078,95.25634799999989,104.74365200000011,105.89746099999957,111.0258789999998,106.9228520000006,130.76904300000024,135.12841800000024,109.48730499999965
35,370.12841800000024,55.51269500000035,113.58984400000008,142.3076170000004,115.12841800000024,110.51269500000035,100.38476599999922,107.94873000000007,106.6665039999998,112.82031300000017,114.35888699999941,146.53857400000015,216.2822270000006,112.43603499999972
36,412.05126999999993,73.9741210000002,116.53857400000015,152.17968800000017,108.46142599999985,108.84619099999964,102.43603499999972,109.23095699999976,107.05126999999993,113.58984400000008,116.0258789999998,153.7177729999994,300.3847659999992,113.84619099999964
37,413.84619099999964,91.9228520000006,111.0258789999998,154.87158199999976,102.05126999999993,106.0258789999998,100.0,106.9228520000006,106.15380900000036,110.76904300000024,108.20507799999996,145.0,385.2563479999999,111.0258789999998
38,385.2563479999999,109.35888699999941,99.87158199999976,151.6665039999998,99.10253900000043,102.56396500000028,94.10253900000043,101.41015599999992,103.46142599999985,104.35888699999941,94.48730499999965,126.0258789999998,480.0,109.23095699999976
39,366.2822270000006,135.12841800000024,90.38476599999922,149.7436520000001,99.23095699999976,98.58984400000008,87.56396500000028,94.87158199999976,99.74365200000011,96.9228520000006,84.48730499999965,111.53857400000015,599.1025390000004,112.56396500000028
40,396.15380900000036,180.2563479999999,89.61523400000078,156.79492200000004,99.87158199999976,93.9741210000002,83.3334960000002,89.87158199999976,96.2822270000006,92.56396500000028,86.2822270000006,114.61523400000078,749.4873049999997,116.6665039999998
41,477.3076170000004,247.56396500000028,97.94873000000007,173.46142599999985,98.7177729999994,89.87158199999976,82.69238299999961,87.94873000000007,95.0,93.20507799999996,99.10253900000043,135.12841800000024,919.4873049999997,116.15380900000036
42,568.3334960000002,324.6152340000008,108.3334960000002,192.56396500000028,95.38476599999922,87.17968800000017,84.35888699999941,88.7177729999994,95.89746099999957,97.05126999999993,112.69238299999961,158.7177729999994,1082.5639650000003,113.3334960000002
43,614.2309569999998,392.05126999999993,111.41015599999992,203.46142599999985,90.89746099999957,87.05126999999993,86.0258789999998,90.12841800000024,97.30761700000039,100.12841800000024,115.64111300000059,167.6923829999996,1215.3847659999992,113.20507799999996
44,592.1796880000002,439.87158199999976,103.3334960000002,201.6665039999998,87.56396500000028,89.48730499999965,86.2822270000006,90.76904300000024,97.56396500000028,99.61523400000078,105.51269500000035,154.87158199999976,1316.2822270000006,113.84619099999964
45,533.0771479999994,476.53857400000015,89.23095699999976,193.46142599999985,87.30761700000039,93.3334960000002,85.38476599999922,90.64111300000059,96.79492200000004,95.89746099999957,91.0258789999998,130.38476599999922,1405.3847659999992,111.15380900000036
46,498.0771479999994,521.9228520000006,79.48730499999965,189.87158199999976,89.48730499999965,95.64111300000059,84.23095699999976,89.61523400000078,95.89746099999957,90.64111300000059,84.10253900000043,113.7177729999994,1505.8974609999996,107.43603499999972
47,529.2309569999998,589.6152340000008,80.76904300000024,197.6923829999996,91.41015599999992,94.10253900000043,82.94873000000007,87.30761700000039,95.0,85.38476599999922,89.74365200000011,117.43603499999972,1624.743652,108.58984400000008
48,613.5898440000001,674.6152340000008,90.38476599999922,213.3334960000002,90.38476599999922,89.10253900000043,81.41015599999992,83.9741210000002,93.7177729999994,80.64111300000059,102.82031300000017,137.3076170000004,1747.1796880000002,112.69238299999961
49,693.0771479999994,757.0512699999999,99.10253900000043,226.6665039999998,85.64111300000059,84.35888699999941,79.74365200000011,80.51269500000035,91.6665039999998,77.56396500000028,113.20507799999996,156.0258789999998,1848.9741210000002,113.0771479999994
50,713.7177729999994,817.8203130000002,99.48730499999965,229.7436520000001,78.46142599999985,83.0771479999994,78.58984400000008,78.58984400000008,89.61523400000078,76.6665039999998,113.9741210000002,158.3334960000002,1912.94873,109.74365200000011
51,669.4873049999997,853.205078,91.41015599999992,222.6923829999996,71.79492200000004,84.74365200000011,77.94873000000007,78.3334960000002,88.0771479999994,77.43603499999972,106.41015599999992,143.3334960000002,1941.6665039999998,108.84619099999964
52,604.1025390000004,876.2822270000006,81.79492200000004,213.3334960000002,68.58984400000008,86.79492200000004,78.0771479999994,78.9741210000002,87.05126999999993,78.0771479999994,97.43603499999972,123.46142599999985,1953.4614259999998,111.41015599999992
53,569.8715819999998,903.9741210000002,78.0771479999994,210.38476599999922,70.51269500000035,87.17968800000017,78.3334960000002,79.61523400000078,86.2822270000006,76.6665039999998,93.7177729999994,113.0771479999994,1967.94873,111.6665039999998
54,583.3334960000002,941.794922,81.79492200000004,215.89746099999957,75.89746099999957,85.64111300000059,78.20507799999996,79.48730499999965,86.2822270000006,72.69238299999961,96.15380900000036,116.0258789999998,1991.9228520000006,107.56396500000028
55,619.2309569999998,980.0,88.20507799999996,224.23095699999976,80.89746099999957,82.69238299999961,77.17968800000017,78.46142599999985,86.79492200000004,67.69238299999961,100.0,125.12841800000024,2017.1796880000002,105.38476599999922
56,640.0,1004.6152340000008,91.0258789999998,228.20507799999996,82.43603499999972,79.74365200000011,75.38476599999922,76.79492200000004,86.9228520000006,63.846190999999635,101.0258789999998,130.2563479999999,2032.3076170000004,108.58984400000008
57,631.794922,1011.0258789999998,88.7177729999994,225.76904300000024,80.89746099999957,78.7177729999994,74.10253900000043,75.76904300000024,86.79492200000004,63.46142599999985,100.25634799999989,128.9741210000002,2035.256348,112.05126999999993
58,611.9228520000006,1006.6665039999998,85.64111300000059,221.15380900000036,79.87158199999976,80.38476599999922,74.35888699999941,76.15380900000036,86.2822270000006,66.79492200000004,101.9228520000006,126.41015599999992,2032.3076170000004,110.76904300000024
59,604.8715819999998,1003.205078,87.05126999999993,219.61523400000078,80.76904300000024,82.69238299999961,75.38476599999922,77.30761700000039,85.64111300000059,71.0258789999998,108.0771479999994,128.84619099999964,2029.6152340000008,108.0771479999994
60,615.8974609999996,1005.7690430000002,93.0771479999994,221.79492200000004,82.69238299999961,82.56396500000028,75.64111300000059,77.69238299999961,84.35888699999941,72.69238299999961,115.51269500000035,136.0258789999998,2025.8974609999996,108.7177729999994
61,627.6923829999996,1009.8715819999998,98.7177729999994,223.58984400000008,83.20507799999996,79.87158199999976,74.23095699999976,76.9228520000006,82.82031300000017,70.89746099999957,118.84619099999964,140.89746099999957,2015.0,110.25634799999989
62,620.8974609999996,1006.794922,99.48730499999965,220.51269500000035,81.53857400000015,76.79492200000004,72.56396500000028,76.0258789999998,82.69238299999961,68.0771479999994,115.89746099999957,137.05126999999993,1993.8461909999996,108.3334960000002
63,595.7690430000002,992.8203130000002,95.89746099999957,212.05126999999993,78.58984400000008,75.64111300000059,72.05126999999993,76.6665039999998,84.35888699999941,66.9228520000006,109.74365200000011,126.41015599999992,1966.6665039999998,105.89746099999957
64,573.9741210000002,974.7436520000001,92.56396500000028,202.6923829999996,76.2822270000006,76.41015599999992,73.3334960000002,78.3334960000002,86.79492200000004,67.43603499999972,106.2822270000006,117.43603499999972,1943.205078,108.0771479999994
65,576.2822270000006,964.6152340000008,93.20507799999996,198.58984400000008,75.89746099999957,77.82031300000017,74.87158199999976,79.74365200000011,88.20507799999996,67.30761700000039,108.3334960000002,117.82031300000017,1930.8974609999996,112.05126999999993
66,602.3076170000004,968.7177729999994,97.56396500000028,201.41015599999992,77.56396500000028,78.58984400000008,75.38476599999922,79.87158199999976,87.17968800000017,64.74365200000011,114.23095699999976,127.56396500000028,1929.2309569999998,111.0258789999998
67,627.1796880000002,980.0,101.6665039999998,207.17968800000017,78.58984400000008,78.3334960000002,74.74365200000011,78.84619099999964,84.74365200000011,60.51269500000035,118.20507799999996,138.3334960000002,1928.589844,106.2822270000006
68,623.3334960000002,983.5898440000001,101.0258789999998,209.10253900000043,76.0258789999998,77.30761700000039,73.84619099999964,77.69238299999961,82.43603499999972,57.17968800000017,115.38476599999922,140.12841800000024,1917.5639650000003,105.12841800000024
69,586.2822270000006,970.8974609999996,94.74365200000011,203.84619099999964,70.76904300000024,76.53857400000015,73.84619099999964,76.15380900000036,81.6665039999998,56.2822270000006,105.89746099999957,130.0,1891.9228520000006,108.7177729999994
70,540.8974609999996,947.1796880000002,87.30761700000039,194.48730499999965,66.6665039999998,77.05126999999993,74.87158199999976,75.0,83.20507799999996,57.82031300000017,95.38476599999922,114.48730499999965,1859.3588869999994,110.76904300000024
71,518.9741210000002,926.2822270000006,84.61523400000078,187.3076170000004,67.05126999999993,78.84619099999964,75.89746099999957,75.0,85.76904300000024,59.87158199999976,91.2822270000006,105.0,1832.94873,109.10253900000043
72,531.2822270000006,917.8203130000002,88.9741210000002,186.15380900000036,71.2822270000006,80.76904300000024,76.0258789999998,77.17968800000017,87.69238299999961,61.53857400000015,96.2822270000006,107.82031300000017,1820.6411130000006,108.46142599999985
73,560.1284180000002,921.4101559999999,96.79492200000004,190.76904300000024,76.53857400000015,81.79492200000004,75.64111300000059,81.15380900000036,88.9741210000002,63.333496000000196,106.9228520000006,119.61523400000078,1819.743652,111.0258789999998
74,579.1025390000004,930.2563479999999,102.17968800000017,197.05126999999993,81.0258789999998,82.30761700000039,76.53857400000015,85.64111300000059,90.64111300000059,66.6665039999998,116.6665039999998,131.6665039999998,1820.256348,112.69238299999961
75,576.5385740000002,936.9228520000006,103.0771479999994,201.15380900000036,84.48730499999965,83.84619099999964,79.48730499999965,89.35888699999941,93.0771479999994,71.79492200000004,120.76904300000024,137.94873000000007,1812.8203130000002,110.51269500000035
76,561.6665039999998,937.4360349999997,102.05126999999993,200.89746099999957,86.15380900000036,86.41015599999992,82.82031300000017,91.15380900000036,95.0,76.6665039999998,118.9741210000002,138.7177729999994,1794.6152340000008,109.48730499999965
77,550.8974609999996,931.5385740000002,102.05126999999993,196.9228520000006,85.25634799999989,89.10253900000043,83.84619099999964,90.64111300000059,95.0,79.23095699999976,114.74365200000011,137.3076170000004,1770.1284180000002,112.17968800000017
78,551.0258789999998,921.2822270000006,103.9741210000002,191.9228520000006,83.0771479999994,91.2822270000006,82.30761700000039,88.58984400000008,93.84619099999964,79.35888699999941,112.43603499999972,136.41015599999992,1746.5385740000002,113.7177729999994
79,555.0,909.6152340000008,106.41015599999992,188.7177729999994,82.82031300000017,93.20507799999996,80.64111300000059,87.17968800000017,93.58984400000008,79.23095699999976,114.87158199999976,136.0258789999998,1729.1025390000004,109.87158199999976
80,552.0512699999999,897.4360349999997,107.94873000000007,187.94873000000007,86.0258789999998,95.38476599999922,82.17968800000017,88.20507799999996,96.15380900000036,81.6665039999998,121.15380900000036,135.51269500000035,1717.8203130000002,105.25634799999989
81,541.6665039999998,884.8715819999998,108.7177729999994,188.46142599999985,91.41015599999992,97.69238299999961,87.30761700000039,91.9228520000006,101.15380900000036,87.43603499999972,127.82031300000017,135.38476599999922,1708.8461909999996,106.9228520000006
82,535.1284180000002,873.3334960000002,110.0,188.46142599999985,95.51269500000035,99.10253900000043,93.46142599999985,96.41015599999992,106.6665039999998,94.87158199999976,132.43603499999972,137.56396500000028,1698.4614259999998,111.9228520000006
83,541.6665039999998,865.0,113.0771479999994,187.6923829999996,95.89746099999957,98.7177729999994,96.15380900000036,99.48730499999965,109.87158199999976,100.12841800000024,134.61523400000078,142.82031300000017,1684.743652,113.0771479999994
84,554.7436520000001,859.1025390000004,116.2822270000006,185.89746099999957,91.79492200000004,95.89746099999957,93.0771479999994,99.87158199999976,108.7177729999994,99.87158199999976,134.61523400000078,148.84619099999964,1666.2822270000006,110.38476599999922
85,556.0258789999998,850.1284180000002,116.2822270000006,182.56396500000028,85.64111300000059,91.2822270000006,85.38476599999922,97.69238299999961,103.58984400000008,93.84619099999964,132.05126999999993,150.38476599999922,1641.410156,110.0
86,534.4873049999997,832.4360349999997,111.0258789999998,177.05126999999993,81.0258789999998,86.9228520000006,77.30761700000039,94.23095699999976,97.43603499999972,85.38476599999922,126.9228520000006,144.23095699999976,1610.5126950000003,112.43603499999972
87,500.6411130000006,807.4360349999997,103.46142599999985,171.15380900000036,80.64111300000059,84.87158199999976,73.46142599999985,91.41015599999992,93.9741210000002,78.84619099999964,120.64111300000059,132.6923829999996,1577.8203130000002,112.56396500000028
88,476.9228520000006,783.3334960000002,99.23095699999976,167.43603499999972,84.23095699999976,85.64111300000059,75.12841800000024,90.0,94.48730499999965,76.79492200000004,116.0258789999998,122.56396500000028,1549.8715819999998,109.74365200000011
89,476.0258789999998,767.8203130000002,101.0258789999998,167.3076170000004,88.20507799999996,87.94873000000007,80.12841800000024,89.23095699999976,97.30761700000039,78.46142599999985,113.9741210000002,119.35888699999941,1530.256348,109.10253900000043
90,489.10253900000043,761.794922,106.53857400000015,169.61523400000078,89.74365200000011,90.38476599999922,84.87158199999976,88.7177729999994,98.9741210000002,81.0258789999998,113.9741210000002,122.17968800000017,1516.9228520000006,112.05126999999993
91,497.05126999999993,760.0,110.38476599999922,172.05126999999993,88.7177729999994,93.20507799999996,88.58984400000008,88.84619099999964,97.69238299999961,82.30761700000039,114.61523400000078,126.6665039999998,1505.256348,113.0771479999994
92,489.6152340000008,756.9228520000006,110.38476599999922,173.7177729999994,87.82031300000017,97.05126999999993,91.6665039999998,89.48730499999965,94.87158199999976,81.79492200000004,115.38476599999922,128.9741210000002,1492.05127,110.38476599999922
93,474.3588869999994,750.8974609999996,108.46142599999985,175.12841800000024,89.61523400000078,100.76904300000024,94.61523400000078,89.74365200000011,92.43603499999972,79.74365200000011,116.41015599999992,129.23095699999976,1476.794922,109.48730499999965
94,467.94873000000007,743.7177729999994,108.46142599999985,176.41015599999992,94.48730499999965,102.82031300000017,96.6665039999998,89.10253900000043,91.6665039999998,77.05126999999993,117.56396500000028,129.7436520000001,1460.3847659999992,113.46142599999985
95,478.7177729999994,737.8203130000002,112.05126999999993,176.79492200000004,100.38476599999922,102.94873000000007,96.9228520000006,88.3334960000002,92.69238299999961,75.51269500000035,118.58984400000008,132.3076170000004,1443.9741210000002,115.89746099999957
96,498.0771479999994,730.8974609999996,117.43603499999972,175.51269500000035,103.84619099999964,101.9228520000006,96.15380900000036,88.7177729999994,95.0,76.0258789999998,118.7177729999994,136.15380900000036,1427.1796880000002,112.05126999999993
97,505.76904300000024,718.4614259999998,120.64111300000059,171.6665039999998,102.56396500000028,100.76904300000024,95.51269500000035,90.89746099999957,97.56396500000028,78.3334960000002,117.69238299999961,138.58984400000008,1409.4873049999997,106.9228520000006
98,488.84619099999964,698.205078,118.9741210000002,166.2822270000006,98.46142599999985,99.61523400000078,95.51269500000035,93.84619099999964,99.10253900000043,80.51269500000035,115.25634799999989,137.43603499999972,1391.0258789999998,107.43603499999972
99,455.89746099999957,674.6152340000008,114.10253900000043,161.79492200000004,95.38476599999922,99.35888699999941,95.76904300000024,95.89746099999957,99.23095699999976,81.53857400000015,112.69238299999961,133.20507799999996,1373.4614259999998,111.53857400000015
100,430.0,656.2822270000006,110.38476599999922,160.51269500000035,96.0258789999998,100.25634799999989,95.51269500000035,96.41015599999992,98.58984400000008,81.79492200000004,111.53857400000015,129.10253900000043,1359.1025390000004,113.0771479999994
101,428.0771479999994,648.4614259999998,111.2822270000006,162.05126999999993,98.58984400000008,101.6665039999998,93.84619099999964,95.12841800000024,97.82031300000017,81.6665039999998,112.17968800000017,128.3334960000002,1348.205078,112.69238299999961
102,446.0258789999998,648.5898440000001,115.12841800000024,163.9741210000002,98.3334960000002,101.9228520000006,90.89746099999957,92.56396500000028,96.79492200000004,80.76904300000024,112.69238299999961,130.0,1338.589844,114.61523400000078
103,463.20507799999996,647.8203130000002,117.56396500000028,163.3334960000002,93.0771479999994,100.25634799999989,88.0771479999994,89.87158199999976,95.25634799999989,78.84619099999964,111.0258789999998,130.51269500000035,1327.3076170000004,117.17968800000017
104,460.89746099999957,638.4614259999998,115.12841800000024,159.23095699999976,85.76904300000024,97.69238299999961,87.05126999999993,88.7177729999994,93.84619099999964,76.41015599999992,106.6665039999998,126.79492200000004,1312.5639650000003,115.0
105,436.9228520000006,618.9741210000002,109.10253900000043,153.84619099999964,81.15380900000036,95.12841800000024,88.0771479999994,89.61523400000078,93.0771479999994,74.23095699999976,100.12841800000024,119.23095699999976,1293.9741210000002,109.61523400000078
106,404.87158199999976,595.8974609999996,103.20507799999996,150.12841800000024,81.53857400000015,92.94873000000007,89.48730499999965,91.0258789999998,93.0771479999994,72.69238299999961,93.9741210000002,111.41015599999992,1273.9741210000002,107.94873000000007
107,383.20507799999996,578.3334960000002,100.89746099999957,150.12841800000024,85.64111300000059,91.6665039999998,89.74365200000011,91.41015599999992,93.3334960000002,71.79492200000004,91.15380900000036,107.69238299999961,1257.05127,110.76904300000024
108,381.15380900000036,571.6665039999998,103.3334960000002,153.58984400000008,89.87158199999976,92.43603499999972,88.9741210000002,91.0258789999998,93.7177729999994,71.79492200000004,93.9741210000002,110.12841800000024,1247.1796880000002,111.53857400000015
109,394.6152340000008,572.4360349999997,107.94873000000007,157.56396500000028,91.15380900000036,95.38476599999922,88.20507799999996,91.41015599999992,94.61523400000078,72.94873000000007,100.89746099999957,117.05126999999993,1242.6923829999996,107.94873000000007
110,410.76904300000024,571.4101559999999,111.41015599999992,158.46142599999985,88.7177729999994,98.7177729999994,88.0771479999994,92.94873000000007,95.76904300000024,75.0,107.43603499999972,123.84619099999964,1236.9228520000006,105.51269500000035
111,418.84619099999964,561.9228520000006,111.79492200000004,155.51269500000035,85.38476599999922,100.0,88.46142599999985,94.87158199999976,96.9228520000006,77.05126999999993,110.25634799999989,126.6665039999998,1223.589844,107.69238299999961
112,414.48730499999965,545.3847659999992,110.12841800000024,151.0258789999998,86.0258789999998,99.61523400000078,89.23095699999976,96.6665039999998,98.46142599999985,79.87158199999976,109.48730499999965,124.48730499999965,1201.1538090000004,109.74365200000011
113,398.9741210000002,528.205078,108.58984400000008,147.56396500000028,93.20507799999996,99.35888699999941,90.0,98.0771479999994,100.76904300000024,84.23095699999976,107.30761700000039,118.9741210000002,1173.205078,108.0771479999994
114,376.2822270000006,514.3588869999994,107.82031300000017,145.76904300000024,103.0771479999994,100.38476599999922,91.15380900000036,99.35888699999941,102.94873000000007,89.35888699999941,105.38476599999922,112.82031300000017,1144.743652,107.05126999999993
115,353.84619099999964,503.5898440000001,106.9228520000006,144.87158199999976,108.7177729999994,102.17968800000017,92.17968800000017,100.25634799999989,103.9741210000002,92.43603499999972,104.23095699999976,108.20507799999996,1119.8715819999998,110.76904300000024
116,339.87158199999976,493.5898440000001,105.51269500000035,143.9741210000002,106.41015599999992,103.0771479999994,93.0771479999994,100.12841800000024,102.94873000000007,91.53857400000015,104.10253900000043,106.41015599999992,1101.1538090000004,114.87158199999976
117,338.20507799999996,482.82031300000017,104.23095699999976,143.20507799999996,99.23095699999976,102.94873000000007,94.23095699999976,99.48730499999965,100.89746099999957,88.20507799999996,105.89746099999957,107.56396500000028,1088.589844,113.58984400000008
118,344.48730499999965,470.89746099999957,104.74365200000011,142.43603499999972,93.58984400000008,102.30761700000039,95.38476599999922,99.10253900000043,98.84619099999964,85.64111300000059,108.84619099999964,110.0,1077.3076170000004,110.0
119,350.0,457.6923829999996,106.9228520000006,141.41015599999992,93.3334960000002,101.6665039999998,96.53857400000015,98.84619099999964,96.9228520000006,85.89746099999957,110.76904300000024,111.79492200000004,1060.5126950000003,110.64111300000059
120,347.17968800000017,443.46142599999985,109.23095699999976,140.0,97.05126999999993,102.17968800000017,97.05126999999993,98.46142599999985,95.25634799999989,87.82031300000017,110.51269500000035,111.2822270000006,1035.1284180000002,114.10253900000043
121,334.7436520000001,429.10253900000043,110.0,138.0771479999994,100.64111300000059,103.9741210000002,96.9228520000006,98.0771479999994,94.23095699999976,88.9741210000002,108.3334960000002,109.23095699999976,1003.8461909999996,114.10253900000043
122,316.79492200000004,414.10253900000043,109.23095699999976,135.38476599999922,101.15380900000036,106.2822270000006,96.15380900000036,98.0771479999994,94.61523400000078,87.56396500000028,105.25634799999989,107.05126999999993,971.9228520000006,111.0258789999998
123,299.48730499999965,397.4360349999997,107.43603499999972,131.2822270000006,98.58984400000008,107.05126999999993,94.74365200000011,98.0771479999994,95.76904300000024,84.35888699999941,102.30761700000039,105.64111300000059,942.3076170000004,110.76904300000024
124,287.3076170000004,378.84619099999964,105.76904300000024,126.79492200000004,95.76904300000024,105.76904300000024,93.7177729999994,97.94873000000007,96.6665039999998,81.9228520000006,100.38476599999922,105.25634799999989,914.6152340000008,113.84619099999964
125,281.0258789999998,360.0,105.12841800000024,123.58984400000008,95.89746099999957,103.9741210000002,93.9741210000002,98.0771479999994,97.05126999999993,82.56396500000028,100.38476599999922,105.0,886.794922,114.23095699999976
126,278.46142599999985,343.0771479999994,106.41015599999992,123.46142599999985,99.35888699999941,103.84619099999964,96.2822270000006,99.10253900000043,97.56396500000028,86.15380900000036,102.56396500000028,105.0,857.1796880000002,110.89746099999957
127,277.05126999999993,328.3334960000002,110.12841800000024,126.15380900000036,103.0771479999994,106.15380900000036,100.64111300000059,101.41015599999992,98.7177729999994,90.76904300000024,106.2822270000006,106.0258789999998,824.3588869999994,109.23095699999976
128,275.3847659999992,314.3588869999994,115.38476599999922,129.23095699999976,104.23095699999976,109.61523400000078,105.76904300000024,104.35888699999941,100.25634799999989,94.35888699999941,110.0,109.23095699999976,787.5639650000003,111.15380900000036
129,272.4360349999997,299.3588869999994,119.74365200000011,130.76904300000024,102.56396500000028,112.94873000000007,109.87158199999976,106.9228520000006,101.6665039999998,96.2822270000006,112.82031300000017,114.87158199999976,746.4101559999999,111.9228520000006
130,266.15380900000036,281.15380900000036,122.05126999999993,129.23095699999976,100.25634799999989,115.0,111.2822270000006,107.69238299999961,102.05126999999993,96.9228520000006,114.23095699999976,120.25634799999989,700.6411130000006,109.23095699999976
131,253.3334960000002,258.0771479999994,121.9228520000006,124.74365200000011,100.0,115.64111300000059,109.48730499999965,105.89746099999957,100.89746099999957,96.2822270000006,113.84619099999964,122.17968800000017,648.7177729999994,108.20507799999996
132,233.7177729999994,230.0,119.61523400000078,117.82031300000017,102.05126999999993,114.74365200000011,105.51269500000035,102.69238299999961,98.3334960000002,94.61523400000078,111.53857400000015,119.10253900000043,589.4873049999997,111.6665039999998
133,211.0258789999998,199.61523400000078,116.0258789999998,110.38476599999922,105.25634799999989,113.58984400000008,101.79492200000004,100.12841800000024,96.41015599999992,93.0771479999994,108.20507799999996,113.46142599999985,524.1025390000004,114.10253900000043
134,190.51269500000035,171.41015599999992,113.46142599999985,105.12841800000024,107.69238299999961,113.3334960000002,100.51269500000035,100.12841800000024,96.79492200000004,92.94873000000007,106.0258789999998,109.48730499999965,456.15380900000036,110.12841800000024
135,175.0,147.17968800000017,114.35888699999941,102.69238299999961,108.84619099999964,114.48730499999965,101.79492200000004,102.30761700000039,99.74365200000011,94.61523400000078,106.53857400000015,110.25634799999989,389.7436520000001,104.35888699999941
136,163.0771479999994,125.64111300000059,118.46142599999985,101.79492200000004,109.23095699999976,115.76904300000024,104.48730499999965,105.38476599999922,103.58984400000008,97.56396500000028,109.87158199999976,115.0,327.3076170000004,103.58984400000008
137,151.41015599999992,103.7177729999994,123.3334960000002,100.0,109.74365200000011,116.0258789999998,106.9228520000006,107.82031300000017,106.53857400000015,100.51269500000035,113.58984400000008,119.74365200000011,268.7177729999994,106.9228520000006
138,137.17968800000017,79.10253900000043,125.38476599999922,95.76904300000024,110.25634799999989,114.61523400000078,107.69238299999961,108.84619099999964,107.82031300000017,102.05126999999993,115.64111300000059,121.0258789999998,213.3334960000002,108.84619099999964
139,119.74365200000011,51.666503999999804,123.46142599999985,89.23095699999976,108.84619099999964,111.6665039999998,106.0258789999998,108.20507799999996,107.43603499999972,101.2822270000006,114.87158199999976,117.82031300000017,160.0,108.9741210000002
140,99.74365200000011,24.358886999999413,119.10253900000043,81.53857400000015,104.23095699999976,107.82031300000017,101.79492200000004,106.15380900000036,106.41015599999992,99.74365200000011,112.43603499999972,112.43603499999972,110.0,111.0258789999998
141,80.51269500000035,1.9228520000006029,115.38476599999922,75.25634799999989,98.20507799999996,104.48730499999965,96.6665039999998,104.48730499999965,105.64111300000059,100.0,110.64111300000059,107.94873000000007,65.51269500000035,113.46142599999985
142,65.51269500000035,-12.179442999999992,115.12841800000024,72.43603499999972,95.76904300000024,104.10253900000043,93.3334960000002,104.35888699999941,106.41015599999992,103.58984400000008,111.79492200000004,106.79492200000004,27.43603499999972,111.41015599999992
143,56.53857400000015,-19.230713000000378,118.3334960000002,73.20507799999996,99.87158199999976,107.56396500000028,93.9741210000002,105.76904300000024,108.20507799999996,109.10253900000043,115.0,108.3334960000002,-6.538574000000153,106.2822270000006
144,51.79492200000004,-24.230713000000378,122.43603499999972,75.25634799999989,108.46142599999985,112.43603499999972,97.82031300000017,107.05126999999993,109.87158199999976,112.82031300000017,117.30761700000039,110.0,-41.025634999999966,105.38476599999922
145,47.82031300000017,-31.666747999999643,124.35888699999941,75.12841800000024,115.76904300000024,114.87158199999976,101.79492200000004,107.17968800000017,110.25634799999989,112.56396500000028,116.0258789999998,109.61523400000078,-78.84619099999964,109.61523400000078
146,42.69238299999961,-41.79492200000004,123.7177729999994,71.53857400000015,118.46142599999985,113.7177729999994,103.20507799999996,106.79492200000004,110.0,110.0,112.30761700000039,107.43603499999972,-118.71801800000003,112.30761700000039
147,36.153809000000365,-52.435790999999426,122.30761700000039,66.53857400000015,116.6665039999998,110.0,102.05126999999993,107.05126999999993,110.64111300000059,108.9741210000002,109.35888699999941,105.76904300000024,-156.28198199999997,110.25634799999989
148,28.589844000000085,-61.66674799999964,122.69238299999961,63.20507799999996,112.69238299999961,106.6665039999998,99.87158199999976,107.94873000000007,112.43603499999972,111.0258789999998,109.74365200000011,106.41015599999992,-189.35888699999987,108.7177729999994
149,20.384765999999217,-69.61547900000005,124.87158199999976,62.94873000000007,108.3334960000002,105.89746099999957,98.46142599999985,108.46142599999985,114.48730499999965,115.12841800000024,112.82031300000017,108.84619099999964,-218.33325200000036,111.15380900000036
150,12.56396500000028,-76.79492200000004,127.43603499999972,65.51269500000035,105.0,108.3334960000002,99.23095699999976,108.3334960000002,116.15380900000036,118.9741210000002,116.15380900000036,110.64111300000059,-245.5129390000002,112.94873000000007
151,6.410155999999915,-82.69238299999961,129.3588869999994,68.46142599999985,103.46142599999985,112.82031300000017,102.82031300000017,108.7177729999994,117.30761700000039,121.53857400000015,117.56396500000028,110.64111300000059,-272.3076170000004,110.25634799999989
152,1.5385740000001533,-86.92309599999999,130.38476599999922,69.61523400000078,104.10253900000043,116.79492200000004,107.43603499999972,110.76904300000024,117.82031300000017,122.94873000000007,116.2822270000006,109.48730499999965,-300.1281740000004,107.05126999999993
153,-3.3334960000001956,-89.48706099999981,130.38476599999922,68.58984400000008,106.79492200000004,117.94873000000007,110.38476599999922,113.58984400000008,117.94873000000007,123.3334960000002,112.94873000000007,107.94873000000007,-328.33325200000036,108.58984400000008
154,-8.974365000000034,-90.51293900000019,130.12841800000024,66.2822270000006,111.6665039999998,117.05126999999993,110.64111300000059,116.2822270000006,118.20507799999996,123.0771479999994,110.51269500000035,106.6665039999998,-354.61547900000005,112.30761700000039
155,-15.641113000000132,-91.02563499999997,130.38476599999922,64.48730499999965,118.46142599999985,116.79492200000004,110.12841800000024,118.58984400000008,119.61523400000078,122.56396500000028,111.53857400000015,106.2822270000006,-377.0512700000004,112.94873000000007
156,-22.948729999999614,-93.33325200000036,131.15380900000036,63.589844000000085,125.12841800000024,118.58984400000008,111.41015599999992,120.89746099999957,121.79492200000004,122.56396500000028,115.64111300000059,107.56396500000028,-396.15380900000036,112.17968800000017
157,-31.28198199999997,-99.61547900000005,132.05126999999993,62.94873000000007,127.94873000000007,121.53857400000015,114.61523400000078,122.43603499999972,123.0771479999994,123.0771479999994,120.0,109.35888699999941,-415.38452099999995,114.35888699999941
158,-40.38452099999995,-108.71801800000003,131.9228520000006,62.05126999999993,125.64111300000059,123.7177729999994,117.69238299999961,122.05126999999993,122.30761700000039,123.9741210000002,121.53857400000015,110.0,-437.3076170000004,117.43603499999972
159,-48.33325200000036,-116.41015600000037,131.15380900000036,61.025878999999804,121.53857400000015,124.23095699999976,118.84619099999964,120.12841800000024,120.51269500000035,124.74365200000011,119.61523400000078,107.94873000000007,-460.897461,115.25634799999989
160,-53.974365000000034,-119.8718259999996,130.38476599999922,60.51269500000035,120.89746099999957,123.58984400000008,118.0771479999994,118.0771479999994,119.48730499999965,125.25634799999989,115.89746099999957,104.10253900000043,-482.820557,109.48730499999965
161,-57.82055700000001,-119.8718259999996,129.7436520000001,60.64111300000059,125.25634799999989,123.0771479999994,116.41015599999992,117.30761700000039,120.38476599999922,125.51269500000035,112.05126999999993,100.0,-501.28198199999997,107.30761700000039
162,-61.79492200000004,-120.25634799999989,129.10253900000043,61.153809000000365,130.89746099999957,122.82031300000017,114.87158199999976,117.30761700000039,122.56396500000028,125.38476599999922,109.61523400000078,97.17968800000017,-515.897461,110.12841800000024
163,-66.53857400000015,-123.58984399999963,128.0771479999994,61.53857400000015,132.6923829999996,123.0771479999994,113.84619099999964,117.30761700000039,124.61523400000078,125.12841800000024,108.9741210000002,95.76904300000024,-527.820557,111.6665039999998
164,-71.79492200000004,-129.35888699999987,126.79492200000004,61.2822270000006,127.94873000000007,122.56396500000028,112.94873000000007,117.43603499999972,124.74365200000011,125.0,110.0,95.25634799999989,-538.5898439999996,109.23095699999976
165,-76.92309599999999,-135.64111300000013,125.76904300000024,59.87158199999976,118.84619099999964,120.64111300000059,111.79492200000004,117.56396500000028,122.69238299999961,124.35888699999941,111.15380900000036,95.12841800000024,-550.2563479999999,107.43603499999972
166,-80.76928699999962,-140.64111300000013,124.74365200000011,57.94873000000007,110.64111300000059,117.43603499999972,110.38476599999922,117.56396500000028,119.23095699999976,123.20507799999996,111.6665039999998,94.61523400000078,-564.102539,108.9741210000002
167,-82.17944299999999,-142.820557,124.10253900000043,57.05126999999993,108.46142599999985,115.25634799999989,109.23095699999976,117.17968800000017,116.9228520000006,122.05126999999993,111.6665039999998,94.23095699999976,-578.4614259999998,109.48730499999965
168,-81.02563499999997,-142.56420900000057,124.10253900000043,58.20507799999996,113.20507799999996,115.25634799999989,108.84619099999964,116.79492200000004,117.69238299999961,121.41015599999992,112.43603499999972,94.35888699999941,-590.384521,106.53857400000015
169,-79.61547900000005,-142.56420900000057,125.12841800000024,60.897460999999566,120.38476599999922,117.05126999999993,109.35888699999941,116.15380900000036,120.76904300000024,121.53857400000015,113.9741210000002,94.87158199999976,-598.8461909999996,105.25634799999989
170,-80.51293900000019,-146.15380900000036,126.15380900000036,63.46142599999985,124.74365200000011,118.7177729999994,110.12841800000024,114.74365200000011,123.7177729999994,122.30761700000039,115.38476599999922,94.74365200000011,-604.3588869999999,109.48730499999965
171,-83.20507799999996,-153.58984399999963,126.79492200000004,64.61523400000078,124.87158199999976,119.74365200000011,110.76904300000024,112.69238299999961,124.48730499999965,123.84619099999964,116.2822270000006,93.9741210000002,-608.8461909999996,113.84619099999964
172,-85.0,-161.923096,127.05126999999993,64.74365200000011,123.46142599999985,120.12841800000024,110.76904300000024,110.89746099999957,122.94873000000007,125.76904300000024,117.17968800000017,94.74365200000011,-612.9487299999996,112.43603499999972
173,-84.35888699999987,-167.43579099999943,127.30761700000039,64.10253900000043,122.82031300000017,119.74365200000011,109.48730499999965,110.12841800000024,120.25634799999989,127.30761700000039,118.58984400000008,98.58984400000008,-617.4357909999994,108.3334960000002
174,-82.30761700000039,-169.35888699999987,127.30761700000039,62.94873000000007,122.56396500000028,117.82031300000017,106.79492200000004,110.25634799999989,117.43603499999972,127.30761700000039,119.48730499999965,104.35888699999941,-623.4614259999998,108.3334960000002
175,-81.53857400000015,-168.58984399999963,126.41015599999992,61.410155999999915,120.51269500000035,114.74365200000011,103.3334960000002,110.25634799999989,115.38476599999922,125.76904300000024,119.23095699999976,108.46142599999985,-631.025635,111.15380900000036
176,-83.33325200000036,-167.3076170000004,125.38476599999922,60.76904300000024,116.41015599999992,112.30761700000039,100.64111300000059,109.35888699999941,115.12841800000024,123.9741210000002,118.20507799999996,108.20507799999996,-638.5898439999996,110.89746099999957
177,-86.92309599999999,-166.66674799999964,125.0,61.410155999999915,112.05126999999993,112.05126999999993,100.12841800000024,107.82031300000017,116.79492200000004,123.3334960000002,117.82031300000017,104.23095699999976,-644.7436520000001,108.0771479999994
178,-90.76928699999962,-166.923096,125.64111300000059,62.82031300000017,110.51269500000035,113.58984400000008,101.79492200000004,106.79492200000004,119.48730499999965,124.48730499999965,118.7177729999994,99.48730499999965,-648.5898439999996,108.58984400000008
179,-93.46142599999985,-166.923096,126.41015599999992,64.10253900000043,113.84619099999964,115.38476599999922,104.87158199999976,107.43603499999972,121.41015599999992,126.53857400000015,120.38476599999922,97.30761700000039,-650.7692869999996,112.17968800000017
180,-93.97436500000003,-165.89746100000002,126.15380900000036,64.35888699999941,120.76904300000024,115.76904300000024,107.56396500000028,110.38476599999922,121.79492200000004,128.46142599999985,121.41015599999992,98.84619099999964,-652.179443,112.82031300000017
181,-93.46142599999985,-163.58984399999963,124.61523400000078,63.7177729999994,126.6665039999998,113.9741210000002,107.56396500000028,113.84619099999964,120.51269500000035,128.46142599999985,120.89746099999957,102.05126999999993,-654.3588869999999,110.25634799999989
182,-93.46142599999985,-161.66674799999964,122.17968800000017,62.30761700000039,126.41015599999992,110.12841800000024,103.84619099999964,115.12841800000024,118.0771479999994,126.0258789999998,118.46142599999985,103.20507799999996,-658.4614259999998,110.25634799999989
183,-94.48706099999981,-161.53857400000015,119.87158199999976,61.153809000000365,119.48730499999965,105.25634799999989,97.43603499999972,112.69238299999961,115.64111300000059,122.30761700000039,115.12841800000024,100.25634799999989,-663.974365,114.74365200000011
184,-95.1281740000004,-162.43579099999943,118.84619099999964,61.53857400000015,111.15380900000036,102.56396500000028,92.05126999999993,108.46142599999985,115.25634799999989,120.0,113.0771479999994,94.74365200000011,-668.205078,117.05126999999993
185,-93.71801800000003,-162.179443,120.25634799999989,64.23095699999976,108.0771479999994,104.61523400000078,91.53857400000015,106.41015599999992,117.94873000000007,121.9228520000006,114.23095699999976,91.0258789999998,-668.8461909999996,113.7177729999994
186,-90.51293900000019,-159.35888699999987,123.58984400000008,68.46142599999985,112.30761700000039,110.38476599999922,96.79492200000004,109.10253900000043,122.43603499999972,127.94873000000007,118.3334960000002,92.17968800000017,-666.5385740000002,110.12841800000024
187,-87.82055700000001,-154.61547900000005,126.79492200000004,72.56396500000028,121.0258789999998,116.15380900000036,105.38476599999922,115.25634799999989,126.15380900000036,134.61523400000078,122.69238299999961,97.30761700000039,-663.8461909999996,110.89746099999957
188,-87.43579099999943,-149.8718259999996,127.69238299999961,75.25634799999989,128.46142599999985,118.58984400000008,112.30761700000039,121.2822270000006,127.05126999999993,137.6923829999996,124.87158199999976,102.82031300000017,-663.205078,112.56396500000028
189,-89.10253899999998,-146.79492200000004,126.41015599999992,76.15380900000036,130.0,117.30761700000039,114.23095699999976,123.46142599999985,125.12841800000024,135.38476599999922,123.9741210000002,105.89746099999957,-665.0,110.64111300000059
190,-91.66674799999964,-146.53857400000015,124.87158199999976,76.0258789999998,124.87158199999976,113.58984400000008,110.64111300000059,120.51269500000035,122.17968800000017,129.61523400000078,121.53857400000015,106.2822270000006,-668.3332520000004,108.3334960000002
191,-93.33325200000036,-148.33325200000036,124.48730499999965,75.25634799999989,116.15380900000036,109.61523400000078,104.10253900000043,114.23095699999976,119.48730499999965,124.35888699999941,119.61523400000078,105.51269500000035,-671.5385740000002,110.51269500000035
192,-92.69238299999961,-149.4870609999998,125.51269500000035,75.12841800000024,109.74365200000011,108.0771479999994,98.84619099999964,108.7177729999994,118.46142599999985,123.3334960000002,119.74365200000011,105.64111300000059,-672.5642090000006,114.10253900000043
193,-89.61547900000005,-147.9487299999996,127.56396500000028,76.2822270000006,110.0,110.89746099999957,98.7177729999994,107.69238299999961,119.74365200000011,127.69238299999961,122.56396500000028,107.43603499999972,-670.1281740000004,113.0771479999994
194,-85.89746100000002,-143.58984399999963,129.3588869999994,78.58984400000008,116.79492200000004,117.05126999999993,103.9741210000002,112.43603499999972,122.94873000000007,134.7436520000001,126.53857400000015,110.12841800000024,-665.897461,109.48730499999965
195,-83.58984399999963,-139.23071300000038,130.12841800000024,80.64111300000059,125.38476599999922,122.56396500000028,110.89746099999957,119.74365200000011,126.41015599999992,140.12841800000024,129.10253900000043,112.30761700000039,-662.9487299999996,109.48730499999965
196,-83.71801800000003,-137.56420900000057,129.61523400000078,80.64111300000059,130.89746099999957,123.58984400000008,114.87158199999976,124.74365200000011,127.94873000000007,140.6411130000006,128.84619099999964,112.94873000000007,-663.205078,112.69238299999961
197,-85.64111300000013,-139.35888699999987,128.0771479999994,78.46142599999985,130.76904300000024,119.61523400000078,113.3334960000002,124.87158199999976,126.79492200000004,136.53857400000015,126.15380900000036,111.9228520000006,-665.384521,113.20507799999996
198,-88.07690400000001,-143.58984399999963,126.15380900000036,75.51269500000035,126.0258789999998,112.94873000000007,107.17968800000017,120.76904300000024,123.20507799999996,131.0258789999998,122.82031300000017,109.87158199999976,-666.923096,110.51269500000035
199,-90.89746100000002,-148.33325200000036,124.35888699999941,72.94873000000007,119.87158199999976,106.9228520000006,99.87158199999976,115.64111300000059,118.84619099999964,127.56396500000028,120.76904300000024,107.56396500000028,-666.4101560000004,110.12841800000024
200,-93.46142599999985,-151.923096,122.82031300000017,71.9228520000006,115.51269500000035,104.35888699999941,95.12841800000024,112.05126999999993,115.64111300000059,127.43603499999972,121.15380900000036,105.76904300000024,-664.7436520000001,113.0771479999994
201,-94.35888699999987,-152.179443,121.6665039999998,72.56396500000028,114.48730499999965,105.51269500000035,94.48730499999965,111.2822270000006,115.0,128.7177729999994,123.0771479999994,104.87158199999976,-663.5898439999996,113.46142599999985
202,-92.17944299999999,-148.97436500000003,121.2822270000006,74.35888699999941,116.0258789999998,108.7177729999994,97.30761700000039,112.69238299999961,116.6665039999998,129.23095699999976,124.35888699999941,104.87158199999976,-663.974365,109.61523400000078
203,-87.69238299999961,-144.10253899999998,122.05126999999993,76.15380900000036,117.69238299999961,111.41015599999992,101.0258789999998,114.35888699999941,118.46142599999985,127.69238299999961,123.84619099999964,105.64111300000059,-665.5129390000002,107.56396500000028
204,-82.82055700000001,-140.1281740000004,123.46142599999985,77.05126999999993,118.20507799999996,112.43603499999972,103.3334960000002,115.25634799999989,118.7177729999994,126.15380900000036,121.79492200000004,106.6665039999998,-666.4101560000004,110.76904300000024
205,-79.23071300000038,-137.6923829999996,125.12841800000024,77.56396500000028,118.58984400000008,113.46142599999985,104.74365200000011,116.15380900000036,118.20507799999996,127.43603499999972,120.89746099999957,107.69238299999961,-664.3588869999999,114.23095699999976
206,-77.30761700000039,-135.89746100000002,127.05126999999993,78.58984400000008,120.38476599999922,116.41015599999992,106.79492200000004,118.46142599999985,118.9741210000002,132.6923829999996,123.20507799999996,108.9741210000002,-658.4614259999998,113.0771479999994
207,-77.82055700000001,-134.23071300000038,129.23095699999976,80.0,123.0771479999994,120.38476599999922,109.74365200000011,121.53857400000015,121.9228520000006,138.7177729999994,126.9228520000006,110.0,-651.923096,110.89746099999957
208,-80.89746100000002,-133.33325200000036,130.38476599999922,80.89746099999957,124.23095699999976,122.69238299999961,112.17968800000017,123.0771479999994,124.87158199999976,140.51269500000035,128.0771479999994,110.12841800000024,-649.4870609999998,112.43603499999972
209,-85.25634799999989,-133.076904,129.23095699999976,80.51269500000035,122.94873000000007,122.05126999999993,112.43603499999972,121.53857400000015,125.38476599999922,136.15380900000036,124.35888699999941,108.46142599999985,-653.205078,114.35888699999941
210,-88.33325200000036,-132.820557,126.41015599999992,79.23095699999976,120.76904300000024,119.61523400000078,110.51269500000035,117.82031300000017,122.82031300000017,127.94873000000007,117.82031300000017,105.76904300000024,-659.8718259999996,111.9228520000006
211,-88.46142599999985,-132.820557,123.20507799999996,78.20507799999996,120.0,117.17968800000017,107.43603499999972,114.74365200000011,119.10253900000043,120.76904300000024,112.56396500000028,103.0771479999994,-664.102539,107.82031300000017
212,-86.41015600000037,-134.10253899999998,120.64111300000059,77.56396500000028,120.51269500000035,115.76904300000024,104.87158199999976,113.9741210000002,116.6665039999998,117.56396500000028,111.2822270000006,100.76904300000024,-662.9487299999996,108.3334960000002
213,-84.10253899999998,-136.923096,118.46142599999985,77.56396500000028,121.2822270000006,115.25634799999989,104.10253900000043,115.76904300000024,116.9228520000006,118.58984400000008,113.84619099999964,98.7177729999994,-657.6923829999996,112.30761700000039
214,-83.07690400000001,-139.8718259999996,116.53857400000015,78.20507799999996,121.2822270000006,115.89746099999957,105.76904300000024,118.84619099999964,119.35888699999941,121.79492200000004,117.30761700000039,96.6665039999998,-651.794922,113.58984400000008
215,-84.35888699999987,-141.66674799999964,115.0,78.7177729999994,120.89746099999957,116.9228520000006,108.58984400000008,120.76904300000024,121.6665039999998,125.0,118.46142599999985,95.0,-648.8461909999996,111.6665039999998
216,-88.58984399999963,-142.9487299999996,113.9741210000002,78.20507799999996,119.87158199999976,117.05126999999993,110.38476599999922,119.87158199999976,121.9228520000006,126.41015599999992,115.51269500000035,94.10253900000043,-649.615479,112.05126999999993
217,-93.97436500000003,-144.8718259999996,113.3334960000002,76.53857400000015,117.82031300000017,115.38476599999922,109.35888699999941,116.53857400000015,119.61523400000078,125.25634799999989,109.87158199999976,93.58984400000008,-651.923096,115.38476599999922
218,-98.07690400000001,-147.43579099999943,112.56396500000028,75.0,114.74365200000011,112.17968800000017,106.0258789999998,112.94873000000007,116.15380900000036,122.43603499999972,104.61523400000078,93.46142599999985,-653.076904,115.89746099999957
219,-98.84619099999964,-149.8718259999996,111.9228520000006,74.35888699999941,110.89746099999957,108.58984400000008,102.17968800000017,110.89746099999957,113.46142599999985,118.84619099999964,102.05126999999993,93.0771479999994,-652.4357909999994,112.30761700000039
220,-97.05127000000039,-152.179443,111.6665039999998,75.0,106.53857400000015,105.12841800000024,99.74365200000011,110.12841800000024,112.17968800000017,114.74365200000011,101.41015599999992,92.30761700000039,-651.5385740000002,110.25634799999989
221,-94.35888699999987,-153.71801800000003,111.2822270000006,76.6665039999998,102.94873000000007,103.0771479999994,99.61523400000078,109.48730499999965,111.9228520000006,111.15380900000036,101.15380900000036,91.0258789999998,-650.7692869999996,112.69238299999961
222,-91.79492200000004,-153.20507799999996,110.12841800000024,78.84619099999964,103.3334960000002,104.48730499999965,101.53857400000015,108.84619099999964,112.56396500000028,110.0,101.15380900000036,90.51269500000035,-647.179443,114.10253900000043
223,-88.58984399999963,-150.38452099999995,108.9741210000002,80.76904300000024,109.10253900000043,110.25634799999989,105.38476599999922,109.23095699999976,114.48730499999965,113.0771479999994,102.82031300000017,92.05126999999993,-638.974365,110.89746099999957
224,-85.51293900000019,-147.43579099999943,109.10253900000043,81.15380900000036,117.43603499999972,117.82031300000017,109.35888699999941,111.53857400000015,117.05126999999993,118.7177729999994,105.51269500000035,94.87158199999976,-629.3588869999999,108.0771479999994
225,-84.61547900000005,-147.179443,110.0,79.10253900000043,123.3334960000002,122.82031300000017,111.6665039999998,114.74365200000011,119.10253900000043,122.94873000000007,107.05126999999993,96.53857400000015,-624.8718259999996,110.25634799999989
226,-86.53857400000015,-149.4870609999998,111.0258789999998,76.15380900000036,123.9741210000002,122.94873000000007,111.41015599999992,117.05126999999993,119.48730499999965,123.20507799999996,105.76904300000024,95.12841800000024,-628.076904,113.84619099999964
227,-88.46142599999985,-151.15380900000036,111.53857400000015,75.12841800000024,121.15380900000036,120.0,110.25634799999989,117.30761700000039,118.20507799999996,121.0258789999998,103.20507799999996,92.05126999999993,-634.2307130000004,113.9741210000002
228,-86.66674799999964,-148.97436500000003,112.94873000000007,78.20507799999996,119.48730499999965,118.20507799999996,111.0258789999998,116.15380900000036,116.6665039999998,121.0258789999998,103.3334960000002,91.2822270000006,-634.2307130000004,112.30761700000039
229,-80.0,-142.6923829999996,115.76904300000024,84.61523400000078,122.05126999999993,120.12841800000024,115.25634799999989,115.38476599999922,116.79492200000004,126.15380900000036,108.58984400000008,95.64111300000059,-622.5642090000006,113.46142599999985
230,-70.51293900000019,-135.64111300000013,119.23095699999976,91.0258789999998,128.20507799999996,124.74365200000011,120.89746099999957,117.05126999999993,118.9741210000002,135.12841800000024,117.43603499999972,103.46142599999985,-600.897461,115.25634799999989
231,-62.82055700000001,-132.43579099999943,121.2822270000006,93.3334960000002,133.58984400000008,128.84619099999964,124.61523400000078,121.2822270000006,122.56396500000028,143.3334960000002,125.89746099999957,110.38476599999922,-577.5642090000006,112.56396500000028
232,-61.025634999999966,-136.15380900000036,120.25634799999989,90.12841800000024,133.3334960000002,128.9741210000002,124.23095699999976,126.0258789999998,124.87158199999976,146.2822270000006,129.48730499999965,112.30761700000039,-563.205078,107.82031300000017
233,-66.28198199999997,-146.53857400000015,116.41015599999992,82.82031300000017,125.51269500000035,124.23095699999976,120.89746099999957,128.46142599999985,124.87158199999976,143.46142599999985,126.79492200000004,108.20507799999996,-562.9487299999996,107.43603499999972
234,-75.25634799999989,-158.71801800000003,111.53857400000015,75.64111300000059,114.23095699999976,117.82031300000017,117.43603499999972,127.69238299999961,123.58984400000008,137.94873000000007,119.87158199999976,101.41015599999992,-572.3076170000004,111.2822270000006
235,-82.30761700000039,-166.02563499999997,108.20507799999996,72.69238299999961,106.53857400000015,113.9741210000002,116.2822270000006,125.51269500000035,123.3334960000002,134.61523400000078,113.3334960000002,97.05126999999993,-581.025635,112.69238299999961
236,-83.58984399999963,-165.1281740000004,108.3334960000002,75.51269500000035,106.79492200000004,114.74365200000011,117.17968800000017,123.84619099999964,124.74365200000011,135.38476599999922,111.0258789999998,98.46142599999985,-581.025635,109.87158199999976
237,-79.74365200000011,-158.33325200000036,111.79492200000004,81.41015599999992,113.0771479999994,117.82031300000017,117.69238299999961,123.7177729999994,126.2822270000006,137.82031300000017,112.69238299999961,104.35888699999941,-573.076904,108.58984400000008
238,-74.8718259999996,-151.66674799999964,116.0258789999998,85.64111300000059,119.10253900000043,119.35888699999941,115.25634799999989,124.23095699999976,126.41015599999992,138.0771479999994,115.51269500000035,109.74365200000011,-564.2307130000004,111.2822270000006
239,-72.30761700000039,-149.35888699999987,117.82031300000017,85.12841800000024,120.51269500000035,117.43603499999972,110.12841800000024,124.35888699999941,124.48730499999965,134.3588869999994,116.53857400000015,110.25634799999989,-561.025635,112.69238299999961
240,-72.94872999999961,-152.0512700000004,116.0258789999998,80.89746099999957,116.6665039999998,113.46142599999985,105.12841800000024,123.3334960000002,121.79492200000004,128.7177729999994,115.0,105.51269500000035,-564.2307130000004,110.38476599999922
241,-75.38452099999995,-156.923096,112.56396500000028,76.53857400000015,110.38476599999922,109.74365200000011,103.46142599999985,121.9228520000006,119.48730499999965,125.0,112.43603499999972,98.9741210000002,-569.4870609999998,109.23095699999976
242,-77.69238299999961,-160.1281740000004,110.0,75.12841800000024,105.89746099999957,108.46142599999985,105.89746099999957,121.0258789999998,118.7177729999994,125.89746099999957,111.15380900000036,95.25634799999989,-571.5385740000002,112.17968800000017
243,-79.10253899999998,-159.7436520000001,110.25634799999989,77.56396500000028,106.0258789999998,110.51269500000035,110.89746099999957,121.53857400000015,120.25634799999989,130.76904300000024,112.05126999999993,96.53857400000015,-568.076904,114.48730499999965
244,-79.61547900000005,-156.15380900000036,112.82031300000017,82.05126999999993,110.38476599999922,114.35888699999941,115.38476599999922,123.3334960000002,123.46142599999985,136.53857400000015,114.35888699999941,101.6665039999998,-560.897461,112.05126999999993
245,-80.1281740000004,-152.3076170000004,115.25634799999989,85.38476599999922,114.74365200000011,117.05126999999993,117.05126999999993,125.12841800000024,126.15380900000036,139.87158199999976,115.89746099999957,106.79492200000004,-554.4870609999998,108.9741210000002
246,-80.89746100000002,-150.2563479999999,115.25634799999989,85.25634799999989,114.48730499999965,115.89746099999957,115.76904300000024,125.0,126.79492200000004,139.7436520000001,114.74365200000011,108.20507799999996,-552.4357909999994,110.38476599999922
247,-80.64111300000013,-149.7436520000001,112.56396500000028,82.17968800000017,109.10253900000043,111.41015599999992,113.20507799999996,122.56396500000028,125.12841800000024,137.3076170000004,111.41015599999992,105.12841800000024,-554.8718259999996,113.58984400000008
248,-78.58984399999963,-148.84619099999964,109.61523400000078,78.7177729999994,102.05126999999993,106.9228520000006,111.2822270000006,119.48730499999965,123.20507799999996,133.9741210000002,108.58984400000008,100.51269500000035,-558.076904,112.30761700000039
249,-75.64111300000013,-146.53857400000015,109.23095699999976,77.43603499999972,98.3334960000002,105.0,110.51269500000035,117.05126999999993,122.43603499999972,130.6411130000006,108.20507799999996,98.0771479999994,-557.9487299999996,108.58984400000008
250,-73.58984399999963,-143.71801800000003,111.15380900000036,78.9741210000002,100.12841800000024,106.41015599999992,110.25634799999989,115.89746099999957,122.56396500000028,127.17968800000017,110.12841800000024,99.87158199999976,-553.5898439999996,109.23095699999976
251,-73.20507799999996,-141.923096,113.20507799999996,82.30761700000039,106.79492200000004,110.25634799999989,110.51269500000035,115.64111300000059,122.17968800000017,123.84619099999964,112.69238299999961,104.10253900000043,-546.6667479999996,113.7177729999994
252,-73.97436500000003,-141.923096,113.20507799999996,85.25634799999989,115.25634799999989,115.38476599999922,111.79492200000004,115.89746099999957,120.89746099999957,121.2822270000006,114.23095699999976,107.56396500000028,-540.897461,115.76904300000024
253,-75.1281740000004,-143.71801800000003,110.76904300000024,85.64111300000059,121.53857400000015,119.87158199999976,113.7177729999994,115.89746099999957,118.84619099999964,120.0,113.3334960000002,107.56396500000028,-538.8461909999996,114.23095699999976
254,-77.05127000000039,-147.3076170000004,107.17968800000017,82.94873000000007,122.56396500000028,121.2822270000006,114.87158199999976,114.74365200000011,116.6665039999998,119.35888699999941,109.61523400000078,103.20507799999996,-540.6411130000001,113.9741210000002
255,-79.74365200000011,-150.64111300000013,104.48730499999965,78.3334960000002,117.82031300000017,118.84619099999964,114.61523400000078,112.30761700000039,115.0,119.10253900000043,104.61523400000078,96.41015599999992,-542.820557,116.0258789999998
256,-81.28198199999997,-151.28198199999997,103.58984400000008,74.74365200000011,111.0258789999998,114.74365200000011,113.3334960000002,109.87158199999976,114.48730499999965,119.48730499999965,101.15380900000036,90.12841800000024,-541.4101560000004,115.64111300000059
257,-80.51293900000019,-148.46142599999985,103.84619099999964,73.9741210000002,106.15380900000036,111.2822270000006,111.79492200000004,108.9741210000002,115.38476599999922,120.0,100.51269500000035,86.6665039999998,-535.6411130000001,111.9228520000006
258,-78.46142599999985,-144.8718259999996,103.20507799999996,75.12841800000024,104.61523400000078,108.9741210000002,109.74365200000011,108.9741210000002,116.53857400000015,119.61523400000078,100.64111300000059,85.64111300000059,-529.2307130000004,111.0258789999998
259,-77.43579099999943,-143.84619099999964,99.61523400000078,76.41015599999992,104.23095699999976,106.53857400000015,106.79492200000004,108.7177729999994,115.76904300000024,117.05126999999993,98.84619099999964,85.0,-526.4101560000004,115.0
260,-78.33325200000036,-145.64111300000013,94.48730499999965,76.53857400000015,102.82031300000017,103.58984400000008,102.94873000000007,106.9228520000006,112.94873000000007,112.82031300000017,94.74365200000011,82.94873000000007,-528.076904,117.30761700000039
261,-81.15380900000036,-147.9487299999996,90.64111300000059,76.0258789999998,99.74365200000011,101.15380900000036,99.23095699999976,105.0,110.12841800000024,108.58984400000008,90.38476599999922,79.87158199999976,-531.1538090000004,113.3334960000002
262,-85.1281740000004,-148.71801800000003,90.38476599999922,75.51269500000035,96.41015599999992,99.23095699999976,96.53857400000015,104.23095699999976,109.35888699999941,105.25634799999989,87.43603499999972,77.17968800000017,-532.4357909999994,108.0771479999994
263,-89.8718259999996,-148.076904,92.43603499999972,74.74365200000011,93.9741210000002,98.0771479999994,95.12841800000024,105.12841800000024,110.76904300000024,103.3334960000002,86.0258789999998,76.0258789999998,-530.5129390000002,107.69238299999961
264,-93.46142599999985,-146.41015600000037,93.7177729999994,74.35888699999941,92.94873000000007,97.94873000000007,95.12841800000024,107.17968800000017,112.82031300000017,103.46142599999985,85.89746099999957,76.53857400000015,-525.897461,110.0
265,-92.94872999999961,-144.23071300000038,92.94873000000007,75.25634799999989,93.3334960000002,99.35888699999941,96.41015599999992,108.9741210000002,114.23095699999976,106.41015599999992,87.30761700000039,77.82031300000017,-519.3588869999999,109.61523400000078
266,-87.17944299999999,-141.79492200000004,92.17968800000017,78.0771479999994,94.61523400000078,102.05126999999993,98.20507799999996,109.23095699999976,114.23095699999976,111.41015599999992,90.12841800000024,79.10253900000043,-511.923096,108.0771479999994
267,-78.46142599999985,-140.1281740000004,93.20507799999996,81.9228520000006,96.53857400000015,105.12841800000024,100.38476599999922,108.20507799999996,113.20507799999996,116.41015599999992,93.84619099999964,80.25634799999989,-505.0,109.48730499999965
268,-69.8718259999996,-138.58984399999963,96.41015599999992,85.64111300000059,100.25634799999989,108.58984400000008,102.94873000000007,107.30761700000039,112.56396500000028,119.87158199999976,96.9228520000006,81.79492200000004,-499.61547900000005,111.9228520000006
269,-63.71801800000003,-135.64111300000013,100.12841800000024,88.58984400000008,106.6665039999998,112.43603499999972,106.0258789999998,108.58984400000008,113.9741210000002,121.41015599999992,99.10253900000043,84.23095699999976,-495.1281740000004,109.87158199999976
270,-60.76928699999962,-130.64111300000013,103.0771479999994,90.76904300000024,114.61523400000078,116.53857400000015,108.9741210000002,112.17968800000017,117.94873000000007,122.69238299999961,100.25634799999989,87.56396500000028,-490.64111300000013,105.38476599999922
271,-60.76928699999962,-126.02563499999997,104.35888699999941,91.6665039999998,120.64111300000059,118.9741210000002,110.38476599999922,116.0258789999998,122.43603499999972,124.48730499999965,100.89746099999957,91.15380900000036,-486.02563499999997,105.51269500000035
272,-62.564209000000574,-124.61547900000005,103.3334960000002,91.53857400000015,122.17968800000017,118.46142599999985,109.61523400000078,117.82031300000017,125.12841800000024,126.6665039999998,101.0258789999998,93.46142599999985,-481.923096,110.38476599999922
273,-64.10253899999998,-126.66674799999964,100.76904300000024,90.51269500000035,119.23095699999976,115.25634799999989,107.82031300000017,116.79492200000004,125.0,128.3334960000002,101.0258789999998,93.9741210000002,-478.58984399999963,113.0771479999994
274,-64.10253899999998,-130.1281740000004,98.7177729999994,89.61523400000078,113.84619099999964,110.76904300000024,106.41015599999992,114.23095699999976,123.3334960000002,128.3334960000002,101.15380900000036,93.20507799999996,-476.15380900000036,111.0258789999998
275,-63.20507799999996,-132.56420900000057,98.3334960000002,88.46142599999985,107.69238299999961,106.2822270000006,105.76904300000024,111.53857400000015,121.2822270000006,126.41015599999992,101.2822270000006,92.30761700000039,-474.4870609999998,109.87158199999976
276,-62.564209000000574,-132.820557,99.35888699999941,86.9228520000006,102.05126999999993,102.69238299999961,104.35888699999941,109.87158199999976,119.87158199999976,123.58984400000008,101.0258789999998,92.30761700000039,-472.9487299999996,112.94873000000007
277,-61.66674799999964,-130.64111300000013,100.64111300000059,85.89746099999957,99.35888699999941,100.89746099999957,101.41015599999992,109.48730499999965,119.61523400000078,121.79492200000004,100.89746099999957,93.7177729999994,-469.8718259999996,115.38476599999922
278,-60.1281740000004,-126.53857400000015,101.2822270000006,86.41015599999992,100.89746099999957,101.2822270000006,97.94873000000007,110.25634799999989,120.25634799999989,122.30761700000039,101.41015599999992,95.64111300000059,-464.4870609999998,113.84619099999964
279,-58.46142599999985,-122.17944299999999,101.53857400000015,88.7177729999994,105.0,102.30761700000039,95.64111300000059,111.15380900000036,120.64111300000059,123.9741210000002,102.05126999999993,96.15380900000036,-458.33325200000036,112.17968800000017
280,-58.33325200000036,-119.8718259999996,100.89746099999957,90.64111300000059,108.0771479999994,102.30761700000039,95.0,111.15380900000036,119.35888699999941,124.10253900000043,100.64111300000059,93.7177729999994,-455.1281740000004,113.9741210000002
281,-60.76928699999962,-120.76928699999962,98.84619099999964,89.61523400000078,107.05126999999993,100.51269500000035,95.25634799999989,109.35888699999941,116.53857400000015,120.76904300000024,96.15380900000036,88.84619099999964,-456.923096,115.38476599999922
282,-64.48706099999981,-123.58984399999963,95.89746099999957,85.64111300000059,101.9228520000006,98.0771479999994,95.64111300000059,106.6665039999998,113.3334960000002,114.74365200000011,89.87158199999976,83.9741210000002,-461.79492200000004,112.05126999999993
283,-67.56420900000057,-126.15380900000036,93.84619099999964,80.89746099999957,95.76904300000024,96.0258789999998,95.89746099999957,103.84619099999964,111.15380900000036,109.23095699999976,84.87158199999976,82.05126999999993,-465.38452099999995,108.20507799999996
284,-68.71801800000003,-126.66674799999964,93.7177729999994,78.84619099999964,92.82031300000017,95.38476599999922,96.15380900000036,102.17968800000017,110.12841800000024,106.79492200000004,83.9741210000002,84.10253900000043,-464.2307130000004,109.87158199999976
285,-67.05127000000039,-124.35888699999987,95.76904300000024,81.2822270000006,95.51269500000035,96.2822270000006,96.6665039999998,102.17968800000017,110.25634799999989,107.82031300000017,87.17968800000017,88.84619099999964,-457.820557,114.23095699999976
286,-62.69238299999961,-120.0,98.84619099999964,86.79492200000004,102.69238299999961,98.58984400000008,97.56396500000028,103.84619099999964,111.2822270000006,110.51269500000035,92.56396500000028,94.23095699999976,-448.33325200000036,114.48730499999965
287,-56.79492200000004,-114.61547900000005,101.53857400000015,92.05126999999993,109.10253900000043,100.76904300000024,98.46142599999985,105.89746099999957,112.94873000000007,112.43603499999972,97.17968800000017,98.0771479999994,-438.84619099999964,110.76904300000024
288,-50.76928699999962,-109.8718259999996,102.17968800000017,94.23095699999976,109.48730499999965,101.15380900000036,98.20507799999996,106.9228520000006,114.23095699999976,112.43603499999972,99.23095699999976,99.48730499999965,-431.79492200000004,109.61523400000078
289,-45.89746100000002,-106.66674799999964,100.51269500000035,93.3334960000002,103.3334960000002,99.23095699999976,97.17968800000017,106.41015599999992,114.61523400000078,111.53857400000015,99.61523400000078,98.7177729999994,-427.4357909999994,111.9228520000006
290,-42.948729999999614,-105.25634799999989,97.94873000000007,91.41015599999992,96.41015599999992,97.56396500000028,97.43603499999972,106.0258789999998,114.61523400000078,111.15380900000036,100.12841800000024,96.9228520000006,-424.8718259999996,112.05126999999993
291,-43.46142599999985,-106.41015600000037,95.89746099999957,90.0,95.25634799999989,98.84619099999964,100.51269500000035,107.17968800000017,114.35888699999941,111.9228520000006,100.76904300000024,95.38476599999922,-423.46142599999985,109.23095699999976
292,-48.33325200000036,-110.51293900000019,94.35888699999941,89.23095699999976,101.2822270000006,103.0771479999994,105.76904300000024,109.61523400000078,113.9741210000002,112.30761700000039,99.48730499999965,94.35888699999941,-424.2307130000004,108.20507799999996
293,-55.89746100000002,-116.28198199999997,92.69238299999961,88.3334960000002,109.61523400000078,108.20507799999996,110.12841800000024,110.76904300000024,113.46142599999985,110.76904300000024,95.0,93.20507799999996,-426.66674799999964,110.38476599999922
294,-61.66674799999964,-120.51293900000019,91.2822270000006,87.56396500000028,114.61523400000078,111.53857400000015,111.15380900000036,109.23095699999976,113.20507799999996,107.69238299999961,90.0,91.9228520000006,-428.33325200000036,110.51269500000035
295,-61.41015600000037,-120.25634799999989,91.15380900000036,87.69238299999961,113.84619099999964,112.17968800000017,109.10253900000043,106.0258789999998,113.46142599999985,105.64111300000059,88.3334960000002,91.15380900000036,-425.64111300000013,107.05126999999993
296,-55.38452099999995,-115.1281740000004,92.17968800000017,89.23095699999976,108.9741210000002,110.25634799999989,106.2822270000006,102.94873000000007,113.46142599999985,106.9228520000006,91.79492200000004,91.15380900000036,-418.33325200000036,105.51269500000035
297,-48.07690400000001,-107.69238299999961,93.46142599999985,91.53857400000015,104.61523400000078,107.69238299999961,104.48730499999965,101.79492200000004,112.17968800000017,110.51269500000035,97.69238299999961,91.6665039999998,-409.7436520000001,109.23095699999976
298,-44.23071300000038,-101.41015600000037,94.48730499999965,93.58984400000008,104.74365200000011,106.9228520000006,105.0,103.0771479999994,110.0,113.7177729999994,101.6665039999998,91.41015599999992,-404.35888699999987,112.69238299999961
299,-45.76928699999962,-98.84619099999964,95.64111300000059,94.87158199999976,110.12841800000024,109.35888699999941,107.43603499999972,106.0258789999998,108.20507799999996,114.87158199999976,101.0258789999998,91.0258789999998,-403.84619099999964,111.0258789999998
300,-51.53857400000015,-100.38452099999995,97.05126999999993,95.25634799999989,117.56396500000028,114.61523400000078,110.64111300000059,109.10253900000043,108.7177729999994,114.74365200000011,96.41015599999992,91.6665039999998,-406.923096,108.20507799999996
301,-58.71801800000003,-105.0,98.46142599999985,94.87158199999976,122.17968800000017,119.74365200000011,113.0771479999994,110.64111300000059,111.41015599999992,115.38476599999922,90.89746099999957,93.7177729999994,-409.4870609999998,110.0
302,-64.23071300000038,-110.1281740000004,98.7177729999994,94.10253900000043,121.41015599999992,122.05126999999993,113.7177729999994,110.76904300000024,115.0,117.94873000000007,87.69238299999961,95.76904300000024,-408.46142599999985,113.58984400000008
303,-65.64111300000013,-113.71801800000003,97.30761700000039,93.0771479999994,116.2822270000006,120.51269500000035,112.30761700000039,110.89746099999957,117.69238299999961,120.51269500000035,87.82031300000017,95.64111300000059,-403.33325200000036,113.20507799999996
304,-63.58984399999963,-115.64111300000013,94.87158199999976,91.2822270000006,109.10253900000043,115.89746099999957,108.7177729999994,111.2822270000006,117.05126999999993,120.38476599999922,89.61523400000078,92.56396500000028,-397.0512700000004,110.64111300000059
305,-60.89746100000002,-117.05127000000039,92.30761700000039,88.0771479999994,102.17968800000017,109.61523400000078,103.3334960000002,111.0258789999998,112.94873000000007,115.25634799999989,89.87158199999976,87.56396500000028,-393.97436500000003,111.6665039999998
306,-59.74365200000011,-118.58984399999963,90.12841800000024,84.35888699999941,97.94873000000007,104.10253900000043,97.30761700000039,108.84619099999964,107.30761700000039,106.79492200000004,87.56396500000028,82.82031300000017,-394.8718259999996,115.25634799999989
307,-60.51293900000019,-119.8718259999996,88.84619099999964,81.79492200000004,97.69238299999961,101.41015599999992,92.69238299999961,104.74365200000011,103.3334960000002,99.23095699999976,84.35888699999941,80.64111300000059,-396.923096,115.51269500000035
308,-62.051270000000386,-120.64111300000013,88.7177729999994,81.79492200000004,100.64111300000059,102.17968800000017,91.2822270000006,100.51269500000035,102.56396500000028,96.2822270000006,82.94873000000007,81.79492200000004,-396.41015600000037,112.05126999999993
309,-63.846190999999635,-121.28198199999997,89.10253900000043,83.84619099999964,103.58984400000008,104.48730499999965,92.82031300000017,98.20507799999996,103.9741210000002,98.7177729999994,84.23095699999976,84.35888699999941,-392.4357909999994,110.89746099999957
310,-64.61547900000005,-121.92309599999999,89.48730499999965,86.2822270000006,103.84619099999964,107.05126999999993,96.6665039999998,98.46142599999985,105.89746099999957,104.23095699999976,86.9228520000006,86.41015599999992,-386.66674799999964,113.0771479999994
311,-62.948729999999614,-120.89746100000002,89.74365200000011,88.3334960000002,102.05126999999993,109.74365200000011,101.2822270000006,101.2822270000006,107.05126999999993,109.23095699999976,89.48730499999965,87.17968800000017,-380.7692869999996,113.0771479999994
312,-58.46142599999985,-117.94872999999961,90.89746099999957,89.48730499999965,100.76904300000024,113.0771479999994,105.51269500000035,104.87158199999976,107.69238299999961,111.79492200000004,91.15380900000036,87.69238299999961,-376.02563499999997,109.10253900000043
313,-53.846190999999635,-114.35888699999987,93.20507799999996,90.25634799999989,101.53857400000015,116.15380900000036,108.46142599999985,107.17968800000017,107.94873000000007,111.2822270000006,92.17968800000017,89.23095699999976,-372.820557,106.79492200000004
314,-51.92309599999999,-112.56420900000057,95.38476599999922,90.76904300000024,104.23095699999976,117.43603499999972,109.48730499999965,107.56396500000028,107.69238299999961,109.35888699999941,92.82031300000017,91.41015599999992,-371.02563499999997,109.35888699999941
315,-53.46142599999985,-112.30761700000039,96.0258789999998,91.6665039999998,107.94873000000007,116.41015599999992,108.84619099999964,106.79492200000004,106.6665039999998,108.0771479999994,93.9741210000002,93.3334960000002,-368.84619099999964,111.79492200000004
316,-55.51293900000019,-111.66674799999964,95.38476599999922,92.94873000000007,111.15380900000036,113.9741210000002,107.30761700000039,106.41015599999992,105.38476599999922,108.46142599999985,95.51269500000035,94.61523400000078,-364.8718259999996,109.87158199999976
317,-55.38452099999995,-109.48706099999981,95.51269500000035,93.84619099999964,111.79492200000004,111.6665039999998,106.2822270000006,106.53857400000015,104.23095699999976,109.48730499999965,96.53857400000015,95.51269500000035,-359.7436520000001,107.94873000000007
318,-52.948729999999614,-106.41015600000037,97.17968800000017,93.7177729999994,108.46142599999985,110.38476599999922,106.41015599999992,106.9228520000006,103.46142599999985,109.87158199999976,96.53857400000015,95.64111300000059,-355.1281740000004,109.87158199999976
319,-49.8718259999996,-104.48706099999981,99.61523400000078,92.56396500000028,101.9228520000006,110.51269500000035,107.56396500000028,106.53857400000015,103.20507799999996,109.87158199999976,95.12841800000024,94.74365200000011,-351.923096,112.05126999999993
320,-48.07690400000001,-104.74365200000011,100.89746099999957,90.64111300000059,95.51269500000035,111.2822270000006,109.23095699999976,105.51269500000035,103.20507799999996,110.0,93.0771479999994,92.82031300000017,-350.1281740000004,109.74365200000011
321,-48.974365000000034,-107.69238299999961,99.74365200000011,88.58984400000008,91.79492200000004,111.79492200000004,110.38476599999922,104.87158199999976,103.7177729999994,110.64111300000059,90.51269500000035,90.76904300000024,-349.61547900000005,106.41015599999992
322,-51.41015600000037,-111.41015600000037,97.30761700000039,87.17968800000017,92.30761700000039,111.53857400000015,110.89746099999957,105.0,104.61523400000078,110.76904300000024,88.0771479999994,89.48730499999965,-350.0,108.0771479999994
323,-52.82055700000001,-112.17944299999999,95.51269500000035,87.56396500000028,96.0258789999998,111.41015599999992,111.0258789999998,106.2822270000006,106.15380900000036,110.12841800000024,87.17968800000017,89.61523400000078,-348.84619099999964,112.56396500000028
324,-50.38452099999995,-107.17944299999999,96.2822270000006,89.87158199999976,100.76904300000024,112.69238299999961,111.2822270000006,108.7177729999994,108.3334960000002,109.74365200000011,88.9741210000002,91.41015599999992,-343.71801800000003,113.3334960000002
325,-45.25634799999989,-99.10253899999998,99.35888699999941,92.69238299999961,103.58984400000008,114.61523400000078,111.53857400000015,110.89746099999957,110.12841800000024,110.51269500000035,92.94873000000007,94.48730499999965,-335.1281740000004,110.25634799999989
326,-42.17944299999999,-95.51293900000019,102.43603499999972,93.46142599999985,102.82031300000017,115.12841800000024,110.89746099999957,111.6665039999998,110.25634799999989,112.05126999999993,96.6665039999998,97.30761700000039,-327.3076170000004,109.48730499999965
327,-44.48706099999981,-101.53857400000015,102.56396500000028,91.0258789999998,99.35888699999941,113.3334960000002,109.74365200000011,110.76904300000024,108.58984400000008,113.46142599999985,97.69238299999961,97.94873000000007,-324.102539,111.79492200000004
328,-51.28198199999997,-114.48706099999981,99.10253900000043,87.43603499999972,96.53857400000015,110.89746099999957,108.9741210000002,109.61523400000078,106.79492200000004,114.61523400000078,96.0258789999998,95.89746099999957,-325.64111300000013,111.6665039999998
329,-57.564209000000574,-125.64111300000013,94.48730499999965,85.76904300000024,97.05126999999993,110.38476599999922,109.23095699999976,109.48730499999965,106.9228520000006,115.89746099999957,92.82031300000017,92.43603499999972,-329.4870609999998,108.46142599999985
330,-59.23071300000038,-126.53857400000015,90.89746099999957,87.30761700000039,100.38476599999922,112.05126999999993,109.61523400000078,110.0,108.84619099999964,116.41015599999992,89.10253900000043,88.9741210000002,-333.46142599999985,107.30761700000039
331,-55.89746100000002,-115.0,88.84619099999964,90.76904300000024,103.9741210000002,113.84619099999964,108.58984400000008,109.23095699999976,110.51269500000035,114.74365200000011,85.0,85.89746099999957,-337.179443,110.38476599999922
332,-49.74365200000011,-95.38452099999995,87.43603499999972,93.9741210000002,105.51269500000035,113.3334960000002,105.51269500000035,106.53857400000015,109.74365200000011,109.74365200000011,81.2822270000006,82.69238299999961,-341.28198199999997,112.17968800000017
333,-44.23071300000038,-75.0,86.0258789999998,96.0258789999998,104.61523400000078,110.12841800000024,101.15380900000036,102.94873000000007,106.0258789999998,102.17968800000017,78.3334960000002,79.23095699999976,-346.28198199999997,110.51269500000035
334,-41.53857400000015,-60.1281740000004,84.35888699999941,96.9228520000006,101.9228520000006,105.25634799999989,97.43603499999972,99.74365200000011,100.76904300000024,94.10253900000043,75.64111300000059,75.51269500000035,-353.076904,110.12841800000024
335,-42.17944299999999,-52.051270000000386,82.43603499999972,97.56396500000028,99.61523400000078,100.64111300000059,95.12841800000024,97.30761700000039,95.64111300000059,87.30761700000039,71.9228520000006,71.9228520000006,-362.9487299999996,113.84619099999964
336,-43.58984399999963,-46.41015600000037,80.76904300000024,99.10253900000043,99.35888699999941,98.20507799999996,94.48730499999965,94.87158199999976,92.69238299999961,82.94873000000007,66.15380900000036,68.58984400000008,-374.2307130000004,116.15380900000036
337,-43.58984399999963,-37.82055700000001,79.87158199999976,102.30761700000039,101.53857400000015,98.46142599999985,94.35888699999941,92.56396500000028,92.43603499999972,80.89746099999957,59.35888699999941,65.64111300000059,-384.61547900000005,111.6665039999998
338,-41.92309599999999,-24.8718259999996,79.10253900000043,106.53857400000015,104.23095699999976,99.35888699999941,93.7177729999994,90.89746099999957,93.58984400000008,79.23095699999976,52.69238299999961,63.333496000000196,-393.46142599999985,105.38476599999922
339,-40.89746100000002,-10.512939000000188,77.82031300000017,109.74365200000011,105.0,99.23095699999976,91.79492200000004,89.61523400000078,93.20507799999996,75.76904300000024,46.79492200000004,61.410155999999915,-401.923096,105.12841800000024
340,-41.92309599999999,1.7949220000000423,76.15380900000036,110.51269500000035,103.0771479999994,98.3334960000002,89.48730499999965,88.0771479999994,90.12841800000024,69.87158199999976,42.17968800000017,59.87158199999976,-411.28198199999997,109.35888699999941
341,-43.71801800000003,11.025878999999804,75.25634799999989,109.48730499999965,100.89746099999957,98.3334960000002,88.20507799999996,86.6665039999998,85.51269500000035,63.589844000000085,38.7177729999994,59.23095699999976,-420.1281740000004,111.15380900000036
342,-44.48706099999981,17.94873000000007,76.0258789999998,108.3334960000002,100.89746099999957,100.51269500000035,88.9741210000002,86.15380900000036,82.56396500000028,59.61523400000078,36.410155999999915,60.0,-426.79492200000004,109.74365200000011
343,-43.20507799999996,22.94873000000007,77.94873000000007,108.3334960000002,103.84619099999964,103.20507799999996,91.0258789999998,86.41015599999992,82.30761700000039,58.7177729999994,34.48730499999965,61.53857400000015,-430.1281740000004,109.87158199999976
344,-41.025634999999966,25.641113000000587,79.23095699999976,108.9741210000002,108.3334960000002,104.35888699999941,92.69238299999961,87.05126999999993,84.23095699999976,59.74365200000011,32.17968800000017,62.43603499999972,-430.64111300000013,111.6665039999998
345,-39.74365200000011,25.384765999999217,78.84619099999964,109.48730499999965,112.30761700000039,103.46142599999985,93.0771479999994,87.56396500000028,86.53857400000015,60.64111300000059,29.871581999999762,61.666503999999804,-428.46142599999985,110.38476599999922
346,-40.1281740000004,22.30761700000039,77.43603499999972,109.23095699999976,113.9741210000002,101.79492200000004,92.69238299999961,87.82031300000017,87.94873000000007,59.61523400000078,28.589844000000085,60.12841800000024,-424.7436520000001,106.2822270000006
347,-41.79492200000004,18.333496000000196,76.2822270000006,108.20507799999996,111.79492200000004,100.64111300000059,92.17968800000017,87.69238299999961,87.56396500000028,56.666503999999804,28.717772999999397,58.846190999999635,-420.7692869999996,104.87158199999976
348,-42.948729999999614,15.641113000000587,76.0258789999998,107.30761700000039,106.79492200000004,100.38476599999922,91.9228520000006,87.30761700000039,85.51269500000035,53.20507799999996,29.74365200000011,58.974121000000196,-417.6923829999996,107.43603499999972
349,-41.92309599999999,16.025878999999804,77.43603499999972,107.17968800000017,102.43603499999972,101.15380900000036,91.9228520000006,87.05126999999993,83.3334960000002,51.9228520000006,31.153809000000365,60.64111300000059,-415.1281740000004,108.0771479999994
350,-38.71801800000003,19.74365200000011,81.2822270000006,108.3334960000002,102.43603499999972,102.56396500000028,92.05126999999993,87.94873000000007,82.82031300000017,54.23095699999976,32.94873000000007,63.974121000000196,-411.41015600000037,105.0
351,-35.25634799999989,23.974121000000196,87.17968800000017,110.25634799999989,106.6665039999998,103.84619099999964,92.05126999999993,90.12841800000024,84.23095699999976,58.7177729999994,35.25634799999989,68.3334960000002,-405.5129390000002,103.9741210000002
352,-33.33325200000036,26.282227000000603,92.69238299999961,111.9228520000006,111.53857400000015,104.23095699999976,91.9228520000006,92.82031300000017,86.41015599999992,63.20507799999996,37.94873000000007,71.6665039999998,-398.076904,108.3334960000002
353,-32.82055700000001,25.897460999999566,94.74365200000011,112.43603499999972,113.7177729999994,104.48730499999965,92.43603499999972,94.48730499999965,88.20507799999996,65.51269500000035,40.25634799999989,72.30761700000039,-391.53857400000015,112.17968800000017
354,-32.564209000000574,24.615234000000783,92.82031300000017,111.79492200000004,111.9228520000006,105.25634799999989,93.9741210000002,94.48730499999965,89.35888699999941,65.38476599999922,41.153809000000365,70.25634799999989,-387.9487299999996,110.0
355,-31.923095999999987,24.102539000000434,88.46142599999985,110.25634799999989,107.82031300000017,105.89746099999957,95.64111300000059,93.20507799999996,90.12841800000024,63.846190999999635,40.38476599999922,66.79492200000004,-388.076904,106.15380900000036
356,-30.89746100000002,24.615234000000783,84.35888699999941,108.46142599999985,103.58984400000008,105.0,95.76904300000024,91.53857400000015,90.51269500000035,61.79492200000004,38.589844000000085,64.35888699999941,-389.61547900000005,106.6665039999998
357,-29.358886999999868,25.897460999999566,81.9228520000006,107.56396500000028,101.2822270000006,102.82031300000017,93.9741210000002,91.0258789999998,90.38476599999922,60.38476599999922,37.82031300000017,64.23095699999976,-388.33325200000036,110.12841800000024
358,-26.794922000000042,27.56396500000028,81.9228520000006,107.30761700000039,102.17968800000017,100.89746099999957,91.2822270000006,91.9228520000006,89.87158199999976,59.87158199999976,39.61523400000078,66.6665039999998,-382.0512700000004,111.41015599999992
359,-23.846190999999635,28.589844000000085,83.84619099999964,107.17968800000017,105.89746099999957,100.64111300000059,89.74365200000011,93.3334960000002,89.10253900000043,60.51269500000035,43.333496000000196,69.61523400000078,-373.076904,111.53857400000015
360,-22.30761700000039,28.461425999999847,85.89746099999957,106.53857400000015,110.12841800000024,102.17968800000017,90.0,93.58984400000008,88.3334960000002,61.79492200000004,46.2822270000006,71.0258789999998,-366.41015600000037,114.10253900000043
361,-23.461425999999847,27.17968800000017,86.53857400000015,105.51269500000035,112.43603499999972,104.23095699999976,91.53857400000015,92.43603499999972,87.69238299999961,63.20507799999996,46.025878999999804,69.87158199999976,-364.61547900000005,116.53857400000015
362,-26.666747999999643,25.641113000000587,85.51269500000035,105.12841800000024,112.05126999999993,105.76904300000024,92.94873000000007,90.51269500000035,87.30761700000039,63.7177729999994,42.94873000000007,66.53857400000015,-366.15380900000036,113.7177729999994
363,-30.512939000000188,24.74365200000011,83.58984400000008,105.76904300000024,109.23095699999976,105.25634799999989,92.56396500000028,88.0771479999994,86.41015599999992,62.94873000000007,39.23095699999976,63.333496000000196,-366.923096,107.69238299999961
364,-32.948729999999614,24.102539000000434,81.79492200000004,106.41015599999992,105.89746099999957,102.43603499999972,90.12841800000024,85.38476599999922,84.74365200000011,60.76904300000024,36.9228520000006,62.17968800000017,-365.0,105.76904300000024
365,-32.82055700000001,24.102539000000434,80.0,106.0258789999998,104.10253900000043,99.35888699999941,87.56396500000028,82.94873000000007,83.7177729999994,58.846190999999635,36.666503999999804,63.20507799999996,-360.7692869999996,109.10253900000043
366,-29.10253899999998,25.51269500000035,78.46142599999985,105.25634799999989,106.0258789999998,99.61523400000078,87.69238299999961,82.43603499999972,84.87158199999976,59.102539000000434,38.846190999999635,65.51269500000035,-355.64111300000013,110.89746099999957
367,-23.205077999999958,28.333496000000196,77.69238299999961,105.89746099999957,111.0258789999998,104.74365200000011,91.79492200000004,85.51269500000035,88.20507799999996,62.30761700000039,42.05126999999993,67.17968800000017,-350.897461,108.3334960000002
368,-18.846190999999635,31.153809000000365,78.3334960000002,107.82031300000017,116.0258789999998,111.9228520000006,97.05126999999993,90.64111300000059,91.53857400000015,66.15380900000036,44.102539000000434,66.41015599999992,-347.3076170000004,106.53857400000015
369,-18.58984399999963,31.794922000000042,79.35888699999941,109.74365200000011,117.56396500000028,115.89746099999957,99.48730499999965,94.23095699999976,92.56396500000028,68.20507799999996,43.20507799999996,63.846190999999635,-344.7436520000001,107.94873000000007
370,-21.923095999999987,30.0,79.35888699999941,109.74365200000011,115.51269500000035,114.48730499999965,97.43603499999972,93.58984400000008,90.89746099999957,67.17968800000017,39.74365200000011,61.025878999999804,-342.0512700000004,108.7177729999994
371,-25.512939000000188,26.666503999999804,77.56396500000028,107.30761700000039,112.69238299999961,109.87158199999976,92.94873000000007,89.23095699999976,87.43603499999972,63.846190999999635,36.025878999999804,58.974121000000196,-338.71801800000003,106.15380900000036
372,-27.820557000000008,22.69238299999961,74.23095699999976,103.0771479999994,111.15380900000036,105.38476599999922,89.23095699999976,83.84619099999964,83.46142599999985,59.74365200000011,33.589844000000085,57.56396500000028,-336.15380900000036,104.87158199999976
373,-29.487060999999812,18.974121000000196,70.51269500000035,98.58984400000008,111.15380900000036,103.58984400000008,88.58984400000008,80.64111300000059,79.74365200000011,56.2822270000006,32.43603499999972,55.38476599999922,-336.41015600000037,108.58984400000008
374,-31.794922000000042,16.538574000000153,67.94873000000007,96.0258789999998,111.53857400000015,105.25634799999989,90.76904300000024,80.38476599999922,76.9228520000006,54.48730499999965,32.17968800000017,52.56396500000028,-338.97436500000003,112.56396500000028
375,-33.846190999999635,17.17968800000017,67.56396500000028,96.9228520000006,111.2822270000006,109.23095699999976,93.7177729999994,82.43603499999972,76.0258789999998,54.48730499999965,32.30761700000039,50.51269500000035,-340.897461,111.15380900000036
376,-33.71801800000003,20.51269500000035,69.23095699999976,100.76904300000024,109.87158199999976,112.69238299999961,95.64111300000059,84.35888699999941,77.30761700000039,55.64111300000059,33.0771479999994,50.51269500000035,-339.2307130000004,107.94873000000007
377,-30.512939000000188,24.615234000000783,71.2822270000006,105.0,108.0771479999994,113.0771479999994,95.76904300000024,84.61523400000078,79.74365200000011,56.79492200000004,34.48730499999965,52.56396500000028,-333.33325200000036,108.84619099999964
378,-24.8718259999996,27.94873000000007,72.82031300000017,107.43603499999972,108.3334960000002,110.76904300000024,95.38476599999922,83.7177729999994,82.94873000000007,58.20507799999996,37.56396500000028,55.64111300000059,-324.4870609999998,112.17968800000017
379,-18.58984399999963,30.25634799999989,74.48730499999965,108.7177729999994,112.69238299999961,108.9741210000002,96.0258789999998,84.23095699999976,86.6665039999998,61.025878999999804,42.43603499999972,58.974121000000196,-313.84619099999964,111.79492200000004
380,-13.71801800000003,32.17968800000017,76.6665039999998,110.0,119.74365200000011,110.38476599999922,98.58984400000008,87.69238299999961,90.38476599999922,65.89746099999957,48.20507799999996,62.69238299999961,-302.9487299999996,108.46142599999985
381,-11.923095999999987,32.94873000000007,79.35888699999941,111.53857400000015,125.25634799999989,114.61523400000078,102.82031300000017,93.0771479999994,93.20507799999996,70.89746099999957,51.9228520000006,66.2822270000006,-294.61547900000005,107.94873000000007
382,-13.076904000000013,31.922852000000603,81.2822270000006,111.6665039999998,125.25634799999989,118.58984400000008,107.43603499999972,97.17968800000017,94.23095699999976,73.46142599999985,51.153809000000365,68.9741210000002,-290.7692869999996,110.51269500000035
383,-15.0,29.48730499999965,81.41015599999992,109.35888699999941,120.12841800000024,120.12841800000024,110.76904300000024,97.94873000000007,93.58984400000008,72.56396500000028,47.17968800000017,70.0,-290.897461,110.38476599999922
