,EEG.AF3,EEG.F7,EEG.F3,EEG.FC5,EEG.T7,EEG.P7,EEG.O1,EEG.O2,EEG.P8,EEG.T8,EEG.FC6,EEG.F4,EEG.F8,EEG.AF4
0,108.20507799999996,197.6923829999996,117.43603499999972,-7.435790999999426,76.79492200000004,89.35888699999941,114.74365200000011,107.30761700000039,130.6411130000006,139.7436520000001,124.35888699999941,108.9741210000002,896.5385740000002,114.48730499999965
1,103.0771479999994,197.94873000000007,112.05126999999993,-12.051270000000386,65.76904300000024,77.56396500000028,106.79492200000004,99.23095699999976,110.76904300000024,114.23095699999976,118.20507799999996,101.53857400000015,876.5385740000002,108.46142599999985
2,102.30761700000039,214.23095699999976,111.2822270000006,-9.487060999999812,49.74365200000011,70.12841800000024,102.43603499999972,98.20507799999996,94.10253900000043,101.79492200000004,118.3334960000002,99.74365200000011,862.5639650000003,106.6665039999998
3,106.0258789999998,234.7436520000001,116.0258789999998,0.8974609999995664,39.102539000000434,72.69238299999961,105.25634799999989,105.64111300000059,91.15380900000036,106.41015599999992,124.48730499999965,105.12841800000024,855.5126950000003,110.64111300000059
4,109.61523400000078,243.58984400000008,122.43603499999972,12.948730000000069,36.79492200000004,81.2822270000006,111.2822270000006,116.6665039999998,100.38476599999922,117.43603499999972,131.6665039999998,113.0771479999994,849.1025390000004,113.0771479999994
5,106.0258789999998,232.94873000000007,124.10253900000043,17.69238299999961,36.410155999999915,85.25634799999989,113.0771479999994,122.05126999999993,110.64111300000059,118.84619099999964,132.43603499999972,115.89746099999957,833.0771479999994,110.38476599999922
6,93.84619099999964,208.84619099999964,118.20507799999996,10.641113000000587,31.282227000000603,77.94873000000007,106.79492200000004,116.2822270000006,111.15380900000036,103.20507799999996,123.84619099999964,109.48730499999965,803.205078,107.82031300000017
7,80.76904300000024,187.56396500000028,108.3334960000002,-2.1796869999998307,22.05126999999993,64.10253900000043,96.2822270000006,102.56396500000028,101.53857400000015,78.46142599999985,110.76904300000024,98.46142599999985,767.1796880000002,108.84619099999964
8,78.3334960000002,182.82031300000017,102.17968800000017,-8.58984399999963,17.17968800000017,55.12841800000024,89.61523400000078,90.64111300000059,90.76904300000024,61.2822270000006,102.82031300000017,92.69238299999961,739.4873049999997,108.84619099999964
9,92.30761700000039,195.89746099999957,105.38476599999922,-0.769043000000238,22.69238299999961,59.23095699999976,91.9228520000006,88.7177729999994,89.23095699999976,64.10253900000043,105.64111300000059,98.84619099999964,727.5639650000003,104.74365200000011
10,118.3334960000002,215.51269500000035,117.17968800000017,17.05126999999993,36.410155999999915,74.10253900000043,101.2822270000006,97.17968800000017,99.74365200000011,86.9228520000006,116.79492200000004,114.10253900000043,725.2563479999999,102.17968800000017
11,145.12841800000024,228.3334960000002,130.76904300000024,33.589844000000085,49.35888699999941,91.15380900000036,111.41015599999992,109.23095699999976,116.15380900000036,118.3334960000002,128.0771479999994,129.10253900000043,718.9741210000002,106.79492200000004
12,163.58984400000008,227.94873000000007,138.9741210000002,40.25634799999989,54.48730499999965,101.41015599999992,117.17968800000017,116.79492200000004,127.82031300000017,143.0771479999994,132.05126999999993,134.87158199999976,698.5898440000001,113.3334960000002
13,172.6923829999996,217.82031300000017,139.10253900000043,36.9228520000006,51.2822270000006,101.0258789999998,117.30761700000039,116.15380900000036,128.46142599999985,151.15380900000036,127.43603499999972,130.0,663.7177729999994,114.48730499999965
14,177.56396500000028,208.20507799999996,133.9741210000002,30.384765999999217,46.025878999999804,92.82031300000017,114.87158199999976,109.74365200000011,120.25634799999989,142.56396500000028,119.10253900000043,120.64111300000059,621.4101559999999,112.05126999999993
15,184.10253900000043,208.20507799999996,129.10253900000043,27.05126999999993,45.0,83.46142599999985,113.46142599999985,104.10253900000043,111.0258789999998,125.38476599999922,113.46142599999985,114.35888699999941,579.6152340000008,112.69238299999961
16,192.82031300000017,220.51269500000035,127.82031300000017,28.846190999999635,50.51269500000035,79.48730499999965,114.61523400000078,104.61523400000078,106.9228520000006,109.35888699999941,113.46142599999985,114.35888699999941,542.3076170000004,115.51269500000035
17,198.84619099999964,239.48730499999965,129.23095699999976,33.46142599999985,60.897460999999566,82.17968800000017,116.41015599999992,111.41015599999992,109.23095699999976,100.76904300000024,116.6665039999998,117.30761700000039,508.20507799999996,114.61523400000078
18,198.0771479999994,255.6411130000006,130.76904300000024,37.82031300000017,73.58984400000008,88.0771479999994,116.79492200000004,119.48730499999965,114.61523400000078,101.6665039999998,118.7177729999994,119.10253900000043,473.9741210000002,110.64111300000059
19,191.9228520000006,262.05126999999993,131.0258789999998,41.153809000000365,86.15380900000036,91.6665039999998,114.87158199999976,122.43603499999972,119.48730499999965,110.76904300000024,118.46142599999985,118.7177729999994,438.0771479999994,110.38476599999922
20,186.41015599999992,258.84619099999964,130.38476599999922,44.61523400000078,95.76904300000024,90.0,111.9228520000006,118.20507799999996,122.56396500000028,123.3334960000002,116.9228520000006,118.0771479999994,401.9228520000006,113.7177729999994
21,186.9228520000006,251.9228520000006,130.2563479999999,48.846190999999635,100.12841800000024,85.0,110.12841800000024,110.64111300000059,124.23095699999976,132.56396500000028,115.64111300000059,118.58984400000008,367.94873000000007,114.23095699999976
22,193.20507799999996,247.82031300000017,130.76904300000024,53.20507799999996,98.7177729999994,81.15380900000036,110.89746099999957,106.2822270000006,125.38476599999922,132.17968800000017,114.74365200000011,120.89746099999957,336.79492200000004,110.51269500000035
23,199.7436520000001,249.61523400000078,131.0258789999998,56.025878999999804,93.58984400000008,81.53857400000015,114.35888699999941,108.46142599999985,126.0258789999998,119.61523400000078,113.9741210000002,123.7177729999994,306.4101559999999,109.35888699999941
24,200.38476599999922,256.0258789999998,129.61523400000078,55.897460999999566,88.3334960000002,85.38476599999922,118.0771479999994,114.23095699999976,124.61523400000078,98.7177729999994,112.82031300000017,125.38476599999922,273.9741210000002,113.3334960000002
25,193.58984400000008,265.0,126.2822270000006,54.23095699999976,86.6665039999998,89.23095699999976,119.23095699999976,117.69238299999961,120.25634799999989,80.0,111.53857400000015,124.87158199999976,239.3588869999994,115.64111300000059
26,184.23095699999976,276.0258789999998,123.0771479999994,55.0,90.64111300000059,91.15380900000036,117.17968800000017,115.89746099999957,114.74365200000011,75.64111300000059,110.38476599999922,123.46142599999985,205.12841800000024,112.69238299999961
27,178.58984400000008,289.6152340000008,121.9228520000006,61.025878999999804,97.05126999999993,91.2822270000006,114.10253900000043,110.51269500000035,111.0258789999998,90.51269500000035,109.23095699999976,123.58984400000008,174.10253900000043,110.0
28,178.46142599999985,304.48730499999965,122.17968800000017,70.0,96.6665039999998,90.25634799999989,112.56396500000028,105.51269500000035,110.89746099999957,115.25634799999989,106.6665039999998,124.74365200000011,145.2563479999999,112.30761700000039
29,178.9741210000002,317.3076170000004,121.41015599999992,75.51269500000035,80.89746099999957,88.84619099999964,113.58984400000008,103.0771479999994,112.56396500000028,132.17968800000017,101.0258789999998,124.10253900000043,114.48730499999965,115.38476599999922
30,175.12841800000024,326.53857400000015,118.3334960000002,74.10253900000043,51.025878999999804,88.46142599999985,116.79492200000004,103.20507799999996,113.46142599999985,130.6411130000006,92.94873000000007,119.87158199999976,80.0,113.7177729999994
31,167.82031300000017,333.3334960000002,114.74365200000011,69.48730499999965,21.410155999999915,91.0258789999998,120.76904300000024,104.74365200000011,113.20507799999996,116.9228520000006,87.56396500000028,114.87158199999976,45.12841800000024,110.51269500000035
32,162.3076170000004,339.10253900000043,113.84619099999964,68.58984400000008,9.230956999999762,96.9228520000006,123.46142599999985,105.76904300000024,113.3334960000002,105.76904300000024,88.9741210000002,113.20507799999996,15.769043000000238,111.79492200000004
33,162.43603499999972,344.10253900000043,116.6665039999998,75.89746099999957,21.025878999999804,102.82031300000017,123.20507799999996,105.0,115.51269500000035,106.79492200000004,96.9228520000006,116.15380900000036,-4.871825999999601,115.38476599999922
34,168.20507799999996,348.84619099999964,121.6665039999998,89.48730499999965,48.0771479999994,105.64111300000059,119.48730499999965,103.20507799999996,119.87158199999976,117.17968800000017,107.17968800000017,122.17968800000017,-17.948729999999614,115.12841800000024
35,175.6411130000006,355.3847659999992,125.89746099999957,103.84619099999964,72.43603499999972,104.48730499999965,114.74365200000011,102.56396500000028,125.25634799999989,126.2822270000006,115.0,128.20507799999996,-26.538574000000153,112.43603499999972
36,179.87158199999976,363.46142599999985,127.17968800000017,112.69238299999961,79.87158199999976,100.89746099999957,112.05126999999993,104.23095699999976,129.10253900000043,124.74365200000011,117.30761700000039,132.6923829999996,-34.8718259999996,112.94873000000007
37,177.3076170000004,368.3334960000002,125.12841800000024,113.0771479999994,68.58984400000008,96.79492200000004,113.20507799999996,107.69238299999961,128.58984400000008,109.87158199999976,113.58984400000008,134.48730499999965,-47.17944299999999,115.64111300000059
38,167.56396500000028,364.3588869999994,121.2822270000006,106.15380900000036,49.74365200000011,94.35888699999941,117.05126999999993,111.6665039999998,123.84619099999964,89.10253900000043,106.0258789999998,133.0771479999994,-66.02563499999997,114.48730499999965
39,153.7177729999994,350.12841800000024,118.20507799999996,95.76904300000024,37.82031300000017,94.48730499999965,120.64111300000059,115.51269500000035,118.0771479999994,76.0258789999998,97.94873000000007,129.7436520000001,-90.38452099999995,109.87158199999976
40,140.0,331.15380900000036,116.79492200000004,87.56396500000028,41.53857400000015,96.15380900000036,121.2822270000006,118.58984400000008,115.25634799999989,80.25634799999989,92.43603499999972,125.64111300000059,-116.28198199999997,108.46142599999985
41,130.0,315.6411130000006,116.15380900000036,85.25634799999989,59.102539000000434,97.05126999999993,118.3334960000002,119.35888699999941,116.2822270000006,100.51269500000035,90.64111300000059,121.41015599999992,-138.58984399999963,111.9228520000006
42,126.0258789999998,309.10253900000043,115.0,90.0,81.0258789999998,95.76904300000024,113.7177729999994,116.0258789999998,118.46142599999985,125.51269500000035,91.9228520000006,117.82031300000017,-153.20507799999996,113.7177729999994
43,128.20507799999996,310.76904300000024,113.7177729999994,98.46142599999985,96.79492200000004,93.20507799999996,111.0258789999998,109.61523400000078,119.23095699999976,143.58984400000008,95.0,116.6665039999998,-158.33325200000036,111.41015599999992
44,134.3588869999994,314.7436520000001,114.10253900000043,105.64111300000059,99.23095699999976,91.6665039999998,112.30761700000039,104.35888699999941,119.74365200000011,150.0,99.23095699999976,119.48730499999965,-156.41015600000037,110.89746099999957
45,140.51269500000035,313.20507799999996,116.41015599999992,107.69238299999961,87.94873000000007,93.20507799999996,117.05126999999993,104.48730499999965,122.30761700000039,147.94873000000007,103.20507799999996,125.51269500000035,-153.076904,115.64111300000059
46,142.3076170000004,302.05126999999993,119.35888699999941,104.74365200000011,69.48730499999965,96.6665039999998,121.15380900000036,110.89746099999957,127.69238299999961,142.05126999999993,105.38476599999922,130.76904300000024,-155.2563479999999,119.61523400000078
47,137.3076170000004,283.9741210000002,120.0,100.25634799999989,53.0771479999994,98.84619099999964,121.0258789999998,118.7177729999994,132.43603499999972,134.87158199999976,104.10253900000043,130.76904300000024,-167.3076170000004,117.17968800000017
48,126.9228520000006,266.9228520000006,116.79492200000004,98.20507799999996,47.30761700000039,98.3334960000002,116.79492200000004,121.9228520000006,132.94873000000007,128.3334960000002,99.74365200000011,124.35888699999941,-188.076904,112.17968800000017
49,116.15380900000036,259.6152340000008,111.2822270000006,101.2822270000006,56.666503999999804,98.20507799999996,112.94873000000007,118.46142599999985,128.9741210000002,124.48730499999965,95.51269500000035,115.76904300000024,-210.2563479999999,110.89746099999957
50,111.15380900000036,265.51269500000035,108.0771479999994,109.35888699999941,80.38476599999922,103.7177729999994,115.0,112.82031300000017,123.9741210000002,124.48730499999965,95.38476599999922,111.9228520000006,-223.97436500000003,111.15380900000036
51,114.10253900000043,279.10253900000043,110.76904300000024,119.61523400000078,110.25634799999989,115.0,124.23095699999976,110.51269500000035,122.05126999999993,125.76904300000024,101.0258789999998,117.30761700000039,-225.38452099999995,108.0771479999994
52,121.0258789999998,289.10253900000043,117.30761700000039,126.79492200000004,131.53857400000015,124.87158199999976,134.7436520000001,113.58984400000008,123.58984400000008,123.20507799999996,108.46142599999985,128.3334960000002,-220.76928699999962,104.61523400000078
53,125.0,286.53857400000015,121.41015599999992,126.15380900000036,131.0258789999998,124.35888699999941,138.0771479999994,118.0771479999994,126.0258789999998,114.61523400000078,111.2822270000006,136.53857400000015,-221.923096,106.6665039999998
54,121.2822270000006,271.53857400000015,117.94873000000007,118.0771479999994,108.46142599999985,112.17968800000017,130.76904300000024,118.9741210000002,127.17968800000017,104.48730499999965,105.25634799999989,135.0,-236.41015600000037,111.6665039999998
55,111.6665039999998,252.56396500000028,108.84619099999964,110.0,79.10253900000043,96.79492200000004,117.82031300000017,114.74365200000011,127.82031300000017,101.2822270000006,93.46142599999985,124.74365200000011,-260.64111300000013,111.6665039999998
56,102.17968800000017,238.58984400000008,100.89746099999957,110.51269500000035,63.7177729999994,89.48730499999965,108.58984400000008,109.10253900000043,130.38476599999922,111.79492200000004,83.46142599999985,113.84619099999964,-283.20507799999996,106.6665039999998
57,98.58984400000008,233.9741210000002,101.15380900000036,122.17968800000017,72.82031300000017,94.48730499999965,109.61523400000078,106.2822270000006,135.12841800000024,134.7436520000001,82.30761700000039,111.6665039999998,-293.20507799999996,104.35888699999941
58,102.69238299999961,238.20507799999996,110.0,139.87158199999976,99.74365200000011,107.30761700000039,119.23095699999976,108.20507799999996,139.10253900000043,160.2563479999999,91.53857400000015,120.12841800000024,-288.71801800000003,106.79492200000004
59,110.38476599999922,246.9228520000006,121.0258789999998,154.48730499999965,125.89746099999957,118.20507799999996,129.48730499999965,112.30761700000039,137.56396500000028,174.48730499999965,104.61523400000078,132.17968800000017,-278.46142599999985,108.3334960000002
60,114.10253900000043,253.84619099999964,125.25634799999989,158.84619099999964,133.3334960000002,119.35888699999941,132.17968800000017,113.9741210000002,128.84619099999964,168.46142599999985,111.2822270000006,136.79492200000004,-276.41015600000037,106.0258789999998
61,108.46142599999985,253.0771479999994,118.7177729999994,152.3076170000004,118.0771479999994,110.51269500000035,125.12841800000024,111.15380900000036,117.17968800000017,145.76904300000024,105.25634799999989,128.3334960000002,-291.41015600000037,104.87158199999976
62,95.51269500000035,243.9741210000002,105.51269500000035,140.76904300000024,93.20507799999996,99.87158199999976,114.48730499999965,106.0258789999998,110.25634799999989,120.64111300000059,90.0,111.79492200000004,-318.97436500000003,106.9228520000006
63,83.46142599999985,232.94873000000007,95.25634799999989,132.6923829999996,79.48730499999965,96.79492200000004,109.10253900000043,103.58984400000008,112.30761700000039,106.6665039999998,76.41015599999992,98.84619099999964,-343.97436500000003,106.9228520000006
64,79.48730499999965,226.15380900000036,94.35888699999941,132.82031300000017,87.30761700000039,103.46142599999985,112.05126999999993,106.15380900000036,119.74365200000011,104.87158199999976,72.94873000000007,97.30761700000039,-353.33325200000036,102.30761700000039
65,83.0771479999994,224.23095699999976,100.12841800000024,138.84619099999964,108.20507799999996,112.05126999999993,118.46142599999985,109.87158199999976,122.94873000000007,104.48730499999965,79.10253900000043,105.12841800000024,-348.20507799999996,98.84619099999964
66,87.30761700000039,221.6665039999998,104.87158199999976,144.10253900000043,122.82031300000017,112.43603499999972,120.25634799999989,108.9741210000002,115.64111300000059,94.61523400000078,86.41015599999992,112.69238299999961,-340.5129390000002,101.2822270000006
67,87.43603499999972,214.23095699999976,103.20507799999996,144.61523400000078,119.48730499999965,102.05126999999993,114.74365200000011,102.17968800000017,100.64111300000059,77.05126999999993,87.82031300000017,113.0771479999994,-341.02563499999997,105.25634799999989
68,84.35888699999941,203.20507799999996,97.69238299999961,142.05126999999993,102.05126999999993,88.58984400000008,107.43603499999972,94.74365200000011,88.9741210000002,65.38476599999922,83.46142599999985,107.69238299999961,-350.64111300000013,104.74365200000011
69,82.17968800000017,193.20507799999996,94.87158199999976,141.15380900000036,85.12841800000024,81.79492200000004,105.51269500000035,93.20507799999996,90.38476599999922,73.46142599999985,78.58984400000008,103.46142599999985,-361.79492200000004,102.30761700000039
70,83.3334960000002,187.6923829999996,98.7177729999994,144.7436520000001,81.53857400000015,85.64111300000059,111.53857400000015,100.0,105.76904300000024,101.79492200000004,77.94873000000007,105.89746099999957,-367.6923829999996,104.10253900000043
71,87.05126999999993,186.6665039999998,107.56396500000028,152.17968800000017,94.87158199999976,96.79492200000004,122.05126999999993,112.30761700000039,126.41015599999992,137.05126999999993,81.9228520000006,114.35888699999941,-366.79492200000004,107.43603499999972
72,90.89746099999957,187.94873000000007,116.2822270000006,160.12841800000024,118.0771479999994,108.9741210000002,131.6665039999998,124.87158199999976,142.3076170000004,161.79492200000004,87.17968800000017,124.23095699999976,-362.9487299999996,106.2822270000006
73,92.56396500000028,188.84619099999964,121.15380900000036,165.76904300000024,139.61523400000078,118.46142599999985,137.17968800000017,133.3334960000002,148.7177729999994,168.0771479999994,90.25634799999989,130.6411130000006,-360.897461,101.79492200000004
74,91.9228520000006,188.0771479999994,121.53857400000015,168.20507799999996,151.15380900000036,124.74365200000011,138.58984400000008,135.6411130000006,146.79492200000004,160.12841800000024,90.12841800000024,132.94873000000007,-363.20507799999996,101.2822270000006
75,90.51269500000035,185.89746099999957,119.10253900000043,168.20507799999996,151.2822270000006,128.20507799999996,137.3076170000004,132.94873000000007,140.2563479999999,148.20507799999996,88.7177729999994,133.3334960000002,-368.58984399999963,105.64111300000059
76,90.38476599999922,184.10253900000043,116.6665039999998,166.41015599999992,145.12841800000024,128.58984400000008,134.48730499999965,127.43603499999972,132.17968800000017,139.61523400000078,88.58984400000008,133.7177729999994,-373.84619099999964,107.69238299999961
77,91.53857400000015,183.9741210000002,115.51269500000035,163.7177729999994,139.10253900000043,125.0,130.12841800000024,122.56396500000028,125.38476599999922,134.48730499999965,90.38476599999922,134.10253900000043,-376.15380900000036,105.51269500000035
78,91.9228520000006,184.48730499999965,115.76904300000024,161.41015599999992,137.82031300000017,118.46142599999985,124.35888699999941,120.25634799999989,122.56396500000028,128.7177729999994,92.56396500000028,133.0771479999994,-376.02563499999997,104.74365200000011
79,89.87158199999976,182.82031300000017,116.15380900000036,161.15380900000036,141.41015599999992,111.79492200000004,118.9741210000002,121.79492200000004,125.76904300000024,121.2822270000006,92.94873000000007,129.61523400000078,-375.0,107.43603499999972
80,85.76904300000024,176.2822270000006,115.64111300000059,162.6923829999996,145.6411130000006,108.46142599999985,116.0258789999998,126.0258789999998,132.82031300000017,115.76904300000024,91.41015599999992,124.87158199999976,-375.0,108.20507799999996
81,81.79492200000004,165.2563479999999,114.23095699999976,163.3334960000002,144.23095699999976,108.9741210000002,116.2822270000006,129.87158199999976,138.84619099999964,115.76904300000024,90.0,120.51269500000035,-376.53857400000015,104.61523400000078
82,79.35888699999941,152.3076170000004,112.56396500000028,160.12841800000024,135.38476599999922,111.53857400000015,118.0771479999994,129.48730499999965,138.58984400000008,118.7177729999994,89.74365200000011,117.69238299999961,-380.5129390000002,101.9228520000006
83,78.20507799999996,141.79492200000004,110.12841800000024,153.46142599999985,123.9741210000002,113.7177729999994,117.56396500000028,123.84619099999964,130.0,117.82031300000017,89.74365200000011,115.76904300000024,-386.923096,103.84619099999964
84,77.94873000000007,136.79492200000004,106.15380900000036,147.6923829999996,118.0771479999994,114.23095699999976,114.23095699999976,115.76904300000024,117.17968800000017,111.0258789999998,88.3334960000002,113.84619099999964,-394.61547900000005,105.12841800000024
85,78.58984400000008,137.56396500000028,102.30761700000039,148.3334960000002,122.05126999999993,113.84619099999964,111.2822270000006,110.76904300000024,108.0771479999994,105.89746099999957,85.0,111.6665039999998,-400.5129390000002,101.41015599999992
86,80.25634799999989,141.79492200000004,101.15380900000036,156.6665039999998,133.46142599999985,114.48730499999965,113.20507799999996,113.20507799999996,109.87158199999976,114.10253900000043,82.05126999999993,110.51269500000035,-402.4357909999994,98.0771479999994
87,82.30761700000039,145.89746099999957,104.23095699999976,167.82031300000017,145.51269500000035,117.69238299999961,120.0,122.94873000000007,122.69238299999961,138.20507799999996,82.30761700000039,111.53857400000015,-400.0,101.41015599999992
88,82.82031300000017,146.53857400000015,108.9741210000002,174.3588869999994,151.9228520000006,122.05126999999993,127.05126999999993,134.48730499999965,139.10253900000043,167.05126999999993,85.64111300000059,114.35888699999941,-395.64111300000013,107.82031300000017
89,80.76904300000024,142.05126999999993,111.53857400000015,172.05126999999993,151.53857400000015,124.23095699999976,128.9741210000002,141.6665039999998,149.7436520000001,184.23095699999976,89.74365200000011,117.82031300000017,-392.4357909999994,109.23095699999976
90,78.20507799999996,134.48730499999965,111.0258789999998,164.3588869999994,148.0771479999994,122.43603499999972,125.64111300000059,141.9228520000006,150.6411130000006,182.17968800000017,92.56396500000028,121.15380900000036,-391.66674799999964,106.2822270000006
91,78.20507799999996,128.3334960000002,109.48730499999965,158.84619099999964,146.41015599999992,117.82031300000017,121.9228520000006,138.0771479999994,145.2563479999999,166.6665039999998,94.10253900000043,124.48730499999965,-392.5642090000006,105.51269500000035
92,81.41015599999992,126.15380900000036,109.61523400000078,160.0,146.6665039999998,113.58984400000008,122.43603499999972,133.9741210000002,138.9741210000002,149.87158199999976,94.87158199999976,126.9228520000006,-394.61547900000005,107.17968800000017
93,83.84619099999964,125.89746099999957,110.89746099999957,164.61523400000078,144.61523400000078,112.30761700000039,126.15380900000036,130.76904300000024,134.87158199999976,139.61523400000078,93.46142599999985,126.2822270000006,-399.35888699999987,106.15380900000036
94,81.6665039999998,123.0771479999994,110.64111300000059,165.89746099999957,138.20507799999996,113.9741210000002,128.58984400000008,127.17968800000017,132.6923829999996,136.53857400000015,88.9741210000002,121.2822270000006,-407.3076170000004,102.17968800000017
95,75.64111300000059,116.53857400000015,107.56396500000028,160.76904300000024,132.17968800000017,116.79492200000004,126.0258789999998,122.43603499999972,132.3076170000004,136.15380900000036,82.94873000000007,114.35888699999941,-415.5129390000002,101.2822270000006
96,70.89746099999957,109.61523400000078,103.7177729999994,153.20507799999996,133.58984400000008,119.74365200000011,120.38476599999922,119.10253900000043,133.7177729999994,134.10253900000043,79.23095699999976,110.64111300000059,-419.35888699999987,104.10253900000043
97,72.17968800000017,107.43603499999972,102.69238299999961,150.89746099999957,144.23095699999976,122.43603499999972,116.41015599999992,120.12841800000024,136.2822270000006,128.58984400000008,81.0258789999998,114.10253900000043,-416.41015600000037,104.48730499999965
98,79.23095699999976,110.76904300000024,106.79492200000004,157.43603499999972,157.05126999999993,124.61523400000078,117.43603499999972,125.64111300000059,137.94873000000007,121.6665039999998,87.69238299999961,124.10253900000043,-409.2307130000004,100.76904300000024
99,87.30761700000039,115.25634799999989,114.23095699999976,169.3588869999994,161.9228520000006,125.38476599999922,121.9228520000006,132.3076170000004,136.2822270000006,119.10253900000043,95.51269500000035,135.38476599999922,-403.58984399999963,99.61523400000078
100,91.41015599999992,115.38476599999922,120.51269500000035,178.7177729999994,155.51269500000035,124.35888699999941,125.0,134.87158199999976,130.6411130000006,125.89746099999957,100.12841800000024,141.79492200000004,-403.20507799999996,104.35888699999941
101,90.0,109.48730499999965,122.56396500000028,179.7436520000001,144.10253900000043,122.30761700000039,123.9741210000002,130.89746099999957,123.20507799999996,140.6411130000006,99.87158199999976,140.76904300000024,-407.0512700000004,108.3334960000002
102,85.89746099999957,100.64111300000059,120.25634799999989,173.20507799999996,138.58984400000008,121.2822270000006,120.25634799999989,123.0771479999994,118.20507799999996,156.0258789999998,96.79492200000004,135.12841800000024,-411.02563499999997,106.2822270000006
103,83.20507799999996,93.58984400000008,117.05126999999993,164.3588869999994,144.87158199999976,122.17968800000017,118.46142599999985,117.43603499999972,118.7177729999994,162.94873000000007,95.25634799999989,130.2563479999999,-411.28198199999997,102.82031300000017
104,83.46142599999985,91.6665039999998,115.89746099999957,158.58984400000008,157.94873000000007,124.10253900000043,121.15380900000036,118.46142599999985,124.74365200000011,156.9228520000006,97.43603499999972,129.10253900000043,-407.9487299999996,104.10253900000043
105,84.10253900000043,93.84619099999964,116.53857400000015,157.3076170000004,166.15380900000036,123.7177729999994,125.64111300000059,125.64111300000059,131.9228520000006,141.2822270000006,101.6665039999998,130.0,-404.35888699999987,107.30761700000039
106,80.76904300000024,95.12841800000024,116.15380900000036,157.43603499999972,161.15380900000036,119.10253900000043,126.15380900000036,132.56396500000028,136.0258789999998,125.64111300000059,102.82031300000017,129.10253900000043,-404.8718259999996,106.2822270000006
107,72.56396500000028,90.64111300000059,112.30761700000039,155.6411130000006,145.76904300000024,111.6665039999998,120.64111300000059,131.79492200000004,134.48730499999965,119.48730499999965,97.94873000000007,124.61523400000078,-410.897461,103.3334960000002
108,62.94873000000007,80.89746099999957,105.89746099999957,152.43603499999972,131.41015599999992,105.76904300000024,112.69238299999961,121.41015599999992,128.9741210000002,124.10253900000043,88.84619099999964,118.7177729999994,-419.102539,103.9741210000002
109,57.82031300000017,71.41015599999992,101.15380900000036,151.6665039999998,127.82031300000017,105.38476599999922,108.9741210000002,106.9228520000006,122.17968800000017,130.51269500000035,81.0258789999998,115.25634799999989,-423.97436500000003,106.6665039999998
110,58.846190999999635,67.30761700000039,100.76904300000024,154.87158199999976,134.3588869999994,110.38476599999922,111.9228520000006,96.41015599999992,116.79492200000004,127.94873000000007,78.7177729999994,115.89746099999957,-423.076904,104.87158199999976
111,62.43603499999972,67.17968800000017,103.46142599999985,158.46142599999985,141.9228520000006,115.64111300000059,117.17968800000017,94.74365200000011,113.9741210000002,114.74365200000011,80.76904300000024,118.7177729999994,-418.33325200000036,99.35888699999941
112,62.82031300000017,66.2822270000006,105.89746099999957,157.82031300000017,141.2822270000006,115.51269500000035,118.3334960000002,100.12841800000024,113.58984400000008,100.76904300000024,83.0771479999994,120.12841800000024,-413.71801800000003,97.56396500000028
113,59.23095699999976,60.897460999999566,105.89746099999957,152.6923829999996,131.79492200000004,108.46142599999985,113.0771479999994,107.30761700000039,114.87158199999976,99.48730499999965,83.46142599999985,118.58984400000008,-410.64111300000013,100.89746099999957
114,56.410155999999915,53.7177729999994,105.12841800000024,148.20507799999996,122.30761700000039,99.74365200000011,106.2822270000006,112.94873000000007,117.82031300000017,116.9228520000006,83.84619099999964,116.41015599999992,-406.923096,103.0771479999994
115,60.12841800000024,50.25634799999989,106.6665039999998,150.38476599999922,123.46142599999985,97.30761700000039,105.0,116.41015599999992,122.82031300000017,147.05126999999993,88.3334960000002,117.30761700000039,-399.2307130000004,101.41015599999992
116,71.9228520000006,54.102539000000434,112.43603499999972,160.6411130000006,138.46142599999985,105.25634799999989,112.82031300000017,120.0,129.23095699999976,174.3588869999994,98.7177729999994,123.9741210000002,-387.3076170000004,101.0258789999998
117,86.9228520000006,63.7177729999994,120.64111300000059,173.20507799999996,160.76904300000024,120.64111300000059,126.41015599999992,125.25634799999989,134.87158199999976,183.46142599999985,111.6665039999998,134.23095699999976,-374.35888699999987,104.61523400000078
118,97.94873000000007,73.7177729999994,126.41015599999992,179.87158199999976,178.46142599999985,134.48730499999965,138.0771479999994,131.53857400000015,137.56396500000028,170.38476599999922,121.41015599999992,143.20507799999996,-365.38452099999995,106.79492200000004
119,99.48730499999965,76.79492200000004,125.89746099999957,176.53857400000015,182.3076170000004,138.46142599999985,140.51269500000035,135.12841800000024,136.2822270000006,145.2563479999999,122.56396500000028,145.38476599999922,-363.97436500000003,103.84619099999964
120,90.38476599999922,69.23095699999976,118.84619099999964,165.38476599999922,169.48730499999965,129.61523400000078,131.79492200000004,132.17968800000017,131.0258789999998,123.9741210000002,113.7177729999994,138.7177729999994,-370.7692869999996,100.76904300000024
121,74.23095699999976,52.30761700000039,107.69238299999961,152.94873000000007,146.0258789999998,112.17968800000017,116.2822270000006,121.53857400000015,122.17968800000017,113.84619099999964,98.3334960000002,125.38476599999922,-383.46142599999985,101.9228520000006
122,57.56396500000028,32.69238299999961,97.05126999999993,144.61523400000078,123.7177729999994,95.38476599999922,101.53857400000015,106.53857400000015,110.38476599999922,108.9741210000002,82.30761700000039,110.0,-397.3076170000004,103.0771479999994
123,46.79492200000004,18.077147999999397,90.38476599999922,141.6665039999998,114.61523400000078,87.05126999999993,93.58984400000008,93.7177729999994,98.46142599999985,100.0,71.41015599999992,98.46142599999985,-407.4357909999994,99.48730499999965
124,45.0,12.82031300000017,89.74365200000011,142.56396500000028,123.3334960000002,90.12841800000024,94.48730499999965,89.35888699999941,92.17968800000017,86.9228520000006,68.20507799999996,95.51269500000035,-410.7692869999996,95.25634799999989
125,51.666503999999804,17.17968800000017,94.74365200000011,145.38476599999922,144.3588869999994,101.6665039999998,102.43603499999972,95.64111300000059,96.0258789999998,80.12841800000024,72.56396500000028,101.9228520000006,-407.179443,97.17968800000017
126,63.846190999999635,27.56396500000028,103.46142599999985,149.87158199999976,166.15380900000036,115.12841800000024,113.20507799999996,108.7177729999994,109.61523400000078,89.87158199999976,81.9228520000006,114.48730499999965,-398.33325200000036,102.94873000000007
127,75.89746099999957,39.23095699999976,111.15380900000036,155.89746099999957,177.82031300000017,123.46142599999985,122.05126999999993,121.2822270000006,126.0258789999998,114.48730499999965,91.53857400000015,125.89746099999957,-387.9487299999996,105.12841800000024
128,81.9228520000006,46.53857400000015,112.94873000000007,160.89746099999957,175.12841800000024,122.43603499999972,124.74365200000011,126.0258789999998,137.05126999999993,140.89746099999957,96.2822270000006,129.61523400000078,-381.15380900000036,102.94873000000007
129,78.20507799999996,45.38476599999922,106.2822270000006,161.9228520000006,162.3076170000004,112.56396500000028,120.25634799999989,120.25634799999989,136.9228520000006,154.23095699999976,93.58984400000008,123.20507799999996,-381.923096,102.30761700000039
130,67.17968800000017,35.25634799999989,93.58984400000008,158.7177729999994,149.7436520000001,101.15380900000036,112.43603499999972,107.43603499999972,126.6665039999998,147.43603499999972,85.0,110.12841800000024,-390.1281740000004,103.9741210000002
131,55.76904300000024,21.666503999999804,81.79492200000004,155.12841800000024,146.0258789999998,97.05126999999993,107.56396500000028,95.51269500000035,113.0771479999994,125.89746099999957,75.89746099999957,97.56396500000028,-400.38452099999995,103.46142599999985
132,51.153809000000365,12.43603499999972,78.20507799999996,155.76904300000024,151.0258789999998,103.84619099999964,109.48730499999965,91.9228520000006,104.74365200000011,103.9741210000002,72.17968800000017,92.05126999999993,-405.1281740000004,100.38476599999922
133,55.38476599999922,12.307617000000391,84.74365200000011,161.53857400000015,155.12841800000024,116.41015599999992,117.30761700000039,97.94873000000007,106.6665039999998,94.87158199999976,75.64111300000059,95.0,-400.7692869999996,100.89746099999957
134,63.974121000000196,18.717772999999397,96.6665039999998,168.84619099999964,148.9741210000002,125.25634799999989,125.89746099999957,108.3334960000002,116.79492200000004,101.15380900000036,83.58984400000008,101.9228520000006,-389.8718259999996,105.51269500000035
135,69.87158199999976,24.230956999999762,105.76904300000024,171.41015599999992,133.3334960000002,124.61523400000078,129.7436520000001,115.76904300000024,127.05126999999993,111.9228520000006,89.87158199999976,106.15380900000036,-379.2307130000004,107.43603499999972
136,68.84619099999964,22.17968800000017,106.41015599999992,166.0258789999998,120.12841800000024,116.0258789999998,126.6665039999998,115.76904300000024,128.7177729999994,111.53857400000015,90.51269500000035,105.0,-375.5129390000002,103.46142599999985
137,61.9228520000006,12.43603499999972,99.35888699999941,154.61523400000078,121.79492200000004,106.0258789999998,119.48730499999965,109.48730499999965,119.48730499999965,94.74365200000011,86.15380900000036,100.25634799999989,-380.38452099999995,100.0
138,54.102539000000434,0.769043000000238,90.64111300000059,143.20507799999996,140.6411130000006,100.89746099999957,112.82031300000017,101.2822270000006,104.61523400000078,72.05126999999993,80.89746099999957,96.15380900000036,-388.84619099999964,102.43603499999972
139,51.2822270000006,-4.871825999999601,86.15380900000036,138.3334960000002,166.2822270000006,103.0771479999994,110.76904300000024,95.76904300000024,92.94873000000007,62.17968800000017,79.10253900000043,96.0258789999998,-392.6923829999996,106.0258789999998
140,55.76904300000024,-0.512695000000349,88.7177729999994,142.43603499999972,183.46142599999985,110.25634799999989,114.10253900000043,94.10253900000043,89.87158199999976,74.74365200000011,82.30761700000039,99.87158199999976,-387.3076170000004,104.74365200000011
141,63.20507799999996,8.846190999999635,94.87158199999976,151.6665039999998,181.9228520000006,116.53857400000015,119.10253900000043,94.61523400000078,94.10253900000043,101.6665039999998,87.69238299999961,104.10253900000043,-376.79492200000004,101.0258789999998
142,66.0258789999998,12.82031300000017,97.82031300000017,157.6923829999996,161.79492200000004,116.15380900000036,120.12841800000024,93.46142599999985,98.84619099999964,123.46142599999985,89.61523400000078,103.46142599999985,-370.897461,100.12841800000024
143,59.102539000000434,4.6152340000007825,92.94873000000007,155.2563479999999,134.10253900000043,107.82031300000017,113.46142599999985,88.58984400000008,98.46142599999985,125.25634799999989,83.20507799999996,95.89746099999957,-377.0512700000004,100.25634799999989
144,45.38476599999922,-11.666747999999643,82.56396500000028,146.15380900000036,114.23095699999976,96.6665039999998,102.43603499999972,81.9228520000006,92.82031300000017,108.84619099999964,70.0,84.48730499999965,-392.5642090000006,96.9228520000006
145,33.974121000000196,-24.10253899999998,74.10253900000043,137.82031300000017,111.9228520000006,90.12841800000024,94.48730499999965,77.69238299999961,87.05126999999993,89.74365200000011,57.94873000000007,76.41015599999992,-406.15380900000036,92.82031300000017
146,34.102539000000434,-22.948729999999614,74.10253900000043,136.53857400000015,125.12841800000024,92.17968800000017,95.0,78.84619099999964,86.79492200000004,82.94873000000007,55.51269500000035,77.30761700000039,-407.0512700000004,94.48730499999965
147,46.410155999999915,-9.61547900000005,82.82031300000017,142.56396500000028,141.9228520000006,100.0,102.69238299999961,85.64111300000059,92.94873000000007,91.0258789999998,64.74365200000011,87.30761700000039,-392.5642090000006,99.87158199999976
148,62.82031300000017,5.128418000000238,93.84619099999964,150.76904300000024,150.0,107.05126999999993,111.41015599999992,94.87158199999976,101.79492200000004,102.82031300000017,78.9741210000002,100.51269500000035,-371.66674799999964,101.79492200000004
149,73.20507799999996,10.769043000000238,100.25634799999989,155.38476599999922,144.23095699999976,108.0771479999994,115.51269500000035,102.17968800000017,108.20507799999996,104.87158199999976,89.23095699999976,109.23095699999976,-357.0512700000004,98.9741210000002
150,72.30761700000039,4.871581999999762,99.10253900000043,154.7436520000001,130.0,103.0771479999994,114.87158199999976,103.84619099999964,109.87158199999976,92.43603499999972,90.38476599999922,109.23095699999976,-355.897461,98.0771479999994
151,62.30761700000039,-6.281981999999971,92.30761700000039,151.41015599999992,118.7177729999994,95.89746099999957,111.53857400000015,99.35888699999941,107.69238299999961,73.58984400000008,83.46142599999985,101.41015599999992,-365.64111300000013,100.64111300000059
152,50.25634799999989,-14.8718259999996,84.48730499999965,149.3588869999994,119.48730499999965,91.41015599999992,107.94873000000007,91.41015599999992,103.58984400000008,61.53857400000015,74.48730499999965,90.38476599999922,-376.66674799999964,101.0258789999998
153,42.94873000000007,-16.28198199999997,80.25634799999989,152.05126999999993,132.82031300000017,91.15380900000036,105.38476599999922,84.23095699999976,99.10253900000043,65.38476599999922,70.25634799999989,81.53857400000015,-379.7436520000001,97.56396500000028
154,43.974121000000196,-11.41015600000037,80.89746099999957,159.3588869999994,150.38476599999922,94.48730499999965,104.61523400000078,81.53857400000015,95.64111300000059,85.64111300000059,74.10253900000043,79.23095699999976,-370.897461,96.2822270000006
155,51.9228520000006,-4.358886999999868,85.0,166.79492200000004,161.2822270000006,98.7177729999994,106.2822270000006,84.35888699999941,95.12841800000024,112.82031300000017,83.46142599999985,83.9741210000002,-354.35888699999987,100.12841800000024
156,59.74365200000011,-1.4101559999999154,89.23095699999976,167.6923829999996,158.84619099999964,101.15380900000036,109.23095699999976,91.2822270000006,98.20507799999996,133.0771479999994,91.15380900000036,91.6665039999998,-340.1281740000004,102.69238299999961
157,59.61523400000078,-7.564209000000574,90.38476599999922,158.46142599999985,144.48730499999965,99.87158199999976,111.6665039999998,98.0771479999994,103.0771479999994,136.15380900000036,90.38476599999922,96.15380900000036,-338.58984399999963,99.10253900000043
158,48.974121000000196,-23.461425999999847,87.56396500000028,142.05126999999993,125.25634799999989,95.38476599999922,112.05126999999993,100.76904300000024,106.0258789999998,123.20507799999996,80.76904300000024,93.3334960000002,-352.4357909999994,94.23095699999976
159,34.102539000000434,-42.17944299999999,82.69238299999961,127.30761700000039,111.41015599999992,90.89746099999957,110.38476599999922,98.7177729999994,105.51269500000035,105.76904300000024,69.23095699999976,85.76904300000024,-372.6923829999996,94.35888699999941
160,26.153809000000365,-53.07690400000001,80.0,123.58984400000008,111.41015599999992,90.25634799999989,108.7177729999994,95.89746099999957,103.7177729999994,97.82031300000017,64.74365200000011,80.51269500000035,-384.35888699999987,97.43603499999972
161,33.46142599999985,-48.71801800000003,82.30761700000039,133.9741210000002,126.0258789999998,94.48730499999965,109.48730499999965,96.53857400000015,104.74365200000011,105.51269500000035,71.9228520000006,83.46142599999985,-376.53857400000015,98.46142599999985
162,54.74365200000011,-30.1281740000004,89.48730499999965,151.9228520000006,146.41015599999992,101.15380900000036,112.69238299999961,101.41015599999992,110.25634799999989,122.56396500000028,87.17968800000017,94.35888699999941,-350.7692869999996,99.48730499999965
163,80.12841800000024,-6.538574000000153,97.82031300000017,166.9228520000006,159.7436520000001,105.76904300000024,116.53857400000015,106.2822270000006,117.17968800000017,136.0258789999998,102.05126999999993,107.43603499999972,-319.2307130000004,104.74365200000011
164,98.58984400000008,10.897460999999566,103.3334960000002,171.41015599999992,157.94873000000007,105.25634799999989,118.0771479999994,106.53857400000015,119.87158199999976,135.51269500000035,109.10253900000043,115.51269500000035,-296.41015600000037,109.74365200000011
165,105.38476599999922,15.641113000000587,103.58984400000008,165.51269500000035,141.41015599999992,99.35888699999941,115.64111300000059,101.15380900000036,115.38476599999922,121.2822270000006,107.56396500000028,114.74365200000011,-289.4870609999998,106.6665039999998
166,104.35888699999941,9.871581999999762,99.87158199999976,155.76904300000024,118.84619099999964,91.0258789999998,110.51269500000035,92.82031300000017,106.2822270000006,103.84619099999964,101.53857400000015,108.0771479999994,-294.35888699999987,97.56396500000028
167,104.48730499999965,2.6923829999996087,96.41015599999992,150.76904300000024,102.82031300000017,85.64111300000059,106.41015599999992,86.9228520000006,99.35888699999941,97.43603499999972,98.20507799999996,102.82031300000017,-299.102539,92.43603499999972
168,113.58984400000008,3.4614259999998467,97.94873000000007,155.2563479999999,103.7177729999994,88.3334960000002,107.82031300000017,87.82031300000017,101.15380900000036,108.9741210000002,102.30761700000039,106.15380900000036,-292.820557,95.12841800000024
169,132.3076170000004,14.615234000000783,106.41015599999992,167.43603499999972,123.3334960000002,99.48730499999965,116.41015599999992,96.15380900000036,111.53857400000015,131.79492200000004,113.46142599999985,118.7177729999994,-273.97436500000003,99.61523400000078
170,152.17968800000017,28.974121000000196,118.20507799999996,179.23095699999976,151.53857400000015,113.20507799999996,128.7177729999994,107.05126999999993,123.20507799999996,149.87158199999976,125.64111300000059,133.9741210000002,-253.20507799999996,102.17968800000017
171,161.53857400000015,35.76904300000024,126.2822270000006,182.6923829999996,171.9228520000006,121.0258789999998,137.43603499999972,113.46142599999985,127.17968800000017,150.6411130000006,130.12841800000024,142.6923829999996,-244.35888699999987,105.89746099999957
172,154.10253900000043,29.48730499999965,124.61523400000078,176.0258789999998,171.6665039999998,117.82031300000017,137.6923829999996,110.12841800000024,119.23095699999976,134.23095699999976,122.43603499999972,139.10253900000043,-255.0,110.76904300000024
173,133.46142599999985,14.230956999999762,112.82031300000017,164.10253900000043,150.6411130000006,106.79492200000004,129.87158199999976,97.82031300000017,102.30761700000039,111.53857400000015,105.12841800000024,124.87158199999976,-279.35888699999987,110.64111300000059
174,111.15380900000036,-0.769043000000238,96.79492200000004,154.3588869999994,122.69238299999961,96.53857400000015,118.84619099999964,82.82031300000017,85.64111300000059,95.64111300000059,86.41015599999992,107.17968800000017,-303.58984399999963,103.3334960000002
175,97.56396500000028,-8.461425999999847,85.0,151.15380900000036,105.64111300000059,94.23095699999976,110.0,73.46142599999985,78.0771479999994,93.0771479999994,74.74365200000011,94.61523400000078,-315.5129390000002,96.79492200000004
176,96.2822270000006,-7.948729999999614,82.17968800000017,153.7177729999994,108.46142599999985,100.38476599999922,106.2822270000006,74.48730499999965,83.84619099999964,101.0258789999998,73.9741210000002,91.9228520000006,-311.66674799999964,98.0771479999994
177,103.7177729999994,-2.5639650000002803,87.17968800000017,158.84619099999964,125.64111300000059,109.48730499999965,108.20507799999996,84.48730499999965,99.48730499999965,111.6665039999998,82.17968800000017,97.94873000000007,-297.179443,102.56396500000028
178,112.56396500000028,3.717772999999397,95.12841800000024,162.94873000000007,142.17968800000017,114.87158199999976,112.94873000000007,96.6665039999998,116.53857400000015,118.58984400000008,94.74365200000011,107.30761700000039,-280.38452099999995,103.0771479999994
179,117.56396500000028,8.205077999999958,101.6665039999998,164.7436520000001,147.43603499999972,114.10253900000043,117.05126999999993,104.35888699999941,126.2822270000006,120.0,106.41015599999992,114.87158199999976,-268.076904,101.53857400000015
180,117.43603499999972,10.384765999999217,105.25634799999989,164.48730499999965,143.46142599999985,110.64111300000059,118.7177729999994,105.76904300000024,125.51269500000035,118.46142599999985,114.23095699999976,118.3334960000002,-261.923096,103.46142599999985
181,115.51269500000035,12.17968800000017,106.9228520000006,163.84619099999964,141.6665039999998,110.12841800000024,120.12841800000024,104.74365200000011,117.82031300000017,118.58984400000008,117.30761700000039,118.9741210000002,-259.4870609999998,106.9228520000006
182,115.12841800000024,15.384765999999217,108.58984400000008,164.10253900000043,149.7436520000001,115.51269500000035,124.74365200000011,106.41015599999992,111.6665039999998,123.9741210000002,116.41015599999992,119.23095699999976,-257.4357909999994,105.89746099999957
183,116.0258789999998,18.589844000000085,109.87158199999976,164.7436520000001,163.0771479999994,124.48730499999965,132.82031300000017,111.79492200000004,113.0771479999994,133.84619099999964,112.17968800000017,119.48730499999965,-254.7436520000001,101.0258789999998
184,113.84619099999964,17.56396500000028,107.69238299999961,163.58984400000008,169.48730499999965,130.38476599999922,139.48730499999965,116.2822270000006,121.15380900000036,142.82031300000017,104.74365200000011,117.56396500000028,-255.0,98.7177729999994
185,104.74365200000011,8.333496000000196,99.35888699999941,158.58984400000008,160.38476599999922,128.3334960000002,138.58984400000008,113.84619099999964,128.58984400000008,144.48730499999965,94.35888699999941,110.51269500000035,-261.28198199999997,99.48730499999965
186,90.38476599999922,-7.435790999999426,86.6665039999998,149.61523400000078,138.9741210000002,119.35888699999941,128.20507799999996,102.56396500000028,127.56396500000028,137.05126999999993,83.20507799999996,98.84619099999964,-271.66674799999964,98.46142599999985
187,78.20507799999996,-22.30761700000039,76.15380900000036,139.87158199999976,118.58984400000008,109.23095699999976,113.58984400000008,88.0771479999994,116.9228520000006,124.23095699999976,75.25634799999989,88.0771479999994,-278.58984399999963,95.64111300000059
188,76.53857400000015,-27.564209000000574,74.74365200000011,134.10253900000043,111.9228520000006,103.7177729999994,103.58984400000008,79.23095699999976,102.43603499999972,112.69238299999961,74.35888699999941,85.38476599999922,-275.38452099999995,96.79492200000004
189,87.17968800000017,-19.358886999999868,83.84619099999964,135.2563479999999,121.15380900000036,105.25634799999989,103.84619099999964,80.89746099999957,92.56396500000028,105.89746099999957,80.51269500000035,92.94873000000007,-261.923096,102.05126999999993
190,102.82031300000017,-2.5639650000002803,96.9228520000006,141.6665039999998,136.2822270000006,110.38476599999922,112.30761700000039,90.38476599999922,91.53857400000015,103.3334960000002,88.84619099999964,106.15380900000036,-246.53857400000015,104.10253900000043
191,111.6665039999998,11.538574000000153,104.48730499999965,148.3334960000002,143.9741210000002,113.7177729999994,120.89746099999957,99.10253900000043,97.30761700000039,102.82031300000017,93.3334960000002,115.64111300000059,-239.35888699999987,100.0
192,107.17968800000017,13.589844000000085,101.6665039999998,150.76904300000024,139.7436520000001,112.43603499999972,122.17968800000017,101.0258789999998,104.87158199999976,103.46142599999985,91.15380900000036,115.0,-244.4870609999998,96.53857400000015
193,92.82031300000017,3.2050779999999577,91.6665039999998,148.3334960000002,131.0258789999998,108.3334960000002,115.51269500000035,96.15380900000036,110.12841800000024,105.51269500000035,85.12841800000024,105.51269500000035,-257.0512700000004,99.35888699999941
194,78.9741210000002,-10.897461000000021,82.56396500000028,144.23095699999976,128.9741210000002,105.76904300000024,107.17968800000017,89.87158199999976,111.15380900000036,108.58984400000008,80.51269500000035,95.0,-267.3076170000004,103.46142599999985
195,73.9741210000002,-18.974365000000034,80.51269500000035,142.56396500000028,136.0258789999998,106.9228520000006,104.35888699999941,87.56396500000028,109.23095699999976,111.9228520000006,80.51269500000035,90.76904300000024,-268.46142599999985,103.20507799999996
196,78.9741210000002,-16.666747999999643,85.89746099999957,144.87158199999976,145.2563479999999,109.74365200000011,109.61523400000078,91.2822270000006,107.30761700000039,116.41015599999992,84.87158199999976,95.12841800000024,-261.15380900000036,100.89746099999957
197,89.48730499999965,-6.923095999999987,95.0,149.87158199999976,149.23095699999976,111.41015599999992,120.0,99.23095699999976,109.10253900000043,124.48730499999965,91.9228520000006,105.12841800000024,-250.2563479999999,101.79492200000004
198,99.87158199999976,3.717772999999397,103.58984400000008,155.6411130000006,148.84619099999964,112.69238299999961,130.12841800000024,109.10253900000043,116.9228520000006,135.76904300000024,99.87158199999976,115.38476599999922,-239.7436520000001,103.84619099999964
199,106.79492200000004,9.743652000000111,108.84619099999964,160.38476599999922,150.2563479999999,115.38476599999922,135.76904300000024,117.69238299999961,128.58984400000008,145.12841800000024,106.9228520000006,122.17968800000017,-231.28198199999997,102.56396500000028
200,108.46142599999985,8.717772999999397,109.10253900000043,161.79492200000004,154.87158199999976,119.48730499999965,134.61523400000078,121.15380900000036,137.3076170000004,144.7436520000001,109.87158199999976,123.58984400000008,-227.56420900000057,100.25634799999989
201,103.3334960000002,1.0258789999998044,103.3334960000002,157.17968800000017,155.6411130000006,121.2822270000006,125.76904300000024,115.89746099999957,135.89746099999957,130.6411130000006,105.64111300000059,118.84619099999964,-232.43579099999943,102.17968800000017
202,92.30761700000039,-10.1281740000004,93.46142599999985,147.05126999999993,145.0,117.43603499999972,111.6665039999998,102.43603499999972,121.15380900000036,107.30761700000039,94.61523400000078,108.7177729999994,-246.28198199999997,106.0258789999998
203,80.12841800000024,-19.8718259999996,83.9741210000002,135.6411130000006,126.53857400000015,108.84619099999964,98.0771479999994,87.56396500000028,99.10253900000043,88.3334960000002,82.05126999999993,97.17968800000017,-263.33325200000036,104.74365200000011
204,73.58984400000008,-23.461425999999847,80.89746099999957,129.61523400000078,114.87158199999976,101.15380900000036,92.56396500000028,80.76904300000024,82.30761700000039,87.43603499999972,75.12841800000024,90.25634799999989,-273.46142599999985,99.35888699999941
205,76.2822270000006,-19.61547900000005,86.41015599999992,132.82031300000017,122.43603499999972,100.25634799999989,99.35888699999941,87.05126999999993,81.15380900000036,106.9228520000006,77.43603499999972,92.30761700000039,-270.0,97.69238299999961
206,85.12841800000024,-12.051270000000386,96.9228520000006,142.6923829999996,145.38476599999922,106.79492200000004,114.10253900000043,102.30761700000039,94.74365200000011,132.05126999999993,85.51269500000035,100.89746099999957,-255.0,101.53857400000015
207,91.9228520000006,-6.281981999999971,104.87158199999976,151.2822270000006,164.3588869999994,114.87158199999976,126.15380900000036,115.25634799999989,110.64111300000059,141.41015599999992,91.2822270000006,107.82031300000017,-239.10253899999998,103.20507799999996
208,89.87158199999976,-6.538574000000153,103.58984400000008,151.53857400000015,160.2563479999999,117.05126999999993,126.2822270000006,115.51269500000035,115.89746099999957,126.2822270000006,88.20507799999996,106.0258789999998,-233.84619099999964,99.23095699999976
209,78.58984400000008,-12.435790999999426,93.0771479999994,142.94873000000007,132.05126999999993,110.76904300000024,114.74365200000011,101.9228520000006,107.43603499999972,98.20507799999996,76.79492200000004,95.12841800000024,-242.9487299999996,95.38476599999922
210,65.89746099999957,-19.230713000000378,80.76904300000024,131.79492200000004,97.69238299999961,101.53857400000015,100.76904300000024,83.46142599999985,93.46142599999985,78.3334960000002,64.35888699999941,82.17968800000017,-259.2307130000004,96.6665039999998
211,61.025878999999804,-20.769286999999622,75.51269500000035,126.9228520000006,81.79492200000004,98.0771479999994,95.25634799999989,73.7177729999994,85.51269500000035,78.58984400000008,60.0,76.6665039999998,-270.38452099999995,99.23095699999976
212,67.82031300000017,-13.71801800000003,81.79492200000004,132.56396500000028,96.15380900000036,104.61523400000078,102.05126999999993,79.61523400000078,89.35888699999941,94.48730499999965,67.43603499999972,83.3334960000002,-268.71801800000003,98.7177729999994
213,82.17968800000017,-0.256347999999889,95.51269500000035,145.0,131.9228520000006,117.05126999999993,115.51269500000035,95.89746099999957,101.9228520000006,111.6665039999998,82.17968800000017,98.3334960000002,-255.64111300000013,98.58984400000008
214,95.0,12.82031300000017,108.0771479999994,155.76904300000024,166.6665039999998,126.15380900000036,126.2822270000006,110.25634799999989,114.61523400000078,119.48730499999965,95.38476599999922,112.43603499999972,-239.35888699999987,102.30761700000039
215,99.10253900000043,19.48730499999965,111.41015599999992,158.0771479999994,180.89746099999957,125.51269500000035,127.94873000000007,113.20507799999996,120.51269500000035,117.69238299999961,99.74365200000011,117.30761700000039,-227.0512700000004,105.0
216,94.87158199999976,17.43603499999972,105.51269500000035,151.53857400000015,171.53857400000015,116.53857400000015,121.2822270000006,104.35888699999941,118.0771479999994,113.20507799999996,94.74365200000011,111.6665039999998,-221.41015600000037,101.2822270000006
217,87.30761700000039,9.615234000000783,96.2822270000006,142.05126999999993,151.15380900000036,106.79492200000004,113.20507799999996,92.05126999999993,110.76904300000024,111.6665039999998,85.76904300000024,101.41015599999992,-220.64111300000013,95.0
218,82.05126999999993,0.8974609999995664,90.38476599999922,136.6665039999998,135.51269500000035,103.0771479999994,110.0,84.74365200000011,102.69238299999961,112.17968800000017,79.35888699999941,94.61523400000078,-222.179443,94.23095699999976
219,80.89746099999957,-4.487060999999812,90.51269500000035,138.3334960000002,132.6923829999996,107.05126999999993,112.43603499999972,85.51269500000035,96.6665039999998,110.25634799999989,78.7177729999994,95.0,-223.71801800000003,98.0771479999994
220,82.43603499999972,-5.256347999999889,95.25634799999989,144.23095699999976,140.38476599999922,114.74365200000011,116.15380900000036,91.15380900000036,93.7177729999994,105.12841800000024,83.20507799999996,100.89746099999957,-223.33325200000036,99.48730499999965
221,84.23095699999976,-2.3076170000003913,100.51269500000035,149.3588869999994,150.51269500000035,120.51269500000035,117.17968800000017,96.2822270000006,94.74365200000011,101.79492200000004,88.58984400000008,107.43603499999972,-220.38452099999995,98.0771479999994
222,83.84619099999964,1.6665039999998044,102.94873000000007,150.0,155.12841800000024,121.0258789999998,114.74365200000011,97.43603499999972,98.3334960000002,104.74365200000011,91.0258789999998,110.25634799999989,-215.89746100000002,99.23095699999976
223,80.25634799999989,3.077147999999397,100.0,144.7436520000001,149.10253900000043,116.6665039999998,111.0258789999998,93.9741210000002,100.64111300000059,109.87158199999976,87.94873000000007,108.20507799999996,-212.6923829999996,102.82031300000017
224,72.94873000000007,-0.769043000000238,91.0258789999998,135.0,131.2822270000006,109.61523400000078,107.56396500000028,87.56396500000028,97.56396500000028,106.79492200000004,78.3334960000002,101.15380900000036,-213.71801800000003,102.94873000000007
225,63.46142599999985,-9.8718259999996,78.46142599999985,124.10253900000043,106.79492200000004,101.6665039999998,103.84619099999964,80.76904300000024,88.9741210000002,89.61523400000078,65.0,90.89746099999957,-219.35888699999987,98.84619099999964
226,55.64111300000059,-18.974365000000034,67.94873000000007,116.9228520000006,88.7177729999994,95.0,100.12841800000024,77.05126999999993,80.38476599999922,65.76904300000024,53.974121000000196,81.41015599999992,-225.89746100000002,97.05126999999993
227,55.0,-20.25634799999989,65.76904300000024,117.56396500000028,91.79492200000004,93.7177729999994,98.84619099999964,79.23095699999976,78.3334960000002,51.9228520000006,51.9228520000006,78.3334960000002,-227.0512700000004,100.12841800000024
228,64.48730499999965,-9.61547900000005,74.61523400000078,126.53857400000015,120.51269500000035,100.25634799999989,102.69238299999961,87.82031300000017,85.76904300000024,59.61523400000078,61.025878999999804,85.0,-219.10253899999998,102.17968800000017
229,80.51269500000035,7.948730000000069,90.12841800000024,139.87158199999976,161.15380900000036,112.94873000000007,111.53857400000015,99.61523400000078,99.61523400000078,85.51269500000035,76.6665039999998,98.84619099999964,-204.4870609999998,99.23095699999976
230,95.12841800000024,21.410155999999915,103.84619099999964,151.41015599999992,188.84619099999964,124.35888699999941,120.64111300000059,109.23095699999976,112.82031300000017,114.87158199999976,89.35888699999941,112.56396500000028,-190.5129390000002,96.6665039999998
231,100.38476599999922,21.794922000000042,108.46142599999985,156.15380900000036,186.0258789999998,126.6665039999998,124.10253900000043,112.30761700000039,119.10253900000043,131.9228520000006,92.05126999999993,117.82031300000017,-184.61547900000005,99.10253900000043
232,93.9741210000002,9.615234000000783,102.05126999999993,153.0771479999994,155.38476599999922,117.94873000000007,119.35888699999941,107.94873000000007,116.15380900000036,130.89746099999957,83.9741210000002,111.2822270000006,-188.46142599999985,101.79492200000004
233,80.25634799999989,-6.281981999999971,89.35888699999941,144.3588869999994,118.84619099999964,103.9741210000002,109.23095699999976,98.84619099999964,106.9228520000006,117.17968800000017,70.89746099999957,96.53857400000015,-197.6923829999996,99.35888699999941
234,67.69238299999961,-15.769286999999622,78.46142599999985,134.48730499999965,100.64111300000059,94.23095699999976,99.35888699999941,90.76904300000024,97.17968800000017,102.94873000000007,60.897460999999566,82.17968800000017,-205.2563479999999,95.12841800000024
235,63.46142599999985,-13.846190999999635,75.51269500000035,128.20507799999996,110.38476599999922,95.0,95.25634799999989,88.84619099999964,92.30761700000039,97.94873000000007,59.48730499999965,76.79492200000004,-206.15380900000036,95.38476599999922
236,69.61523400000078,-3.077147999999397,80.51269500000035,127.69238299999961,137.05126999999993,103.9741210000002,98.3334960000002,94.23095699999976,94.35888699999941,102.94873000000007,65.64111300000059,82.56396500000028,-201.28198199999997,98.7177729999994
237,81.41015599999992,8.077147999999397,88.7177729999994,131.6665039999998,157.82031300000017,113.3334960000002,105.51269500000035,102.43603499999972,100.51269500000035,111.2822270000006,73.7177729999994,94.23095699999976,-195.2563479999999,98.9741210000002
238,90.89746099999957,12.43603499999972,93.58984400000008,135.12841800000024,156.15380900000036,115.64111300000059,111.15380900000036,106.79492200000004,106.15380900000036,114.61523400000078,77.43603499999972,102.43603499999972,-192.820557,96.9228520000006
239,91.9228520000006,6.922852000000603,91.41015599999992,133.84619099999964,133.58984400000008,109.61523400000078,110.76904300000024,103.9741210000002,107.30761700000039,109.23095699999976,74.48730499999965,101.15380900000036,-195.38452099999995,97.69238299999961
240,83.3334960000002,-5.256347999999889,82.69238299999961,126.2822270000006,106.15380900000036,99.48730499999965,103.84619099999964,95.89746099999957,103.46142599999985,96.53857400000015,66.2822270000006,90.89746099999957,-201.15380900000036,99.61523400000078
241,69.35888699999941,-18.205077999999958,71.2822270000006,116.0258789999998,90.12841800000024,90.25634799999989,93.7177729999994,88.0771479999994,96.0258789999998,81.6665039999998,56.53857400000015,77.69238299999961,-206.923096,96.79492200000004
242,56.9228520000006,-26.794922000000042,62.17968800000017,108.3334960000002,89.61523400000078,84.35888699999941,85.12841800000024,83.84619099999964,88.58984400000008,70.0,49.102539000000434,68.7177729999994,-210.0,90.51269500000035
243,52.17968800000017,-28.205077999999958,59.35888699999941,107.82031300000017,97.17968800000017,82.30761700000039,81.6665039999998,83.46142599999985,85.51269500000035,66.6665039999998,47.30761700000039,68.46142599999985,-209.10253899999998,89.23095699999976
244,57.43603499999972,-22.179442999999992,64.10253900000043,114.35888699999941,103.7177729999994,84.10253900000043,84.35888699999941,84.61523400000078,88.0771479999994,73.3334960000002,51.666503999999804,75.51269500000035,-203.97436500000003,94.74365200000011
245,69.10253900000043,-11.666747999999643,73.46142599999985,123.20507799999996,106.6665039999998,90.64111300000059,91.41015599999992,84.23095699999976,93.0771479999994,85.51269500000035,59.48730499999965,84.87158199999976,-196.66674799999964,98.84619099999964
246,80.12841800000024,-2.0512699999999313,81.79492200000004,128.0771479999994,109.87158199999976,101.15380900000036,99.10253900000043,80.89746099999957,94.48730499999965,96.0258789999998,65.89746099999957,90.89746099999957,-190.5129390000002,96.53857400000015
247,85.25634799999989,2.0512699999999313,84.61523400000078,125.76904300000024,117.56396500000028,112.56396500000028,104.87158199999976,75.51269500000035,90.0,101.2822270000006,67.82031300000017,91.79492200000004,-187.179443,92.82031300000017
248,85.0,0.38476599999921746,83.0771479999994,119.87158199999976,131.2822270000006,121.79492200000004,108.7177729999994,72.82031300000017,84.87158199999976,104.48730499999965,66.6665039999998,90.89746099999957,-184.7436520000001,93.3334960000002
249,85.76904300000024,-1.5385740000001533,82.69238299999961,118.46142599999985,149.23095699999976,128.3334960000002,113.20507799999996,77.56396500000028,86.6665039999998,110.25634799999989,67.69238299999961,94.23095699999976,-179.10253899999998,95.25634799999989
250,92.82031300000017,2.4360349999997197,88.46142599999985,126.6665039999998,165.76904300000024,132.82031300000017,119.74365200000011,90.64111300000059,98.20507799999996,118.20507799999996,74.61523400000078,104.87158199999976,-167.9487299999996,95.0
251,103.9741210000002,12.56396500000028,98.9741210000002,140.2563479999999,172.3076170000004,133.58984400000008,125.64111300000059,105.76904300000024,112.69238299999961,121.6665039999998,85.38476599999922,118.84619099999964,-154.35888699999987,95.38476599999922
252,110.38476599999922,21.410155999999915,106.2822270000006,148.20507799999996,160.89746099999957,127.05126999999993,125.12841800000024,112.94873000000007,119.10253900000043,113.84619099999964,92.30761700000039,126.41015599999992,-145.5129390000002,99.61523400000078
253,103.46142599999985,18.974121000000196,101.79492200000004,142.05126999999993,130.38476599999922,110.89746099999957,113.84619099999964,105.64111300000059,111.0258789999998,95.25634799999989,87.69238299999961,119.35888699999941,-147.9487299999996,102.82031300000017
254,82.82031300000017,2.0512699999999313,84.35888699999941,122.82031300000017,91.6665039999998,88.46142599999985,93.84619099999964,86.15380900000036,91.9228520000006,73.7177729999994,70.76904300000024,98.46142599999985,-163.20507799999996,99.35888699999941
255,56.9228520000006,-22.564209000000574,62.05126999999993,100.25634799999989,62.94873000000007,68.9741210000002,73.3334960000002,64.23095699999976,72.82031300000017,59.61523400000078,49.102539000000434,73.9741210000002,-186.02563499999997,92.82031300000017
256,38.589844000000085,-41.41015600000037,46.79492200000004,85.51269500000035,59.61523400000078,62.69238299999961,62.30761700000039,50.897460999999566,64.61523400000078,58.20507799999996,33.974121000000196,58.333496000000196,-206.53857400000015,91.53857400000015
257,35.76904300000024,-43.974365000000034,46.410155999999915,84.74365200000011,83.84619099999964,74.35888699999941,65.64111300000059,51.9228520000006,70.38476599999922,68.20507799999996,32.43603499999972,58.46142599999985,-215.2563479999999,95.0
258,48.0771479999994,-30.1281740000004,59.48730499999965,96.41015599999992,122.30761700000039,98.46142599999985,80.0,65.76904300000024,84.61523400000078,83.58984400000008,44.102539000000434,72.05126999999993,-208.076904,95.89746099999957
259,66.53857400000015,-9.743652000000111,77.17968800000017,112.94873000000007,153.0771479999994,121.6665039999998,96.0258789999998,84.10253900000043,97.82031300000017,97.94873000000007,61.9228520000006,89.87158199999976,-189.4870609999998,93.3334960000002
260,81.2822270000006,4.102539000000434,89.61523400000078,126.15380900000036,160.51269500000035,131.9228520000006,105.12841800000024,98.3334960000002,103.58984400000008,108.0771479999994,77.30761700000039,102.94873000000007,-168.33325200000036,93.20507799999996
261,87.17968800000017,5.769043000000238,92.94873000000007,132.17968800000017,145.12841800000024,126.9228520000006,106.15380900000036,103.9741210000002,101.9228520000006,113.46142599999985,86.0258789999998,107.94873000000007,-152.43579099999943,97.30761700000039
262,86.15380900000036,-1.153809000000365,90.51269500000035,132.3076170000004,121.0258789999998,115.51269500000035,103.58984400000008,102.82031300000017,97.82031300000017,115.51269500000035,88.20507799999996,107.17968800000017,-144.61547900000005,99.35888699999941
263,82.56396500000028,-8.974365000000034,86.9228520000006,128.84619099999964,103.20507799999996,109.35888699999941,101.79492200000004,98.3334960000002,96.15380900000036,115.0,86.15380900000036,104.74365200000011,-143.84619099999964,96.79492200000004
264,79.10253900000043,-12.948729999999614,84.48730499999965,122.56396500000028,96.6665039999998,113.7177729999994,101.53857400000015,93.20507799999996,96.79492200000004,110.89746099999957,80.89746099999957,102.05126999999993,-148.46142599999985,94.61523400000078
265,75.89746099999957,-12.307617000000391,82.82031300000017,114.35888699999941,96.41015599999992,125.12841800000024,100.51269500000035,87.56396500000028,95.64111300000059,101.53857400000015,73.9741210000002,98.46142599999985,-155.89746100000002,96.15380900000036
266,73.58984400000008,-8.461425999999847,82.05126999999993,108.20507799999996,97.43603499999972,136.41015599999992,97.30761700000039,82.17968800000017,90.0,86.6665039999998,68.3334960000002,93.58984400000008,-162.43579099999943,97.17968800000017
267,74.35888699999941,-2.4360349999997197,83.9741210000002,109.23095699999976,100.89746099999957,142.82031300000017,93.84619099999964,79.61523400000078,82.17968800000017,71.53857400000015,68.3334960000002,90.25634799999989,-163.58984399999963,94.61523400000078
268,79.23095699999976,3.717772999999397,89.23095699999976,118.46142599999985,110.51269500000035,143.3334960000002,92.69238299999961,81.53857400000015,78.20507799999996,64.23095699999976,75.64111300000059,90.89746099999957,-157.820557,92.94873000000007
269,85.76904300000024,7.307617000000391,94.74365200000011,130.38476599999922,125.76904300000024,139.23095699999976,94.10253900000043,86.0258789999998,80.89746099999957,68.58984400000008,85.51269500000035,95.0,-148.33325200000036,95.89746099999957
270,88.84619099999964,6.282227000000603,96.2822270000006,136.2822270000006,138.58984400000008,131.79492200000004,94.87158199999976,88.46142599999985,86.9228520000006,80.51269500000035,90.12841800000024,98.3334960000002,-141.66674799999964,98.20507799999996
271,85.25634799999989,1.9228520000006029,92.05126999999993,132.05126999999993,139.48730499999965,122.94873000000007,92.30761700000039,85.12841800000024,89.61523400000078,92.56396500000028,85.12841800000024,96.2822270000006,-142.3076170000004,94.48730499999965
272,76.79492200000004,-2.5639650000002803,84.87158199999976,121.41015599999992,126.0258789999998,115.64111300000059,86.6665039999998,76.41015599999992,86.2822270000006,99.10253900000043,73.7177729999994,88.7177729999994,-149.10253899999998,89.10253900000043
273,69.23095699999976,-4.230713000000378,79.48730499999965,113.20507799999996,107.30761700000039,112.05126999999993,81.79492200000004,67.56396500000028,79.48730499999965,99.48730499999965,63.333496000000196,80.25634799999989,-156.41015600000037,89.74365200000011
274,67.30761700000039,-2.8203119999998307,78.58984400000008,114.48730499999965,96.6665039999998,112.05126999999993,81.6665039999998,63.974121000000196,74.61523400000078,95.89746099999957,60.76904300000024,76.41015599999992,-158.58984399999963,95.38476599999922
275,71.9228520000006,0.512695000000349,81.41015599999992,124.10253900000043,100.25634799999989,112.94873000000007,86.9228520000006,67.17968800000017,75.89746099999957,91.53857400000015,66.79492200000004,79.74365200000011,-153.71801800000003,98.46142599999985
276,80.25634799999989,4.358886999999413,85.0,135.0,111.79492200000004,111.6665039999998,94.48730499999965,74.35888699999941,82.82031300000017,88.7177729999994,77.82031300000017,87.82031300000017,-144.61547900000005,97.69238299999961
277,88.0771479999994,7.56396500000028,87.94873000000007,139.7436520000001,120.25634799999989,107.30761700000039,100.0,80.38476599999922,91.53857400000015,87.17968800000017,88.0771479999994,96.15380900000036,-135.5129390000002,97.94873000000007
278,92.94873000000007,10.128418000000238,90.89746099999957,137.6923829999996,120.76904300000024,102.82031300000017,101.9228520000006,82.82031300000017,97.56396500000028,85.25634799999989,94.48730499999965,101.9228520000006,-129.10253899999998,100.25634799999989
279,95.25634799999989,12.307617000000391,95.0,133.9741210000002,118.0771479999994,102.94873000000007,101.6665039999998,82.82031300000017,99.10253900000043,83.0771479999994,96.41015599999992,104.23095699999976,-125.64111300000013,99.48730499999965
280,95.64111300000059,14.230956999999762,99.35888699999941,133.46142599999985,118.20507799999996,107.94873000000007,101.15380900000036,83.20507799999996,98.46142599999985,84.48730499999965,95.12841800000024,103.9741210000002,-123.58984399999963,95.64111300000059
281,94.10253900000043,14.871581999999762,101.41015599999992,135.89746099999957,121.41015599999992,112.05126999999993,100.38476599999922,85.0,99.23095699999976,93.7177729999994,91.9228520000006,102.17968800000017,-121.92309599999999,94.87158199999976
282,90.38476599999922,14.102539000000434,98.9741210000002,136.6665039999998,123.9741210000002,107.94873000000007,98.3334960000002,87.05126999999993,102.17968800000017,109.61523400000078,88.20507799999996,100.25634799999989,-119.61547900000005,98.3334960000002
283,85.76904300000024,13.077147999999397,92.69238299999961,132.17968800000017,125.0,94.74365200000011,95.25634799999989,88.20507799999996,105.64111300000059,124.23095699999976,85.89746099999957,99.48730499999965,-116.66674799999964,99.10253900000043
284,83.3334960000002,12.692382999999609,86.79492200000004,124.87158199999976,127.17968800000017,78.9741210000002,92.82031300000017,88.46142599999985,107.69238299999961,129.87158199999976,86.79492200000004,100.38476599999922,-113.07690400000001,93.84619099999964
285,84.87158199999976,12.948730000000069,85.64111300000059,120.25634799999989,131.79492200000004,69.61523400000078,93.0771479999994,88.58984400000008,107.43603499999972,125.0,90.76904300000024,103.0771479999994,-109.74365200000011,89.74365200000011
286,90.76904300000024,13.333496000000196,89.74365200000011,122.56396500000028,136.53857400000015,73.0771479999994,97.05126999999993,89.23095699999976,105.76904300000024,114.74365200000011,96.15380900000036,106.2822270000006,-107.05127000000039,92.56396500000028
287,99.35888699999941,14.743652000000111,96.79492200000004,130.76904300000024,138.84619099999964,88.84619099999964,103.58984400000008,90.38476599999922,104.10253900000043,106.53857400000015,101.15380900000036,109.48730499999965,-104.10253899999998,97.69238299999961
288,108.3334960000002,19.230956999999762,103.20507799999996,139.87158199999976,138.9741210000002,109.35888699999941,109.87158199999976,91.79492200000004,103.7177729999994,105.12841800000024,105.12841800000024,112.56396500000028,-99.35888699999987,98.3334960000002
289,113.9741210000002,27.30761700000039,106.2822270000006,144.7436520000001,136.9228520000006,122.69238299999961,111.9228520000006,92.56396500000028,104.23095699999976,109.23095699999976,106.79492200000004,115.12841800000024,-93.71801800000003,96.0258789999998
290,112.82031300000017,35.64111300000059,104.10253900000043,143.7177729999994,130.6411130000006,119.48730499999965,107.43603499999972,91.6665039999998,103.3334960000002,112.43603499999972,104.74365200000011,114.48730499999965,-90.51293900000019,96.2822270000006
291,104.48730499999965,37.82031300000017,96.79492200000004,138.58984400000008,117.94873000000007,100.89746099999957,97.56396500000028,87.82031300000017,98.20507799999996,108.20507799999996,98.7177729999994,108.3334960000002,-92.82055700000001,97.82031300000017
292,91.6665039999998,29.615234000000783,85.89746099999957,132.3076170000004,100.38476599999922,77.56396500000028,86.2822270000006,81.15380900000036,88.58984400000008,95.76904300000024,90.38476599999922,97.56396500000028,-100.51293900000019,95.64111300000059
293,79.74365200000011,13.077147999999397,75.51269500000035,126.41015599999992,85.0,62.69238299999961,79.61523400000078,73.20507799999996,78.0771479999994,82.17968800000017,83.20507799999996,86.79492200000004,-108.71801800000003,92.05126999999993
294,74.23095699999976,-2.0512699999999313,70.38476599999922,121.6665039999998,81.53857400000015,63.589844000000085,81.2822270000006,68.58984400000008,73.58984400000008,78.58984400000008,81.0258789999998,82.43603499999972,-110.76928699999962,92.82031300000017
295,78.84619099999964,-4.61547900000005,73.0771479999994,120.38476599999922,95.89746099999957,77.30761700000039,90.64111300000059,71.2822270000006,80.64111300000059,91.41015599999992,86.0258789999998,87.56396500000028,-102.05127000000039,96.6665039999998
296,90.89746099999957,9.102539000000434,81.79492200000004,124.10253900000043,122.69238299999961,92.43603499999972,101.2822270000006,81.15380900000036,97.94873000000007,114.61523400000078,96.0258789999998,98.58984400000008,-85.25634799999989,96.53857400000015
297,102.17968800000017,30.128418000000238,90.25634799999989,131.53857400000015,145.6411130000006,97.05126999999993,104.10253900000043,91.2822270000006,115.25634799999989,132.82031300000017,103.9741210000002,107.17968800000017,-69.61547900000005,92.17968800000017
298,104.48730499999965,43.7177729999994,91.79492200000004,137.05126999999993,148.9741210000002,86.6665039999998,94.35888699999941,93.84619099999964,120.25634799999989,132.94873000000007,104.74365200000011,107.56396500000028,-64.35888699999987,90.38476599999922
299,97.43603499999972,42.05126999999993,86.0258789999998,136.41015599999992,132.56396500000028,69.48730499999965,77.82031300000017,86.53857400000015,107.94873000000007,116.53857400000015,99.35888699999941,101.0258789999998,-71.28198199999997,93.0771479999994
300,89.87158199999976,31.794922000000042,79.48730499999965,131.0258789999998,113.7177729999994,60.64111300000059,68.20507799999996,76.41015599999992,86.0258789999998,99.48730499999965,94.61523400000078,95.25634799999989,-81.79492200000004,94.48730499999965
301,92.17968800000017,27.30761700000039,81.53857400000015,127.56396500000028,114.61523400000078,71.53857400000015,76.6665039999998,74.35888699999941,70.89746099999957,101.0258789999998,97.56396500000028,98.58984400000008,-83.46142599999985,92.30761700000039
302,107.69238299999961,35.51269500000035,95.0,131.9228520000006,141.41015599999992,99.10253900000043,100.89746099999957,86.2822270000006,74.74365200000011,126.2822270000006,109.48730499999965,112.30761700000039,-70.76928699999962,92.43603499999972
303,128.58984400000008,50.76904300000024,112.82031300000017,143.20507799999996,175.12841800000024,125.89746099999957,125.25634799999989,106.15380900000036,95.38476599999922,159.61523400000078,124.87158199999976,128.3334960000002,-49.74365200000011,97.56396500000028
304,142.82031300000017,61.153809000000365,123.58984400000008,153.9741210000002,185.6411130000006,132.43603499999972,132.3076170000004,120.0,117.43603499999972,175.6411130000006,136.0258789999998,135.89746099999957,-32.17944299999999,101.2822270000006
305,143.9741210000002,60.38476599999922,121.2822270000006,157.43603499999972,158.9741210000002,112.94873000000007,118.0771479999994,117.69238299999961,125.51269500000035,160.6411130000006,139.23095699999976,130.89746099999957,-26.41015600000037,98.46142599999985
306,135.89746099999957,51.9228520000006,110.12841800000024,153.58984400000008,112.94873000000007,82.30761700000039,96.41015599999992,101.79492200000004,115.64111300000059,123.84619099999964,136.2822270000006,119.74365200000011,-34.10253899999998,93.9741210000002
307,128.20507799999996,43.0771479999994,99.74365200000011,147.6923829999996,82.43603499999972,62.30761700000039,85.76904300000024,85.12841800000024,97.05126999999993,90.12841800000024,130.6411130000006,111.53857400000015,-50.76928699999962,93.9741210000002
308,127.17968800000017,35.76904300000024,96.6665039999998,143.84619099999964,86.9228520000006,63.7177729999994,92.69238299999961,78.3334960000002,81.79492200000004,78.7177729999994,123.58984400000008,109.61523400000078,-69.10253899999998,96.2822270000006
309,131.6665039999998,25.769043000000238,99.35888699999941,141.53857400000015,114.35888699999941,78.84619099999964,107.82031300000017,81.9228520000006,76.0258789999998,89.10253900000043,114.48730499999965,109.61523400000078,-78.84619099999964,95.0
310,136.79492200000004,9.743652000000111,103.0771479999994,138.0771479999994,136.15380900000036,92.43603499999972,117.56396500000028,89.48730499999965,78.0771479999994,106.0258789999998,106.0258789999998,107.17968800000017,-70.76928699999962,92.30761700000039
311,139.10253900000043,-6.666747999999643,105.12841800000024,132.56396500000028,136.53857400000015,97.30761700000039,117.17968800000017,95.76904300000024,84.23095699999976,116.79492200000004,104.74365200000011,103.7177729999994,-41.153809000000365,93.84619099999964
312,137.56396500000028,-14.358886999999868,106.15380900000036,126.41015599999992,121.41015599999992,96.15380900000036,111.53857400000015,100.0,91.2822270000006,119.74365200000011,115.25634799999989,103.84619099999964,5.512695000000349,97.69238299999961
313,132.43603499999972,-10.769286999999622,105.76904300000024,120.38476599999922,104.74365200000011,93.9741210000002,107.43603499999972,101.79492200000004,95.76904300000024,117.56396500000028,133.58984400000008,107.94873000000007,56.9228520000006,97.05126999999993
314,125.0,-4.102538999999979,102.69238299999961,113.84619099999964,94.74365200000011,91.6665039999998,106.41015599999992,98.84619099999964,94.10253900000043,108.84619099999964,148.84619099999964,110.89746099999957,100.25634799999989,92.17968800000017
315,117.56396500000028,-4.487060999999812,96.53857400000015,105.25634799999989,92.30761700000039,88.7177729999994,105.89746099999957,89.61523400000078,85.89746099999957,90.64111300000059,152.05126999999993,107.82031300000017,128.9741210000002,90.12841800000024
316,113.20507799999996,-13.71801800000003,90.25634799999989,94.87158199999976,96.9228520000006,86.15380900000036,104.61523400000078,79.10253900000043,77.17968800000017,68.58984400000008,142.94873000000007,99.48730499999965,147.94873000000007,92.43603499999972
317,113.58984400000008,-24.487060999999812,88.3334960000002,84.87158199999976,110.0,88.7177729999994,105.64111300000059,77.82031300000017,77.82031300000017,59.23095699999976,130.38476599999922,93.0771479999994,173.0771479999994,93.3334960000002
318,118.7177729999994,-26.538574000000153,94.10253900000043,78.0771479999994,130.12841800000024,100.12841800000024,115.89746099999957,94.10253900000043,94.35888699999941,78.7177729999994,125.64111300000059,96.2822270000006,223.84619099999964,91.0258789999998
319,127.17968800000017,-13.205077999999958,106.6665039999998,76.9228520000006,149.87158199999976,117.94873000000007,137.17968800000017,123.3334960000002,122.17968800000017,123.20507799999996,135.12841800000024,110.89746099999957,311.15380900000036,90.89746099999957
320,137.05126999999993,13.589844000000085,120.51269500000035,81.15380900000036,156.9228520000006,132.6923829999996,161.6665039999998,148.7177729999994,144.61523400000078,165.2563479999999,155.0,129.87158199999976,430.2563479999999,95.0
321,147.43603499999972,45.12841800000024,128.84619099999964,86.6665039999998,143.58984400000008,133.3334960000002,174.48730499999965,153.46142599999985,145.38476599999922,172.82031300000017,175.2563479999999,143.0771479999994,563.3334960000002,97.43603499999972
322,158.46142599999985,72.56396500000028,128.3334960000002,88.58984400000008,113.84619099999964,116.79492200000004,165.51269500000035,134.87158199999976,122.94873000000007,137.43603499999972,187.05126999999993,144.48730499999965,689.1025390000004,94.48730499999965
323,171.41015599999992,94.10253900000043,121.79492200000004,85.89746099999957,82.82031300000017,91.9228520000006,138.0771479999994,106.41015599999992,93.7177729999994,84.87158199999976,188.58984400000008,137.6923829999996,793.9741210000002,92.43603499999972
324,187.17968800000017,116.2822270000006,116.41015599999992,83.20507799999996,68.84619099999964,76.79492200000004,109.48730499999965,88.46142599999985,80.38476599999922,56.2822270000006,186.0258789999998,132.3076170000004,877.0512699999999,97.05126999999993
325,204.87158199999976,145.6411130000006,118.0771479999994,86.0258789999998,81.41015599999992,85.0,98.9741210000002,93.3334960000002,92.94873000000007,74.35888699999941,187.17968800000017,136.2822270000006,948.8461909999996,103.7177729999994
326,221.9228520000006,181.6665039999998,126.6665039999998,95.38476599999922,112.69238299999961,112.43603499999972,112.30761700000039,115.38476599999922,121.0258789999998,124.35888699999941,194.87158199999976,149.10253900000043,1021.0258789999998,105.38476599999922
327,235.2563479999999,217.43603499999972,136.53857400000015,106.53857400000015,138.9741210000002,138.0771479999994,137.05126999999993,135.2563479999999,142.17968800000017,166.41015599999992,203.9741210000002,162.05126999999993,1097.94873,103.7177729999994
328,243.9741210000002,247.05126999999993,140.51269500000035,114.23095699999976,136.2822270000006,139.48730499999965,152.56396500000028,135.0,140.2563479999999,169.61523400000078,205.76904300000024,165.51269500000035,1174.6152340000008,104.74365200000011
329,249.61523400000078,269.3588869999994,136.79492200000004,118.0771479999994,98.58984400000008,112.82031300000017,147.3076170000004,113.9741210000002,117.56396500000028,136.41015599999992,196.9228520000006,157.56396500000028,1241.5385740000002,107.43603499999972
330,255.76904300000024,286.4101559999999,129.87158199999976,121.2822270000006,44.74365200000011,76.79492200000004,127.94873000000007,90.25634799999989,92.69238299999961,98.84619099999964,183.9741210000002,145.38476599999922,1290.256348,106.53857400000015
331,264.23095699999976,299.7436520000001,127.05126999999993,125.38476599999922,6.282227000000603,57.82031300000017,112.43603499999972,85.0,85.89746099999957,89.48730499999965,177.82031300000017,140.0,1318.205078,103.58984400000008
332,273.7177729999994,311.15380900000036,131.15380900000036,129.10253900000043,4.230956999999762,68.84619099999964,114.35888699999941,103.9741210000002,101.6665039999998,115.0,183.46142599999985,146.0258789999998,1333.3334960000002,105.12841800000024
333,280.6411130000006,323.84619099999964,138.3334960000002,130.2563479999999,35.38476599999922,100.25634799999989,131.41015599999992,133.46142599999985,125.76904300000024,151.53857400000015,195.0,157.6923829999996,1349.3588869999994,110.89746099999957
334,280.89746099999957,340.6411130000006,141.6665039999998,128.7177729999994,76.41015599999992,128.3334960000002,149.10253900000043,152.17968800000017,137.43603499999972,167.6923829999996,199.61523400000078,163.46142599999985,1375.3847659999992,113.0771479999994
335,272.3076170000004,360.6411130000006,137.3076170000004,124.61523400000078,100.76904300000024,134.10253900000043,153.7177729999994,149.3588869999994,127.17968800000017,151.2822270000006,188.84619099999964,156.2822270000006,1408.205078,109.61523400000078
336,257.4360349999997,377.17968800000017,127.56396500000028,117.94873000000007,95.64111300000059,116.6665039999998,143.84619099999964,131.53857400000015,104.48730499999965,117.43603499999972,165.76904300000024,139.3588869999994,1438.0771479999994,106.9228520000006
337,244.61523400000078,382.6923829999996,119.61523400000078,109.74365200000011,68.84619099999964,92.69238299999961,131.0258789999998,116.15380900000036,88.7177729999994,92.56396500000028,144.87158199999976,124.87158199999976,1460.8974609999996,109.23095699999976
338,244.3588869999994,378.3334960000002,121.53857400000015,103.7177729999994,44.87158199999976,83.7177729999994,129.87158199999976,117.43603499999972,92.30761700000039,93.84619099999964,142.3076170000004,125.64111300000059,1482.6923829999996,112.43603499999972
339,259.7436520000001,375.3847659999992,136.15380900000036,105.38476599999922,46.666503999999804,98.20507799999996,144.87158199999976,135.51269500000035,112.43603499999972,121.0258789999998,162.56396500000028,144.3588869999994,1510.7690430000002,113.20507799999996
340,280.3847659999992,384.87158199999976,155.76904300000024,115.51269500000035,76.15380900000036,124.10253900000043,166.0258789999998,155.51269500000035,133.0771479999994,158.20507799999996,192.17968800000017,169.3588869999994,1541.0258789999998,115.38476599999922
341,287.4360349999997,405.0,166.2822270000006,126.79492200000004,109.61523400000078,138.58984400000008,176.15380900000036,158.58984400000008,137.43603499999972,183.0771479999994,207.94873000000007,180.76904300000024,1558.205078,120.64111300000059
342,267.94873000000007,421.2822270000006,157.6923829999996,127.30761700000039,117.30761700000039,127.69238299999961,165.2563479999999,137.43603499999972,120.12841800000024,178.0771479999994,194.48730499999965,165.2563479999999,1548.8461909999996,122.69238299999961
343,227.6923829999996,419.7436520000001,132.6923829999996,110.38476599999922,89.23095699999976,97.94873000000007,138.58984400000008,103.58984400000008,91.79492200000004,142.17968800000017,156.9228520000006,128.58984400000008,1516.2822270000006,116.79492200000004
344,189.7436520000001,400.6411130000006,107.56396500000028,82.05126999999993,46.025878999999804,70.38476599999922,113.9741210000002,79.48730499999965,71.6665039999998,94.35888699999941,118.58984400000008,93.84619099999964,1482.5639650000003,109.23095699999976
345,177.82031300000017,379.3588869999994,99.48730499999965,57.69238299999961,21.794922000000042,63.974121000000196,107.05126999999993,81.79492200000004,73.46142599999985,63.333496000000196,102.82031300000017,84.61523400000078,1474.1025390000004,108.58984400000008
346,198.46142599999985,372.82031300000017,113.0771479999994,52.17968800000017,34.61523400000078,80.64111300000059,119.35888699999941,106.79492200000004,94.23095699999976,66.2822270000006,115.0,105.76904300000024,1498.9741210000002,113.0771479999994
347,234.10253900000043,384.6152340000008,137.17968800000017,67.56396500000028,70.51269500000035,104.87158199999976,136.9228520000006,133.46142599999985,117.43603499999972,97.05126999999993,140.0,139.3588869999994,1539.1025390000004,115.12841800000024
348,256.6665039999998,402.17968800000017,153.9741210000002,91.9228520000006,97.94873000000007,118.20507799999996,143.9741210000002,140.6411130000006,125.76904300000024,132.56396500000028,157.05126999999993,160.12841800000024,1565.0,113.7177729999994
349,250.0,409.6152340000008,153.3334960000002,107.82031300000017,97.56396500000028,114.87158199999976,136.9228520000006,124.35888699999941,116.0258789999998,151.53857400000015,156.79492200000004,156.0258789999998,1561.0258789999998,113.58984400000008
350,222.6923829999996,402.17968800000017,140.12841800000024,106.2822270000006,79.10253900000043,105.12841800000024,125.76904300000024,100.51269500000035,100.51269500000035,148.20507799999996,147.05126999999993,136.6665039999998,1536.410156,115.25634799999989
351,197.94873000000007,389.87158199999976,127.69238299999961,92.82031300000017,69.61523400000078,103.20507799999996,122.69238299999961,90.0,94.87158199999976,133.3334960000002,140.76904300000024,121.9228520000006,1514.2309569999998,114.23095699999976
352,192.43603499999972,386.4101559999999,125.51269500000035,80.76904300000024,83.9741210000002,111.2822270000006,130.76904300000024,99.87158199999976,102.82031300000017,122.82031300000017,142.3076170000004,122.56396500000028,1509.743652,111.0258789999998
353,202.56396500000028,393.3334960000002,131.9228520000006,79.10253900000043,108.58984400000008,117.69238299999961,141.79492200000004,118.7177729999994,113.84619099999964,124.35888699999941,145.2563479999999,133.3334960000002,1519.2309569999998,111.79492200000004
354,212.56396500000028,398.7177729999994,138.58984400000008,84.48730499999965,115.89746099999957,110.51269500000035,145.76904300000024,129.10253900000043,115.0,132.3076170000004,141.53857400000015,140.6411130000006,1528.3334960000002,116.53857400000015
355,210.6411130000006,391.0258789999998,139.10253900000043,87.43603499999972,94.48730499999965,92.56396500000028,140.6411130000006,124.48730499999965,104.61523400000078,134.10253900000043,131.15380900000036,137.05126999999993,1526.6665039999998,117.82031300000017
356,199.23095699999976,371.6665039999998,134.61523400000078,82.43603499999972,61.666503999999804,79.23095699999976,132.94873000000007,112.69238299999961,92.69238299999961,122.43603499999972,121.15380900000036,126.53857400000015,1515.1284180000002,113.3334960000002
357,188.20507799999996,353.46142599999985,130.38476599999922,72.82031300000017,47.05126999999993,83.20507799999996,129.10253900000043,105.64111300000059,90.25634799999989,103.58984400000008,117.94873000000007,118.3334960000002,1498.8461909999996,110.25634799999989
358,184.61523400000078,347.82031300000017,130.0,65.89746099999957,63.7177729999994,101.6665039999998,130.12841800000024,107.82031300000017,99.35888699999941,92.30761700000039,120.76904300000024,117.43603499999972,1479.2309569999998,113.20507799999996
359,186.41015599999992,355.6411130000006,132.17968800000017,64.87158199999976,98.0771479999994,119.23095699999976,131.6665039999998,114.23095699999976,111.6665039999998,97.69238299999961,123.20507799999996,120.51269500000035,1454.8715819999998,116.15380900000036
360,186.9228520000006,367.4360349999997,133.46142599999985,66.9228520000006,121.6665039999998,121.41015599999992,129.48730499999965,116.6665039999998,117.17968800000017,113.84619099999964,120.0,120.89746099999957,1426.9228520000006,113.84619099999964
361,181.9228520000006,371.53857400000015,131.53857400000015,65.76904300000024,116.0258789999998,105.89746099999957,122.82031300000017,112.05126999999993,111.79492200000004,123.58984400000008,112.30761700000039,115.25634799999989,1403.4614259999998,110.89746099999957
362,174.3588869999994,362.5639650000003,128.58984400000008,58.589844000000085,87.94873000000007,84.61523400000078,115.89746099999957,104.87158199999976,100.38476599999922,114.35888699999941,107.17968800000017,107.69238299999961,1394.3588869999994,112.94873000000007
363,170.51269500000035,345.89746099999957,128.7177729999994,48.7177729999994,63.333496000000196,73.7177729999994,114.74365200000011,102.56396500000028,92.17968800000017,89.61523400000078,110.76904300000024,106.0258789999998,1401.794922,116.53857400000015
364,172.82031300000017,331.4101559999999,133.58984400000008,41.53857400000015,64.74365200000011,81.15380900000036,121.79492200000004,107.43603499999972,92.94873000000007,66.2822270000006,121.15380900000036,112.94873000000007,1415.5126950000003,115.38476599999922
365,176.41015599999992,325.0,140.0,40.0,90.76904300000024,100.12841800000024,132.43603499999972,113.9741210000002,99.48730499999965,60.64111300000059,128.84619099999964,122.43603499999972,1417.94873,111.0258789999998
366,173.7177729999994,324.23095699999976,141.79492200000004,42.82031300000017,118.46142599999985,114.10253900000043,138.3334960000002,114.23095699999976,103.20507799999996,75.64111300000059,124.48730499999965,124.48730499999965,1398.7177729999994,110.51269500000035
367,162.6923829999996,325.0,136.41015599999992,46.53857400000015,123.3334960000002,110.89746099999957,134.7436520000001,105.51269500000035,98.46142599999985,99.48730499999965,108.20507799999996,115.64111300000059,1363.7177729999994,112.94873000000007
368,151.0258789999998,327.17968800000017,127.82031300000017,50.12841800000024,102.56396500000028,93.3334960000002,126.15380900000036,94.10253900000043,88.46142599999985,117.17968800000017,91.6665039999998,103.0771479999994,1330.5126950000003,112.43603499999972
369,149.23095699999976,333.20507799999996,123.9741210000002,54.23095699999976,78.46142599999985,77.17968800000017,122.43603499999972,90.38476599999922,83.3334960000002,121.79492200000004,87.43603499999972,99.10253900000043,1314.2309569999998,109.23095699999976
370,160.0,341.79492200000004,128.84619099999964,59.102539000000434,77.43603499999972,78.3334960000002,129.48730499999965,99.23095699999976,89.74365200000011,116.79492200000004,98.7177729999994,109.10253900000043,1315.0,109.10253900000043
371,173.46142599999985,345.89746099999957,138.20507799999996,61.53857400000015,105.25634799999989,98.20507799999996,142.56396500000028,115.25634799999989,104.10253900000043,107.94873000000007,115.51269500000035,126.0258789999998,1321.1538090000004,112.30761700000039
372,175.76904300000024,337.94873000000007,143.20507799999996,57.82031300000017,140.6411130000006,121.9228520000006,151.0258789999998,126.53857400000015,114.35888699999941,97.05126999999993,123.58984400000008,136.15380900000036,1319.8715819999998,112.43603499999972
373,161.9228520000006,318.5898440000001,139.10253900000043,47.56396500000028,154.87158199999976,131.15380900000036,147.56396500000028,125.25634799999989,110.89746099999957,82.56396500000028,117.17968800000017,131.79492200000004,1308.589844,107.94873000000007
374,139.7436520000001,297.4360349999997,128.58984400000008,36.025878999999804,136.9228520000006,119.35888699999941,134.10253900000043,114.10253900000043,95.51269500000035,65.89746099999957,103.3334960000002,117.43603499999972,1292.5639650000003,105.12841800000024
375,123.0771479999994,286.2822270000006,119.35888699999941,30.384765999999217,101.0258789999998,96.2822270000006,120.25634799999989,103.84619099999964,79.74365200000011,53.589844000000085,94.35888699999941,104.35888699999941,1277.5639650000003,107.30761700000039
376,118.46142599999985,288.46142599999985,116.41015599999992,33.0771479999994,72.43603499999972,78.0771479999994,115.25634799999989,102.17968800000017,73.9741210000002,53.20507799999996,96.0258789999998,100.12841800000024,1262.5639650000003,108.84619099999964
377,121.9228520000006,296.6665039999998,118.58984400000008,40.38476599999922,66.6665039999998,74.48730499999965,120.89746099999957,107.82031300000017,79.87158199999976,66.41015599999992,103.46142599999985,103.7177729999994,1243.4614259999998,105.64111300000059
378,123.58984400000008,299.6152340000008,120.89746099999957,45.51269500000035,81.15380900000036,83.3334960000002,131.41015599999992,113.20507799999996,91.15380900000036,85.64111300000059,107.43603499999972,108.46142599999985,1218.9741210000002,102.43603499999972
379,117.30761700000039,291.0258789999998,119.10253900000043,44.87158199999976,100.89746099999957,94.74365200000011,138.0771479999994,112.05126999999993,99.74365200000011,99.10253900000043,102.43603499999972,108.7177729999994,1192.3076170000004,104.35888699999941
380,103.7177729999994,274.23095699999976,113.0771479999994,39.74365200000011,109.87158199999976,98.20507799999996,135.51269500000035,104.35888699999941,100.12841800000024,99.10253900000043,90.12841800000024,103.3334960000002,1167.94873,107.43603499999972
381,89.74365200000011,257.5639650000003,107.17968800000017,34.23095699999976,101.6665039999998,91.2822270000006,125.89746099999957,95.89746099999957,93.7177729999994,88.58984400000008,77.82031300000017,96.0258789999998,1148.7177729999994,106.53857400000015
382,82.69238299999961,248.46142599999985,106.0258789999998,31.794922000000042,83.20507799999996,80.0,117.56396500000028,93.9741210000002,87.30761700000039,78.3334960000002,72.94873000000007,93.0771479999994,1136.2822270000006,104.87158199999976
383,85.12841800000024,248.7177729999994,110.89746099999957,32.43603499999972,68.3334960000002,73.9741210000002,117.82031300000017,101.6665039999998,87.43603499999972,76.0258789999998,77.94873000000007,97.17968800000017,1130.3847659999992,107.69238299999961
