,EEG.AF3,EEG.F7,EEG.F3,EEG.FC5,EEG.T7,EEG.P7,EEG.O1,EEG.O2,EEG.P8,EEG.T8,EEG.FC6,EEG.F4,EEG.F8,EEG.AF4
0,73.20507799999996,99.61523400000078,104.61523400000078,-65.0,79.61523400000078,84.74365200000011,100.51269500000035,100.51269500000035,78.58984400000008,143.84619099999964,129.87158199999976,86.0258789999998,1491.9228520000006,103.46142599999985
1,54.61523400000078,100.38476599999922,88.84619099999964,-75.64111300000013,39.48730499999965,72.30761700000039,77.94873000000007,79.74365200000011,62.05126999999993,121.6665039999998,116.9228520000006,64.35888699999941,1473.0771479999994,99.48730499999965
2,51.153809000000365,106.79492200000004,85.76904300000024,-74.10253899999998,35.64111300000059,69.61523400000078,72.69238299999961,72.94873000000007,54.23095699999976,108.3334960000002,115.76904300000024,58.0771479999994,1458.4614259999998,101.41015599999992
3,60.51269500000035,115.38476599999922,94.10253900000043,-65.1281740000004,65.76904300000024,77.69238299999961,83.84619099999964,81.9228520000006,57.05126999999993,105.76904300000024,124.35888699999941,67.30761700000039,1443.589844,106.9228520000006
4,74.74365200000011,123.7177729999994,107.30761700000039,-55.51293900000019,108.20507799999996,92.30761700000039,101.79492200000004,99.87158199999976,66.9228520000006,110.64111300000059,137.05126999999993,84.48730499999965,1426.9228520000006,108.0771479999994
5,87.69238299999961,129.87158199999976,119.61523400000078,-49.8718259999996,141.15380900000036,108.84619099999964,117.05126999999993,117.56396500000028,79.10253900000043,121.53857400000015,149.61523400000078,101.6665039999998,1412.6923829999996,104.61523400000078
6,97.43603499999972,133.58984400000008,128.7177729999994,-47.82055700000001,155.2563479999999,123.84619099999964,125.38476599999922,128.7177729999994,90.51269500000035,140.12841800000024,159.7436520000001,114.48730499999965,1406.0258789999998,102.94873000000007
7,104.48730499999965,135.0,134.61523400000078,-46.92309599999999,153.58984400000008,134.87158199999976,128.46142599999985,132.94873000000007,100.25634799999989,165.0,166.41015599999992,121.9228520000006,1405.1284180000002,105.38476599999922
8,107.94873000000007,132.94873000000007,137.05126999999993,-45.51293900000019,144.23095699999976,141.15380900000036,129.61523400000078,133.46142599999985,107.43603499999972,188.0771479999994,168.46142599999985,123.3334960000002,1400.3847659999992,106.79492200000004
9,105.51269500000035,127.17968800000017,135.38476599999922,-44.74365200000011,132.94873000000007,144.23095699999976,129.87158199999976,132.6923829999996,110.89746099999957,199.10253900000043,165.2563479999999,118.58984400000008,1382.94873,104.61523400000078
10,95.38476599999922,118.20507799999996,129.10253900000043,-47.051270000000386,122.43603499999972,146.79492200000004,127.17968800000017,130.0,108.7177729999994,193.9741210000002,157.6923829999996,109.10253900000043,1351.0258789999998,103.46142599999985
11,79.48730499999965,107.69238299999961,118.84619099999964,-53.846190999999635,113.20507799999996,150.51269500000035,119.10253900000043,123.84619099999964,100.64111300000059,178.0771479999994,147.43603499999972,97.05126999999993,1310.3847659999992,105.51269500000035
12,62.43603499999972,96.41015599999992,107.17968800000017,-64.10253899999998,104.10253900000043,155.51269500000035,107.30761700000039,114.35888699999941,88.7177729999994,160.6411130000006,136.0258789999998,85.0,1268.9741210000002,105.25634799999989
13,49.87158199999976,84.61523400000078,98.20507799999996,-73.58984399999963,94.35888699999941,160.51269500000035,97.43603499999972,105.0,77.17968800000017,147.82031300000017,125.51269500000035,75.76904300000024,1233.4614259999998,99.61523400000078
14,46.025878999999804,74.10253900000043,95.89746099999957,-76.79492200000004,85.89746099999957,163.9741210000002,95.0,100.38476599999922,70.12841800000024,140.6411130000006,118.84619099999964,72.82031300000017,1206.9228520000006,94.74365200000011
15,51.025878999999804,68.84619099999964,100.64111300000059,-70.89746100000002,82.30761700000039,164.7436520000001,101.15380900000036,102.56396500000028,69.10253900000043,136.15380900000036,118.3334960000002,77.56396500000028,1187.8203130000002,96.6665039999998
16,60.897460999999566,71.41015599999992,109.23095699999976,-58.46142599999985,86.15380900000036,162.82031300000017,110.89746099999957,109.10253900000043,71.79492200000004,131.2822270000006,123.20507799999996,87.05126999999993,1169.743652,101.2822270000006
17,69.10253900000043,80.38476599999922,116.41015599999992,-45.76928699999962,95.76904300000024,159.10253900000043,117.30761700000039,114.61523400000078,75.0,126.79492200000004,129.7436520000001,94.87158199999976,1145.7690430000002,101.6665039999998
18,72.56396500000028,92.05126999999993,118.9741210000002,-37.564209000000574,106.0258789999998,154.3588869999994,117.43603499999972,116.0258789999998,77.82031300000017,128.0771479999994,133.84619099999964,97.56396500000028,1113.7177729999994,99.10253900000043
19,72.94873000000007,103.0771479999994,117.69238299999961,-34.74365200000011,112.05126999999993,150.6411130000006,114.87158199999976,115.12841800000024,81.9228520000006,140.12841800000024,134.7436520000001,96.41015599999992,1076.2822270000006,99.61523400000078
20,75.12841800000024,112.82031300000017,115.64111300000059,-34.35888699999987,111.41015599999992,149.7436520000001,115.64111300000059,116.2822270000006,88.20507799999996,162.3076170000004,134.3588869999994,95.12841800000024,1037.4360349999997,102.56396500000028
21,79.87158199999976,122.82031300000017,115.64111300000059,-33.71801800000003,103.58984400000008,152.05126999999993,121.79492200000004,121.15380900000036,95.38476599999922,185.6411130000006,133.9741210000002,95.51269500000035,997.8203130000002,102.82031300000017
22,84.23095699999976,134.61523400000078,116.9228520000006,-32.17944299999999,90.25634799999989,154.7436520000001,129.3588869999994,126.53857400000015,99.87158199999976,198.7177729999994,133.3334960000002,95.51269500000035,954.8715819999998,100.89746099999957
23,84.35888699999941,148.84619099999964,117.30761700000039,-30.769286999999622,75.64111300000059,154.3588869999994,132.05126999999993,127.69238299999961,100.0,196.15380900000036,131.9228520000006,93.20507799999996,906.5385740000002,101.9228520000006
24,81.6665039999998,166.53857400000015,115.89746099999957,-30.38452099999995,68.0771479999994,150.89746099999957,128.46142599999985,124.74365200000011,97.05126999999993,181.6665039999998,130.51269500000035,89.48730499999965,854.6152340000008,105.64111300000059
25,81.53857400000015,188.20507799999996,114.10253900000043,-30.641113000000132,74.61523400000078,148.58984400000008,123.3334960000002,122.17968800000017,95.64111300000059,165.76904300000024,130.76904300000024,88.0771479999994,802.9487300000001,106.6665039999998
26,88.0771479999994,212.6923829999996,113.84619099999964,-29.61547900000005,93.20507799999996,150.89746099999957,122.43603499999972,124.87158199999976,99.10253900000043,157.3076170000004,132.43603499999972,90.76904300000024,753.205078,104.61523400000078
27,99.61523400000078,235.76904300000024,115.25634799999989,-25.38452099999995,111.9228520000006,157.56396500000028,127.05126999999993,131.6665039999998,106.6665039999998,158.58984400000008,133.7177729999994,96.53857400000015,703.5898440000001,105.51269500000035
28,110.12841800000024,253.3334960000002,116.9228520000006,-18.461425999999847,117.69238299999961,164.61523400000078,132.94873000000007,136.53857400000015,113.0771479999994,164.61523400000078,132.05126999999993,101.79492200000004,650.5126950000003,111.79492200000004
29,114.61523400000078,264.23095699999976,117.56396500000028,-11.025634999999966,107.05126999999993,167.56396500000028,134.48730499999965,134.3588869999994,113.0771479999994,168.0771479999994,126.9228520000006,103.58984400000008,593.4614259999998,116.41015599999992
30,113.3334960000002,271.2822270000006,117.30761700000039,-5.256347999999889,88.3334960000002,163.9741210000002,129.23095699999976,126.15380900000036,106.0258789999998,165.2563479999999,120.89746099999957,101.9228520000006,536.0258789999998,115.0
31,111.6665039999998,279.7436520000001,117.82031300000017,-1.0258789999998044,74.48730499999965,155.76904300000024,120.89746099999957,119.10253900000043,97.69238299999961,158.3334960000002,117.94873000000007,99.87158199999976,484.48730499999965,112.05126999999993
32,116.6665039999998,293.9741210000002,121.2822270000006,4.487304999999651,73.84619099999964,149.23095699999976,115.76904300000024,120.38476599999922,95.38476599999922,153.84619099999964,120.12841800000024,100.89746099999957,443.20507799999996,112.82031300000017
33,130.6411130000006,314.6152340000008,128.0771479999994,13.589844000000085,86.0258789999998,150.2563479999999,118.0771479999994,131.2822270000006,102.43603499999972,157.6923829999996,125.51269500000035,105.89746099999957,410.6411130000006,114.74365200000011
34,148.7177729999994,337.17968800000017,134.87158199999976,25.384765999999217,103.7177729999994,159.23095699999976,125.51269500000035,144.87158199999976,115.25634799999989,171.9228520000006,128.9741210000002,111.9228520000006,379.10253900000043,113.3334960000002
35,161.53857400000015,355.0,137.05126999999993,35.0,116.79492200000004,169.61523400000078,131.15380900000036,150.76904300000024,126.0258789999998,191.41015599999992,125.89746099999957,114.10253900000043,340.51269500000035,111.15380900000036
36,162.43603499999972,363.9741210000002,132.3076170000004,38.589844000000085,117.82031300000017,173.84619099999964,128.84619099999964,143.46142599999985,128.3334960000002,204.23095699999976,115.89746099999957,109.87158199999976,292.4360349999997,112.82031300000017
37,152.3076170000004,365.3847659999992,123.20507799999996,38.46142599999985,106.6665039999998,169.48730499999965,120.12841800000024,127.69238299999961,122.17968800000017,197.94873000000007,104.10253900000043,101.9228520000006,241.2822270000006,115.25634799999989
38,139.23095699999976,363.9741210000002,115.76904300000024,41.153809000000365,90.0,159.7436520000001,112.30761700000039,115.12841800000024,113.0771479999994,169.87158199999976,97.17968800000017,96.15380900000036,197.6923829999996,112.69238299999961
39,131.2822270000006,363.3334960000002,114.74365200000011,51.153809000000365,75.38476599999922,149.87158199999976,111.9228520000006,113.84619099999964,107.30761700000039,131.0258789999998,98.20507799999996,96.6665039999998,167.3076170000004,106.79492200000004
40,130.89746099999957,363.7177729999994,119.87158199999976,66.41015599999992,67.69238299999961,144.23095699999976,117.94873000000007,122.05126999999993,107.43603499999972,99.23095699999976,103.84619099999964,102.30761700000039,146.15380900000036,104.23095699999976
41,134.48730499999965,364.3588869999994,126.79492200000004,81.53857400000015,68.46142599999985,144.61523400000078,122.82031300000017,130.38476599999922,110.89746099999957,87.05126999999993,107.69238299999961,108.46142599999985,125.76904300000024,105.25634799999989
42,137.43603499999972,366.2822270000006,131.0258789999998,93.3334960000002,76.79492200000004,151.15380900000036,120.89746099999957,131.6665039999998,112.94873000000007,93.9741210000002,106.41015599999992,111.53857400000015,100.51269500000035,104.87158199999976
43,137.56396500000028,372.05126999999993,131.53857400000015,102.56396500000028,90.64111300000059,162.05126999999993,113.7177729999994,125.76904300000024,111.41015599999992,107.82031300000017,101.53857400000015,111.41015599999992,73.0771479999994,101.9228520000006
44,136.41015599999992,382.5639650000003,130.2563479999999,111.0258789999998,106.15380900000036,173.84619099999964,108.20507799999996,118.58984400000008,107.30761700000039,114.87158199999976,97.43603499999972,110.38476599999922,49.48730499999965,101.6665039999998
45,136.15380900000036,396.2822270000006,129.87158199999976,120.38476599999922,118.9741210000002,183.46142599999985,110.12841800000024,115.76904300000024,103.20507799999996,109.61523400000078,96.53857400000015,111.0258789999998,33.46142599999985,104.74365200000011
46,137.94873000000007,408.84619099999964,131.15380900000036,130.89746099999957,125.38476599999922,189.61523400000078,118.7177729999994,118.84619099999964,100.76904300000024,97.69238299999961,97.82031300000017,114.35888699999941,23.077147999999397,105.0
47,140.0,414.6152340000008,133.0771479999994,141.0258789999998,122.69238299999961,191.9228520000006,127.56396500000028,124.74365200000011,100.38476599999922,89.48730499999965,97.94873000000007,118.58984400000008,11.666503999999804,100.12841800000024
48,139.23095699999976,410.76904300000024,134.3588869999994,148.20507799999996,112.43603499999972,191.0258789999998,130.38476599999922,128.46142599999985,102.30761700000039,91.9228520000006,95.12841800000024,120.89746099999957,-6.41015600000037,96.0258789999998
49,134.87158199999976,400.0,133.7177729999994,150.89746099999957,100.76904300000024,187.43603499999972,126.41015599999992,127.69238299999961,106.53857400000015,102.43603499999972,90.12841800000024,119.35888699999941,-30.769286999999622,97.56396500000028
50,130.12841800000024,388.9741210000002,131.6665039999998,150.51269500000035,94.87158199999976,181.41015599999992,120.12841800000024,124.23095699999976,112.43603499999972,112.05126999999993,86.15380900000036,114.87158199999976,-55.38452099999995,100.51269500000035
51,128.58984400000008,383.46142599999985,129.3588869999994,149.61523400000078,97.94873000000007,173.3334960000002,116.6665039999998,121.6665039999998,117.56396500000028,112.43603499999972,85.25634799999989,109.87158199999976,-74.23071300000038,99.61523400000078
52,130.51269500000035,383.20507799999996,127.43603499999972,149.10253900000043,105.38476599999922,164.61523400000078,117.56396500000028,121.53857400000015,118.84619099999964,102.56396500000028,86.6665039999998,106.41015599999992,-87.17944299999999,97.56396500000028
53,131.6665039999998,382.17968800000017,124.74365200000011,147.6923829999996,108.7177729999994,157.6923829999996,119.87158199999976,122.69238299999961,113.9741210000002,89.23095699999976,86.2822270000006,103.58984400000008,-99.35888699999987,98.9741210000002
54,127.82031300000017,374.87158199999976,120.0,144.48730499999965,103.7177729999994,154.61523400000078,119.87158199999976,122.43603499999972,103.3334960000002,80.25634799999989,81.0258789999998,99.48730499999965,-115.64111300000013,101.0258789999998
55,119.10253900000043,362.5639650000003,113.84619099999964,141.41015599999992,94.48730499999965,157.17968800000017,116.9228520000006,119.35888699999941,91.53857400000015,79.48730499999965,72.43603499999972,93.46142599999985,-135.76928699999962,98.9741210000002
56,111.41015599999992,352.17968800000017,110.0,143.0771479999994,91.0258789999998,165.51269500000035,114.48730499999965,116.15380900000036,85.76904300000024,86.6665039999998,66.53857400000015,89.10253900000043,-153.46142599999985,95.51269500000035
57,111.79492200000004,349.48730499999965,112.56396500000028,152.17968800000017,100.25634799999989,178.20507799999996,117.30761700000039,116.6665039999998,90.38476599999922,99.35888699999941,69.35888699999941,91.0258789999998,-162.43579099999943,97.05126999999993
58,121.53857400000015,353.9741210000002,121.2822270000006,166.15380900000036,118.46142599999985,190.76904300000024,125.51269500000035,122.43603499999972,101.9228520000006,112.94873000000007,81.2822270000006,99.74365200000011,-162.43579099999943,102.17968800000017
59,134.48730499999965,358.5898440000001,131.2822270000006,177.82031300000017,133.58984400000008,197.43603499999972,133.9741210000002,130.2563479999999,111.79492200000004,120.51269500000035,95.0,110.64111300000059,-160.38452099999995,103.84619099999964
60,141.15380900000036,355.89746099999957,136.41015599999992,181.2822270000006,134.48730499999965,193.84619099999964,135.76904300000024,135.12841800000024,113.3334960000002,117.43603499999972,101.9228520000006,117.30761700000039,-164.8718259999996,101.0258789999998
61,136.79492200000004,343.84619099999964,134.23095699999976,176.15380900000036,120.89746099999957,180.38476599999922,129.10253900000043,134.61523400000078,107.30761700000039,105.0,98.84619099999964,116.41015599999992,-178.33325200000036,99.35888699999941
62,125.64111300000059,327.94873000000007,128.0771479999994,167.82031300000017,104.48730499999965,162.05126999999993,118.58984400000008,131.2822270000006,101.41015599999992,91.41015599999992,90.64111300000059,110.51269500000035,-195.2563479999999,101.15380900000036
63,116.53857400000015,315.6411130000006,123.46142599999985,161.9228520000006,98.58984400000008,145.12841800000024,112.17968800000017,128.84619099999964,103.0771479999994,86.2822270000006,84.74365200000011,104.87158199999976,-207.3076170000004,101.9228520000006
64,114.87158199999976,309.87158199999976,123.20507799999996,160.12841800000024,105.0,134.23095699999976,113.3334960000002,128.58984400000008,112.30761700000039,92.30761700000039,84.48730499999965,103.58984400000008,-212.3076170000004,100.12841800000024
65,117.94873000000007,306.0258789999998,125.0,159.7436520000001,112.94873000000007,129.48730499999965,118.7177729999994,129.23095699999976,121.15380900000036,102.43603499999972,86.6665039999998,106.0258789999998,-215.76928699999962,100.0
66,118.20507799999996,298.20507799999996,124.10253900000043,157.94873000000007,109.48730499999965,128.9741210000002,121.79492200000004,128.58984400000008,121.6665039999998,105.51269500000035,85.76904300000024,107.69238299999961,-224.4870609999998,102.94873000000007
67,112.82031300000017,286.4101559999999,118.7177729999994,155.2563479999999,93.46142599999985,131.15380900000036,118.58984400000008,127.05126999999993,112.94873000000007,97.05126999999993,80.51269500000035,105.64111300000059,-239.23071300000038,103.46142599999985
68,106.41015599999992,276.79492200000004,113.3334960000002,155.51269500000035,77.43603499999972,137.05126999999993,111.79492200000004,126.9228520000006,103.0771479999994,85.0,75.76904300000024,101.9228520000006,-253.076904,99.35888699999941
69,106.79492200000004,275.76904300000024,113.9741210000002,161.6665039999998,76.6665039999998,147.3076170000004,107.56396500000028,130.12841800000024,100.64111300000059,82.69238299999961,78.46142599999985,101.9228520000006,-257.9487299999996,96.53857400000015
70,116.41015599999992,282.94873000000007,122.43603499999972,172.56396500000028,94.35888699999941,159.10253900000043,110.51269500000035,135.51269500000035,107.17968800000017,96.6665039999998,90.12841800000024,108.58984400000008,-252.3076170000004,100.25634799999989
71,128.7177729999994,290.3847659999992,132.82031300000017,182.56396500000028,118.3334960000002,166.6665039999998,119.10253900000043,138.58984400000008,115.51269500000035,118.84619099999964,103.84619099999964,117.94873000000007,-243.33325200000036,105.51269500000035
72,134.10253900000043,289.6152340000008,136.9228520000006,185.0,131.53857400000015,165.0,126.79492200000004,135.6411130000006,117.56396500000028,133.58984400000008,109.87158199999976,123.20507799999996,-241.53857400000015,105.12841800000024
73,128.3334960000002,278.20507799999996,131.2822270000006,177.82031300000017,127.17968800000017,154.48730499999965,127.17968800000017,126.79492200000004,111.2822270000006,130.12841800000024,103.20507799999996,119.74365200000011,-252.3076170000004,100.51269500000035
74,115.12841800000024,260.76904300000024,119.35888699999941,164.87158199999976,112.17968800000017,140.76904300000024,120.0,117.17968800000017,101.2822270000006,110.12841800000024,87.56396500000028,109.61523400000078,-272.9487299999996,98.0771479999994
75,103.3334960000002,244.61523400000078,108.46142599999985,153.58984400000008,99.87158199999976,131.6665039999998,111.0258789999998,112.56396500000028,94.23095699999976,84.74365200000011,72.17968800000017,98.84619099999964,-294.61547900000005,98.0771479999994
76,99.10253900000043,234.87158199999976,103.84619099999964,149.10253900000043,97.94873000000007,130.51269500000035,107.30761700000039,115.25634799999989,93.7177729999994,67.05126999999993,64.87158199999976,93.20507799999996,-308.46142599999985,96.6665039999998
77,102.17968800000017,231.79492200000004,105.76904300000024,151.41015599999992,103.9741210000002,134.10253900000043,111.0258789999998,121.53857400000015,98.0771479999994,63.974121000000196,66.9228520000006,94.35888699999941,-311.53857400000015,95.0
78,106.6665039999998,231.2822270000006,109.87158199999976,155.51269500000035,110.12841800000024,134.23095699999976,117.69238299999961,125.25634799999989,102.43603499999972,73.0771479999994,73.0771479999994,99.23095699999976,-307.3076170000004,97.43603499999972
79,106.79492200000004,228.58984400000008,111.2822270000006,157.82031300000017,110.64111300000059,125.25634799999989,120.25634799999989,123.0771479999994,103.0771479999994,85.25634799999989,76.79492200000004,102.69238299999961,-302.5642090000006,101.9228520000006
80,102.05126999999993,222.17968800000017,109.48730499999965,158.3334960000002,105.25634799999989,109.48730499999965,115.38476599999922,117.43603499999972,100.38476599999922,93.58984400000008,75.64111300000059,102.56396500000028,-301.66674799999964,102.05126999999993
81,97.69238299999961,214.3588869999994,108.20507799999996,160.2563479999999,98.9741210000002,95.89746099999957,106.41015599999992,113.9741210000002,97.94873000000007,96.9228520000006,72.69238299999961,101.15380900000036,-304.35888699999987,97.30761700000039
82,98.3334960000002,208.84619099999964,111.2822270000006,164.7436520000001,97.30761700000039,92.43603499999972,101.2822270000006,116.2822270000006,98.3334960000002,96.6665039999998,72.56396500000028,102.30761700000039,-308.46142599999985,95.25634799999989
83,103.58984400000008,207.43603499999972,117.94873000000007,170.0,102.43603499999972,99.48730499999965,105.25634799999989,122.56396500000028,100.25634799999989,93.0771479999994,76.53857400000015,107.17968800000017,-312.9487299999996,99.10253900000043
84,108.9741210000002,208.46142599999985,123.20507799999996,172.82031300000017,110.89746099999957,109.74365200000011,116.15380900000036,128.20507799999996,100.89746099999957,86.41015599999992,81.6665039999998,112.82031300000017,-318.33325200000036,102.69238299999961
85,109.87158199999976,207.94873000000007,122.82031300000017,171.79492200000004,117.69238299999961,114.10253900000043,125.89746099999957,129.61523400000078,99.74365200000011,80.38476599999922,83.84619099999964,115.64111300000059,-325.64111300000013,101.41015599999992
86,105.89746099999957,203.9741210000002,117.69238299999961,167.94873000000007,120.12841800000024,108.58984400000008,127.05126999999993,126.41015599999992,98.9741210000002,81.41015599999992,82.05126999999993,114.10253900000043,-333.97436500000003,99.23095699999976
87,100.0,197.56396500000028,112.43603499999972,163.9741210000002,118.9741210000002,97.05126999999993,118.84619099999964,121.15380900000036,99.61523400000078,89.61523400000078,77.69238299999961,109.74365200000011,-341.28198199999997,100.51269500000035
88,95.51269500000035,190.6411130000006,109.74365200000011,161.0258789999998,116.79492200000004,87.69238299999961,107.43603499999972,116.9228520000006,99.35888699999941,95.64111300000059,73.0771479999994,105.0,-346.02563499999997,101.79492200000004
89,92.82031300000017,184.3588869999994,109.23095699999976,158.46142599999985,114.61523400000078,86.79492200000004,99.87158199999976,114.61523400000078,94.74365200000011,88.20507799999996,69.48730499999965,100.89746099999957,-348.97436500000003,99.23095699999976
90,90.51269500000035,178.20507799999996,108.7177729999994,155.89746099999957,113.3334960000002,94.23095699999976,100.12841800000024,113.7177729999994,86.9228520000006,67.43603499999972,67.82031300000017,98.20507799999996,-351.15380900000036,96.2822270000006
91,89.23095699999976,172.05126999999993,107.82031300000017,154.48730499999965,114.35888699999941,104.35888699999941,107.30761700000039,113.9741210000002,81.79492200000004,47.94873000000007,68.7177729999994,97.94873000000007,-352.6923829999996,98.3334960000002
92,91.2822270000006,167.17968800000017,107.82031300000017,155.76904300000024,118.84619099999964,110.12841800000024,116.53857400000015,115.89746099999957,83.84619099999964,46.666503999999804,72.05126999999993,100.0,-352.5642090000006,102.94873000000007
93,97.05126999999993,163.9741210000002,109.35888699999941,159.23095699999976,125.0,107.94873000000007,121.9228520000006,119.10253900000043,90.89746099999957,67.43603499999972,75.89746099999957,103.20507799999996,-350.897461,103.7177729999994
94,103.20507799999996,162.05126999999993,111.2822270000006,162.43603499999972,127.05126999999993,99.74365200000011,120.12841800000024,121.2822270000006,96.53857400000015,97.17968800000017,78.0771479999994,105.0,-349.4870609999998,100.64111300000059
95,105.12841800000024,160.2563479999999,111.2822270000006,163.46142599999985,120.25634799999989,90.89746099999957,112.30761700000039,120.64111300000059,97.17968800000017,117.05126999999993,77.17968800000017,104.10253900000043,-350.2563479999999,99.48730499999965
96,101.15380900000036,157.94873000000007,108.46142599999985,161.9228520000006,107.05126999999993,85.89746099999957,102.94873000000007,116.9228520000006,94.74365200000011,116.15380900000036,73.9741210000002,100.89746099999957,-353.46142599999985,100.51269500000035
97,93.84619099999964,155.38476599999922,104.10253900000043,159.10253900000043,96.41015599999992,86.15380900000036,96.9228520000006,111.79492200000004,93.58984400000008,98.7177729999994,70.76904300000024,97.30761700000039,-357.6923829999996,99.23095699999976
98,87.82031300000017,152.82031300000017,101.53857400000015,157.05126999999993,95.38476599999922,89.10253900000043,96.9228520000006,107.69238299999961,96.0258789999998,79.23095699999976,69.23095699999976,95.12841800000024,-361.66674799999964,96.15380900000036
99,87.17968800000017,151.15380900000036,102.94873000000007,158.58984400000008,104.10253900000043,91.9228520000006,102.82031300000017,106.79492200000004,100.51269500000035,71.6665039999998,69.87158199999976,95.76904300000024,-363.97436500000003,97.05126999999993
100,92.43603499999972,150.89746099999957,109.10253900000043,165.0,115.89746099999957,93.58984400000008,112.05126999999993,110.12841800000024,103.46142599999985,79.23095699999976,71.9228520000006,99.35888699999941,-363.71801800000003,102.30761700000039
101,100.25634799999989,151.41015599999992,117.05126999999993,174.48730499999965,123.7177729999994,95.38476599999922,120.51269500000035,116.41015599999992,101.41015599999992,92.82031300000017,74.10253900000043,104.35888699999941,-361.41015600000037,105.38476599999922
102,104.61523400000078,150.0,122.05126999999993,181.15380900000036,124.23095699999976,97.43603499999972,123.3334960000002,121.79492200000004,93.84619099999964,98.9741210000002,75.0,107.43603499999972,-359.61547900000005,102.94873000000007
103,100.89746099999957,143.3334960000002,120.64111300000059,179.87158199999976,118.0771479999994,97.17968800000017,117.94873000000007,122.17968800000017,83.46142599999985,91.53857400000015,73.3334960000002,105.38476599999922,-361.53857400000015,99.87158199999976
104,90.51269500000035,132.3076170000004,112.94873000000007,169.7436520000001,109.10253900000043,92.05126999999993,106.2822270000006,117.30761700000039,75.38476599999922,76.15380900000036,69.48730499999965,98.3334960000002,-368.33325200000036,100.12841800000024
105,79.74365200000011,121.6665039999998,103.46142599999985,155.6411130000006,102.69238299999961,83.3334960000002,94.87158199999976,111.15380900000036,73.7177729999994,64.48730499999965,65.51269500000035,89.74365200000011,-376.66674799999964,100.38476599999922
106,74.74365200000011,116.79492200000004,97.43603499999972,144.3588869999994,103.84619099999964,76.41015599999992,91.15380900000036,108.58984400000008,78.46142599999985,64.10253900000043,64.35888699999941,84.74365200000011,-381.66674799999964,97.56396500000028
107,77.56396500000028,118.9741210000002,97.43603499999972,140.38476599999922,112.69238299999961,77.30761700000039,97.69238299999961,112.05126999999993,86.79492200000004,74.23095699999976,67.43603499999972,86.2822270000006,-379.4870609999998,95.76904300000024
108,85.25634799999989,124.35888699999941,101.6665039999998,143.9741210000002,125.25634799999989,87.30761700000039,110.51269500000035,119.10253900000043,95.12841800000024,89.87158199999976,73.7177729999994,92.69238299999961,-371.02563499999997,98.9741210000002
109,92.56396500000028,128.46142599999985,106.79492200000004,152.17968800000017,137.05126999999993,101.15380900000036,122.43603499999972,124.87158199999976,100.76904300000024,105.38476599999922,81.0258789999998,100.12841800000024,-360.0,102.82031300000017
110,96.15380900000036,128.9741210000002,110.25634799999989,160.89746099999957,144.61523400000078,110.38476599999922,127.56396500000028,126.2822270000006,103.0771479999994,116.15380900000036,86.79492200000004,105.0,-350.1281740000004,101.2822270000006
111,95.38476599999922,126.41015599999992,111.41015599999992,166.53857400000015,144.61523400000078,108.9741210000002,124.35888699999941,123.58984400000008,102.05126999999993,118.7177729999994,89.35888699999941,105.89746099999957,-344.102539,97.17968800000017
112,92.05126999999993,122.17968800000017,110.51269500000035,167.56396500000028,135.51269500000035,98.58984400000008,116.2822270000006,119.35888699999941,99.23095699999976,112.56396500000028,88.46142599999985,103.84619099999964,-342.9487299999996,96.9228520000006
113,88.58984400000008,117.43603499999972,108.3334960000002,165.0,120.0,86.79492200000004,109.23095699999976,116.0258789999998,96.53857400000015,101.53857400000015,85.76904300000024,100.89746099999957,-345.2563479999999,99.87158199999976
114,87.05126999999993,113.3334960000002,106.79492200000004,161.6665039999998,106.0258789999998,81.41015599999992,108.3334960000002,114.87158199999976,96.41015599999992,93.20507799999996,83.9741210000002,99.10253900000043,-347.820557,99.87158199999976
115,88.0771479999994,110.64111300000059,106.79492200000004,159.61523400000078,101.41015599999992,84.61523400000078,113.9741210000002,115.51269500000035,98.84619099999964,92.05126999999993,85.38476599999922,99.61523400000078,-347.820557,96.2822270000006
116,89.87158199999976,109.35888699999941,107.94873000000007,158.7177729999994,107.69238299999961,91.41015599999992,121.41015599999992,117.30761700000039,101.15380900000036,95.64111300000059,89.35888699999941,101.53857400000015,-345.5129390000002,94.87158199999976
117,89.48730499999965,107.69238299999961,108.46142599999985,158.20507799999996,117.43603499999972,95.12841800000024,124.10253900000043,119.23095699999976,99.35888699999941,95.64111300000059,92.30761700000039,103.0771479999994,-343.58984399999963,96.79492200000004
118,85.12841800000024,103.7177729999994,106.79492200000004,157.82031300000017,120.76904300000024,92.94873000000007,119.10253900000043,120.76904300000024,93.58984400000008,86.79492200000004,91.15380900000036,102.17968800000017,-344.7436520000001,96.79492200000004
119,78.84619099999964,96.9228520000006,103.20507799999996,157.56396500000028,113.7177729999994,87.56396500000028,109.10253900000043,122.05126999999993,87.56396500000028,73.7177729999994,86.15380900000036,99.23095699999976,-348.97436500000003,93.7177729999994
120,74.87158199999976,89.74365200000011,100.0,156.9228520000006,101.9228520000006,84.48730499999965,100.51269500000035,122.82031300000017,86.79492200000004,68.58984400000008,81.6665039999998,96.6665039999998,-352.179443,93.46142599999985
121,76.79492200000004,86.53857400000015,99.48730499999965,156.0258789999998,95.64111300000059,87.56396500000028,99.10253900000043,122.56396500000028,92.69238299999961,80.76904300000024,82.82031300000017,97.05126999999993,-350.2563479999999,98.20507799999996
122,84.61523400000078,89.74365200000011,102.17968800000017,156.15380900000036,100.25634799999989,95.0,106.0258789999998,121.15380900000036,101.6665039999998,107.30761700000039,90.64111300000059,100.64111300000059,-342.3076170000004,102.05126999999993
123,93.84619099999964,97.17968800000017,106.6665039999998,158.0771479999994,112.05126999999993,101.41015599999992,116.6665039999998,118.84619099999964,107.94873000000007,133.7177729999994,99.87158199999976,105.0,-332.5642090000006,100.51269500000035
124,98.46142599999985,102.82031300000017,109.35888699999941,160.89746099999957,121.9228520000006,101.53857400000015,123.46142599999985,116.9228520000006,107.56396500000028,144.48730499999965,103.58984400000008,107.05126999999993,-327.6923829999996,97.82031300000017
125,95.38476599999922,102.05126999999993,107.94873000000007,161.53857400000015,124.74365200000011,96.15380900000036,121.41015599999992,115.76904300000024,101.0258789999998,134.10253900000043,99.48730499999965,105.51269500000035,-330.64111300000013,98.9741210000002
126,88.0771479999994,95.25634799999989,103.58984400000008,159.23095699999976,122.82031300000017,91.9228520000006,111.6665039999998,114.74365200000011,92.94873000000007,111.0258789999998,91.41015599999992,101.79492200000004,-337.820557,101.41015599999992
127,82.69238299999961,87.43603499999972,100.12841800000024,155.89746099999957,122.69238299999961,94.35888699999941,101.15380900000036,113.9741210000002,88.46142599999985,91.15380900000036,86.41015599999992,99.23095699999976,-341.66674799999964,100.25634799999989
128,83.46142599999985,82.94873000000007,100.76904300000024,155.12841800000024,126.15380900000036,102.05126999999993,96.9228520000006,114.10253900000043,90.12841800000024,86.15380900000036,88.3334960000002,100.38476599999922,-337.820557,97.94873000000007
129,89.10253900000043,82.56396500000028,104.48730499999965,157.82031300000017,128.3334960000002,108.0771479999994,100.76904300000024,115.25634799999989,95.51269500000035,96.6665039999998,94.61523400000078,104.48730499999965,-328.84619099999964,99.35888699999941
130,94.87158199999976,83.3334960000002,107.69238299999961,161.53857400000015,121.9228520000006,106.41015599999992,108.20507799999996,116.6665039999998,99.35888699999941,112.05126999999993,99.23095699999976,108.20507799999996,-321.15380900000036,102.69238299999961
131,97.17968800000017,82.56396500000028,107.82031300000017,162.6923829999996,106.15380900000036,98.46142599999985,113.46142599999985,117.56396500000028,98.58984400000008,118.9741210000002,97.82031300000017,108.3334960000002,-319.2307130000004,102.05126999999993
132,95.89746099999957,80.51269500000035,105.64111300000059,160.2563479999999,89.48730499999965,91.41015599999992,113.46142599999985,117.56396500000028,94.74365200000011,112.17968800000017,91.79492200000004,105.64111300000059,-322.179443,98.0771479999994
133,93.84619099999964,78.46142599999985,103.7177729999994,156.41015599999992,82.30761700000039,91.2822270000006,109.23095699999976,116.9228520000006,91.15380900000036,96.2822270000006,86.9228520000006,103.20507799999996,-325.5129390000002,96.79492200000004
134,92.56396500000028,76.9228520000006,103.0771479999994,153.7177729999994,87.69238299999961,96.9228520000006,102.82031300000017,115.12841800000024,89.35888699999941,80.51269500000035,87.56396500000028,103.20507799999996,-326.15380900000036,99.10253900000043
135,91.0258789999998,74.23095699999976,101.6665039999998,152.43603499999972,98.7177729999994,101.0258789999998,95.89746099999957,111.79492200000004,87.56396500000028,72.43603499999972,93.0771479999994,103.7177729999994,-325.64111300000013,99.48730499999965
136,88.3334960000002,69.35888699999941,97.56396500000028,151.2822270000006,106.2822270000006,96.6665039999998,90.38476599999922,107.56396500000028,84.61523400000078,75.12841800000024,98.58984400000008,102.30761700000039,-327.179443,96.6665039999998
137,86.0258789999998,64.23095699999976,92.56396500000028,150.51269500000035,108.3334960000002,83.9741210000002,89.23095699999976,103.9741210000002,82.43603499999972,88.3334960000002,100.64111300000059,99.74365200000011,-330.897461,95.76904300000024
138,87.56396500000028,62.17968800000017,90.38476599999922,151.53857400000015,109.35888699999941,70.38476599999922,93.9741210000002,103.46142599999985,84.10253900000043,107.69238299999961,100.12841800000024,99.10253900000043,-332.0512700000004,98.9741210000002
139,92.82031300000017,64.35888699999941,93.0771479999994,154.7436520000001,113.58984400000008,63.20507799999996,101.9228520000006,106.41015599999992,89.23095699999976,123.9741210000002,99.23095699999976,102.05126999999993,-327.6923829999996,101.15380900000036
140,97.69238299999961,67.43603499999972,99.10253900000043,158.7177729999994,118.3334960000002,63.46142599999985,107.17968800000017,110.76904300000024,93.84619099999964,127.56396500000028,98.0771479999994,106.0258789999998,-319.7436520000001,99.23095699999976
141,97.82031300000017,67.30761700000039,104.87158199999976,162.3076170000004,117.94873000000007,66.6665039999998,105.89746099999957,113.46142599999985,94.61523400000078,115.51269500000035,95.0,107.69238299999961,-314.102539,97.69238299999961
142,93.46142599999985,63.974121000000196,108.0771479999994,165.51269500000035,111.0258789999998,68.20507799999996,100.76904300000024,113.46142599999985,91.41015599999992,95.51269500000035,89.87158199999976,106.41015599999992,-313.71801800000003,100.25634799999989
143,89.35888699999941,61.410155999999915,109.35888699999941,169.10253900000043,102.69238299999961,68.0771479999994,98.20507799999996,112.82031300000017,87.43603499999972,80.12841800000024,85.89746099999957,104.61523400000078,-315.5129390000002,102.82031300000017
144,89.87158199999976,63.7177729999994,110.64111300000059,172.43603499999972,98.0771479999994,68.3334960000002,102.30761700000039,113.7177729999994,85.76904300000024,77.82031300000017,86.79492200000004,105.64111300000059,-314.4870609999998,100.89746099999957
145,94.87158199999976,69.48730499999965,112.69238299999961,173.9741210000002,98.0771479999994,70.25634799999989,111.0258789999998,116.6665039999998,87.30761700000039,87.30761700000039,92.94873000000007,109.35888699999941,-308.58984399999963,98.0771479999994
146,100.25634799999989,73.46142599999985,114.23095699999976,171.9228520000006,98.84619099999964,71.9228520000006,117.56396500000028,118.84619099999964,90.64111300000059,99.48730499999965,100.51269500000035,112.82031300000017,-301.53857400000015,99.10253900000043
147,101.2822270000006,70.64111300000059,112.82031300000017,165.89746099999957,96.2822270000006,71.79492200000004,116.0258789999998,117.82031300000017,93.58984400000008,104.74365200000011,104.61523400000078,111.53857400000015,-298.84619099999964,101.41015599999992
148,95.89746099999957,61.025878999999804,107.56396500000028,157.17968800000017,90.64111300000059,70.38476599999922,105.89746099999957,113.46142599999985,94.23095699999976,100.64111300000059,102.30761700000039,104.61523400000078,-303.076904,99.35888699999941
149,87.30761700000039,50.12841800000024,100.51269500000035,148.9741210000002,87.43603499999972,70.38476599999922,92.82031300000017,107.94873000000007,92.94873000000007,93.0771479999994,95.25634799999989,95.38476599999922,-311.15380900000036,95.12841800000024
150,80.76904300000024,43.7177729999994,95.51269500000035,145.51269500000035,92.56396500000028,73.3334960000002,85.12841800000024,104.23095699999976,91.2822270000006,89.61523400000078,87.43603499999972,90.0,-316.53857400000015,95.0
151,80.12841800000024,44.102539000000434,95.64111300000059,148.58984400000008,106.6665039999998,78.0771479999994,87.69238299999961,104.10253900000043,90.51269500000035,92.94873000000007,83.46142599999985,92.05126999999993,-314.4870609999998,98.46142599999985
152,84.61523400000078,48.7177729999994,100.25634799999989,156.2822270000006,121.79492200000004,81.41015599999992,98.7177729999994,107.43603499999972,90.0,98.9741210000002,84.48730499999965,99.61523400000078,-305.7692869999996,99.35888699999941
153,90.12841800000024,52.69238299999961,105.64111300000059,163.58984400000008,128.3334960000002,81.0258789999998,110.89746099999957,111.53857400000015,88.20507799999996,101.79492200000004,88.84619099999964,107.30761700000039,-295.64111300000013,97.05126999999993
154,93.0771479999994,53.846190999999635,108.20507799999996,166.79492200000004,122.30761700000039,78.20507799999996,117.82031300000017,114.35888699999941,85.64111300000059,99.23095699999976,93.58984400000008,110.64111300000059,-289.2307130000004,96.79492200000004
155,93.7177729999994,53.846190999999635,107.56396500000028,165.89746099999957,109.48730499999965,76.2822270000006,118.20507799999996,115.89746099999957,84.23095699999976,92.94873000000007,97.05126999999993,109.48730499999965,-287.5642090000006,99.61523400000078
156,93.9741210000002,55.51269500000035,106.0258789999998,163.46142599999985,98.0771479999994,77.56396500000028,115.76904300000024,118.0771479999994,85.89746099999957,86.0258789999998,98.84619099999964,106.53857400000015,-288.46142599999985,99.74365200000011
157,94.35888699999941,57.56396500000028,104.74365200000011,161.0258789999998,90.25634799999989,80.12841800000024,113.7177729999994,121.15380900000036,89.74365200000011,81.2822270000006,98.46142599999985,103.9741210000002,-289.8718259999996,95.51269500000035
158,92.69238299999961,55.0,102.05126999999993,158.20507799999996,82.94873000000007,79.48730499999965,112.30761700000039,122.56396500000028,92.82031300000017,80.76904300000024,95.0,101.15380900000036,-292.3076170000004,93.3334960000002
159,86.9228520000006,45.12841800000024,96.6665039999998,153.20507799999996,74.48730499999965,73.46142599999985,109.48730499999965,119.74365200000011,92.17968800000017,85.0,89.23095699999976,96.53857400000015,-296.02563499999997,96.9228520000006
160,79.87158199999976,32.30761700000039,90.25634799999989,146.9228520000006,69.48730499999965,64.74365200000011,105.38476599999922,113.0771479999994,88.0771479999994,92.56396500000028,84.23095699999976,90.76904300000024,-299.2307130000004,101.2822270000006
161,76.79492200000004,25.51269500000035,86.9228520000006,142.43603499999972,75.64111300000059,59.48730499999965,101.79492200000004,105.64111300000059,82.69238299999961,98.9741210000002,84.10253900000043,87.17968800000017,-297.9487299999996,100.64111300000059
162,80.89746099999957,30.384765999999217,89.74365200000011,142.6923829999996,93.84619099999964,61.2822270000006,100.38476599999922,100.89746099999957,78.46142599999985,99.48730499999965,89.35888699999941,89.23095699999976,-290.2563479999999,98.58984400000008
163,89.74365200000011,43.7177729999994,96.9228520000006,147.43603499999972,115.51269500000035,68.7177729999994,100.25634799999989,100.12841800000024,76.79492200000004,91.2822270000006,96.79492200000004,96.79492200000004,-279.8718259999996,100.12841800000024
164,98.0771479999994,55.51269500000035,103.58984400000008,154.23095699999976,128.58984400000008,77.17968800000017,99.74365200000011,102.17968800000017,77.56396500000028,76.9228520000006,101.0258789999998,105.64111300000059,-272.4357909999994,102.56396500000028
165,102.30761700000039,58.333496000000196,105.89746099999957,160.6411130000006,127.94873000000007,82.69238299999961,98.58984400000008,104.61523400000078,80.12841800000024,65.25634799999989,99.74365200000011,110.76904300000024,-270.7692869999996,100.89746099999957
166,101.9228520000006,51.79492200000004,103.7177729999994,163.84619099999964,117.69238299999961,83.0771479999994,98.20507799999996,105.12841800000024,83.84619099999964,65.51269500000035,95.51269500000035,110.38476599999922,-273.33325200000036,97.56396500000028
167,99.23095699999976,41.2822270000006,100.0,162.6923829999996,107.30761700000039,79.10253900000043,99.35888699999941,102.94873000000007,86.9228520000006,79.87158199999976,92.56396500000028,106.15380900000036,-276.28198199999997,98.58984400000008
168,97.05126999999993,32.94873000000007,98.20507799999996,159.10253900000043,103.46142599999985,73.46142599999985,100.51269500000035,99.48730499999965,86.79492200000004,98.9741210000002,93.20507799999996,101.41015599999992,-276.79492200000004,102.56396500000028
169,97.94873000000007,30.51269500000035,100.51269500000035,158.0771479999994,106.53857400000015,69.61523400000078,101.0258789999998,98.20507799999996,83.7177729999994,109.23095699999976,97.17968800000017,99.87158199999976,-273.84619099999964,103.0771479999994
170,102.05126999999993,33.46142599999985,106.0258789999998,162.56396500000028,110.25634799999989,69.48730499999965,102.17968800000017,100.64111300000059,80.0,104.35888699999941,101.79492200000004,103.3334960000002,-269.4870609999998,99.35888699999941
171,106.41015599999992,37.43603499999972,111.41015599999992,169.10253900000043,107.17968800000017,72.82031300000017,105.25634799999989,104.48730499999965,77.82031300000017,89.87158199999976,103.58984400000008,109.61523400000078,-266.923096,97.43603499999972
172,106.15380900000036,38.589844000000085,111.79492200000004,170.76904300000024,96.2822270000006,76.9228520000006,109.48730499999965,104.74365200000011,76.53857400000015,76.9228520000006,99.61523400000078,113.0771479999994,-269.61547900000005,98.7177729999994
173,99.87158199999976,35.64111300000059,105.64111300000059,163.3334960000002,85.12841800000024,79.74365200000011,112.30761700000039,98.46142599999985,73.46142599999985,72.94873000000007,90.12841800000024,109.23095699999976,-276.923096,98.3334960000002
174,90.89746099999957,30.897460999999566,96.9228520000006,150.0,84.74365200000011,80.76904300000024,111.9228520000006,88.84619099999964,68.7177729999994,77.30761700000039,80.25634799999989,99.74365200000011,-284.35888699999987,95.0
175,85.25634799999989,27.94873000000007,91.9228520000006,140.12841800000024,98.7177729999994,81.0258789999998,109.23095699999976,83.46142599999985,66.15380900000036,84.48730499999965,76.53857400000015,92.05126999999993,-286.53857400000015,94.35888699999941
176,86.2822270000006,28.461425999999847,93.84619099999964,140.76904300000024,118.46142599999985,80.89746099999957,106.15380900000036,87.43603499999972,69.61523400000078,89.61523400000078,81.9228520000006,92.56396500000028,-281.28198199999997,98.9741210000002
177,91.79492200000004,31.025878999999804,100.0,151.53857400000015,130.2563479999999,80.0,103.3334960000002,98.58984400000008,79.23095699999976,91.9228520000006,92.56396500000028,100.89746099999957,-271.02563499999997,102.69238299999961
178,96.6665039999998,33.46142599999985,104.35888699999941,164.87158199999976,126.2822270000006,78.3334960000002,100.89746099999957,109.61523400000078,90.89746099999957,95.12841800000024,101.79492200000004,110.25634799999989,-261.15380900000036,101.0258789999998
179,97.05126999999993,34.102539000000434,103.3334960000002,172.05126999999993,111.53857400000015,77.17968800000017,100.38476599999922,114.23095699999976,100.0,102.56396500000028,105.51269500000035,114.23095699999976,-255.38452099999995,98.20507799999996
180,94.23095699999976,33.7177729999994,98.58984400000008,170.38476599999922,98.84619099999964,78.9741210000002,103.84619099999964,112.17968800000017,103.9741210000002,112.82031300000017,104.35888699999941,112.05126999999993,-253.20507799999996,99.74365200000011
181,92.30761700000039,33.846190999999635,94.74365200000011,164.7436520000001,98.84619099999964,84.23095699999976,111.0258789999998,107.82031300000017,102.05126999999993,119.23095699999976,101.53857400000015,107.69238299999961,-251.66674799999964,102.30761700000039
182,94.10253900000043,34.61523400000078,94.61523400000078,161.41015599999992,110.0,89.10253900000043,118.46142599999985,105.89746099999957,96.15380900000036,116.2822270000006,99.74365200000011,105.25634799999989,-248.71801800000003,101.15380900000036
183,97.82031300000017,33.974121000000196,97.30761700000039,161.79492200000004,120.25634799999989,87.56396500000028,121.0258789999998,106.79492200000004,89.48730499999965,104.87158199999976,98.58984400000008,104.87158199999976,-246.28198199999997,98.46142599999985
184,99.23095699999976,31.025878999999804,99.23095699999976,162.6923829999996,117.82031300000017,77.05126999999993,116.6665039999998,107.30761700000039,85.38476599999922,92.82031300000017,96.79492200000004,104.61523400000078,-246.41015600000037,99.10253900000043
185,97.17968800000017,28.461425999999847,99.35888699999941,161.41015599999992,103.9741210000002,63.333496000000196,108.7177729999994,105.64111300000059,86.15380900000036,90.12841800000024,95.51269500000035,103.46142599999985,-247.6923829999996,101.53857400000015
186,95.89746099999957,29.871581999999762,99.87158199999976,159.3588869999994,91.9228520000006,56.9228520000006,103.84619099999964,104.10253900000043,92.82031300000017,101.2822270000006,97.69238299999961,103.7177729999994,-245.5129390000002,101.15380900000036
187,99.74365200000011,35.64111300000059,103.3334960000002,160.76904300000024,93.20507799999996,64.48730499999965,106.2822270000006,105.76904300000024,102.94873000000007,121.0258789999998,104.74365200000011,106.9228520000006,-237.3076170000004,99.35888699999941
188,107.82031300000017,41.2822270000006,109.10253900000043,166.2822270000006,107.05126999999993,80.76904300000024,114.10253900000043,110.25634799999989,111.0258789999998,136.2822270000006,113.20507799999996,111.53857400000015,-226.79492200000004,101.15380900000036
189,114.35888699999941,41.410155999999915,113.3334960000002,171.6665039999998,120.89746099999957,92.94873000000007,120.76904300000024,113.0771479999994,111.0258789999998,134.48730499999965,116.41015599999992,113.3334960000002,-220.76928699999962,105.38476599999922
190,113.3334960000002,35.0,112.30761700000039,170.76904300000024,123.84619099999964,90.89746099999957,120.0,110.12841800000024,101.0258789999998,114.48730499999965,110.38476599999922,109.10253900000043,-223.33325200000036,105.0
191,104.61523400000078,26.538574000000153,105.51269500000035,162.17968800000017,116.15380900000036,75.25634799999989,110.51269500000035,101.79492200000004,86.2822270000006,88.3334960000002,97.30761700000039,99.87158199999976,-231.923096,98.84619099999964
192,95.0,22.82031300000017,97.30761700000039,152.05126999999993,106.79492200000004,57.17968800000017,97.69238299999961,94.23095699999976,76.41015599999992,73.58984400000008,85.51269500000035,91.41015599999992,-238.97436500000003,93.84619099999964
193,92.17968800000017,27.94873000000007,93.58984400000008,149.61523400000078,105.0,48.46142599999985,90.0,93.46142599999985,78.0771479999994,78.46142599999985,83.58984400000008,89.48730499999965,-237.43579099999943,94.35888699999941
194,97.69238299999961,38.7177729999994,96.6665039999998,158.46142599999985,111.2822270000006,52.43603499999972,92.30761700000039,100.64111300000059,89.10253900000043,96.41015599999992,92.69238299999961,95.64111300000059,-226.66674799999964,96.2822270000006
195,105.76904300000024,45.76904300000024,103.20507799999996,172.56396500000028,118.0771479999994,62.30761700000039,101.0258789999998,109.74365200000011,100.0,112.43603499999972,105.76904300000024,104.48730499999965,-213.71801800000003,96.6665039999998
196,108.3334960000002,42.17968800000017,107.30761700000039,181.0258789999998,117.17968800000017,67.82031300000017,108.0771479999994,113.3334960000002,102.17968800000017,115.76904300000024,113.20507799999996,108.84619099999964,-207.0512700000004,98.84619099999964
197,103.0771479999994,29.102539000000434,105.76904300000024,177.43603499999972,106.9228520000006,64.61523400000078,107.69238299999961,108.9741210000002,94.87158199999976,108.20507799999996,110.64111300000059,105.64111300000059,-209.23071300000038,104.10253900000043
198,94.87158199999976,15.897460999999566,101.0258789999998,165.51269500000035,93.46142599999985,56.79492200000004,102.05126999999993,101.9228520000006,85.51269500000035,98.9741210000002,102.43603499999972,98.9741210000002,-215.2563479999999,107.05126999999993
199,91.2822270000006,11.410155999999915,98.58984400000008,155.12841800000024,84.74365200000011,51.79492200000004,98.0771479999994,99.61523400000078,82.94873000000007,95.38476599999922,96.0258789999998,95.64111300000059,-217.9487299999996,103.46142599999985
200,95.38476599999922,17.05126999999993,101.15380900000036,154.48730499999965,85.12841800000024,53.46142599999985,101.0258789999998,105.64111300000059,90.38476599999922,97.94873000000007,96.0258789999998,98.84619099999964,-215.5129390000002,98.3334960000002
201,103.58984400000008,26.538574000000153,106.6665039999998,162.82031300000017,93.0771479999994,60.12841800000024,110.12841800000024,116.41015599999992,103.0771479999994,102.94873000000007,101.2822270000006,105.51269500000035,-211.28198199999997,98.58984400000008
202,109.23095699999976,31.794922000000042,110.51269500000035,172.56396500000028,103.9741210000002,66.53857400000015,120.0,124.10253900000043,112.43603499999972,106.79492200000004,106.41015599999992,109.87158199999976,-210.2563479999999,102.56396500000028
203,107.69238299999961,30.0,109.48730499999965,175.51269500000035,113.84619099999964,68.20507799999996,124.35888699999941,122.43603499999972,113.20507799999996,108.3334960000002,106.9228520000006,108.58984400000008,-213.58984399999963,103.9741210000002
204,100.38476599999922,23.717772999999397,104.48730499999965,169.3588869999994,120.12841800000024,64.35888699999941,119.61523400000078,110.38476599999922,106.0258789999998,109.10253900000043,102.82031300000017,102.82031300000017,-218.076904,103.0771479999994
205,93.0771479999994,18.717772999999397,98.84619099999964,159.23095699999976,120.76904300000024,57.17968800000017,106.79492200000004,93.9741210000002,95.38476599999922,109.35888699999941,98.20507799999996,96.6665039999998,-219.61547900000005,104.10253900000043
206,90.76904300000024,18.333496000000196,95.64111300000059,152.6923829999996,115.12841800000024,50.0,91.15380900000036,81.79492200000004,85.89746099999957,106.53857400000015,96.9228520000006,93.3334960000002,-216.53857400000015,105.89746099999957
207,93.9741210000002,21.410155999999915,95.89746099999957,153.46142599999985,105.76904300000024,45.76904300000024,80.0,79.74365200000011,79.10253900000043,98.3334960000002,99.87158199999976,93.7177729999994,-210.76928699999962,103.58984400000008
208,98.7177729999994,24.358886999999413,98.58984400000008,160.0,98.0771479999994,45.51269500000035,78.20507799999996,87.56396500000028,75.89746099999957,88.84619099999964,105.12841800000024,97.43603499999972,-205.5129390000002,98.58984400000008
209,102.43603499999972,24.871581999999762,102.43603499999972,167.6923829999996,96.53857400000015,48.846190999999635,85.38476599999922,100.64111300000059,77.69238299999961,87.43603499999972,110.51269500000035,103.46142599999985,-202.0512700000004,97.94873000000007
210,104.48730499999965,23.205077999999958,105.89746099999957,172.05126999999993,98.9741210000002,53.333496000000196,96.41015599999992,112.05126999999993,85.25634799999989,98.46142599999985,114.61523400000078,110.12841800000024,-199.61547900000005,102.69238299999961
211,105.12841800000024,20.384765999999217,106.79492200000004,170.6411130000006,96.79492200000004,55.25634799999989,103.7177729999994,116.0258789999998,94.35888699999941,113.46142599999985,115.51269500000035,113.58984400000008,-198.076904,105.51269500000035
212,103.20507799999996,16.153809000000365,104.23095699999976,164.10253900000043,83.58984400000008,52.05126999999993,103.46142599999985,110.25634799999989,98.20507799999996,117.43603499999972,112.05126999999993,110.76904300000024,-198.58984399999963,102.69238299999961
213,98.84619099999964,11.282227000000603,100.0,156.15380900000036,64.23095699999976,45.51269500000035,96.79492200000004,99.23095699999976,93.0771479999994,104.87158199999976,105.51269500000035,103.3334960000002,-201.53857400000015,99.48730499999965
214,95.51269500000035,8.205077999999958,97.43603499999972,151.53857400000015,53.0771479999994,41.410155999999915,89.74365200000011,91.9228520000006,82.94873000000007,86.9228520000006,99.74365200000011,97.43603499999972,-204.35888699999987,100.76904300000024
215,96.9228520000006,9.487304999999651,99.10253900000043,153.3334960000002,60.897460999999566,44.23095699999976,88.0771479999994,95.51269500000035,77.30761700000039,81.6665039999998,98.7177729999994,98.20507799999996,-203.33325200000036,102.94873000000007
216,102.69238299999961,14.487304999999651,104.23095699999976,159.87158199999976,84.74365200000011,54.23095699999976,93.58984400000008,108.20507799999996,82.69238299999961,96.41015599999992,102.82031300000017,105.0,-197.6923829999996,101.79492200000004
217,107.82031300000017,18.717772999999397,109.35888699999941,166.15380900000036,110.38476599999922,66.53857400000015,102.43603499999972,120.64111300000059,96.41015599999992,119.87158199999976,108.9741210000002,112.82031300000017,-190.89746100000002,100.0
218,106.2822270000006,17.05126999999993,110.12841800000024,167.56396500000028,122.82031300000017,74.74365200000011,108.84619099999964,123.0771479999994,108.20507799999996,131.6665039999998,112.30761700000039,115.25634799999989,-187.3076170000004,101.6665039999998
219,97.43603499999972,8.974121000000196,104.87158199999976,163.7177729999994,117.43603499999972,74.61523400000078,108.7177729999994,113.0771479999994,107.94873000000007,121.53857400000015,109.74365200000011,109.48730499999965,-189.10253899999998,103.46142599999985
220,86.53857400000015,0.512695000000349,96.9228520000006,158.7177729999994,102.69238299999961,67.05126999999993,103.0771479999994,97.94873000000007,95.0,98.20507799999996,103.0771479999994,98.58984400000008,-194.35888699999987,101.0258789999998
221,82.05126999999993,-0.6411130000005869,92.05126999999993,157.3076170000004,92.56396500000028,58.0771479999994,96.53857400000015,88.3334960000002,79.35888699999941,82.56396500000028,97.43603499999972,90.38476599999922,-197.6923829999996,97.82031300000017
222,87.17968800000017,7.307617000000391,93.3334960000002,160.2563479999999,95.89746099999957,53.589844000000085,93.0771479999994,89.87158199999976,72.69238299999961,86.79492200000004,97.17968800000017,90.0,-195.64111300000013,100.12841800000024
223,97.05126999999993,18.205077999999958,97.05126999999993,163.3334960000002,107.56396500000028,54.87158199999976,93.20507799999996,98.20507799999996,77.82031300000017,103.20507799999996,101.0258789999998,95.51269500000035,-190.64111300000013,105.38476599999922
224,102.82031300000017,22.30761700000039,96.9228520000006,162.3076170000004,113.3334960000002,58.20507799999996,94.48730499999965,104.35888699999941,87.30761700000039,113.7177729999994,103.3334960000002,99.35888699999941,-188.20507799999996,105.76904300000024
225,99.35888699999941,16.153809000000365,91.41015599999992,157.43603499999972,103.0771479999994,59.61523400000078,95.12841800000024,101.79492200000004,91.9228520000006,108.0771479999994,101.15380900000036,96.9228520000006,-190.64111300000013,101.15380900000036
226,90.12841800000024,5.512695000000349,85.51269500000035,153.0771479999994,81.79492200000004,58.20507799999996,96.15380900000036,93.46142599999985,88.9741210000002,92.82031300000017,96.9228520000006,90.89746099999957,-194.10253899999998,98.7177729999994
227,83.20507799999996,-0.38476599999921746,85.38476599999922,153.7177729999994,66.15380900000036,56.410155999999915,98.7177729999994,88.3334960000002,83.46142599999985,82.69238299999961,96.0258789999998,88.0771479999994,-191.41015600000037,101.15380900000036
228,84.87158199999976,3.9741210000001956,92.56396500000028,159.61523400000078,68.58984400000008,56.9228520000006,101.79492200000004,93.0771479999994,82.69238299999961,86.6665039999998,101.2822270000006,93.0771479999994,-179.23071300000038,103.46142599999985
229,94.87158199999976,15.512695000000349,103.0771479999994,166.9228520000006,86.2822270000006,60.76904300000024,103.46142599999985,106.79492200000004,90.0,101.0258789999998,110.0,104.35888699999941,-161.53857400000015,102.94873000000007
230,106.41015599999992,26.282227000000603,110.25634799999989,170.51269500000035,105.12841800000024,66.6665039999998,103.20507799999996,120.64111300000059,101.53857400000015,113.84619099999964,117.30761700000039,115.38476599999922,-146.66674799999964,103.0771479999994
231,112.43603499999972,29.74365200000011,110.64111300000059,168.3334960000002,112.30761700000039,72.94873000000007,103.20507799999996,125.38476599999922,110.12841800000024,117.69238299999961,119.10253900000043,120.12841800000024,-141.02563499999997,105.89746099999957
232,109.74365200000011,25.0,105.12841800000024,162.82031300000017,107.30761700000039,78.84619099999964,105.51269500000035,118.84619099999964,110.51269500000035,114.10253900000043,114.87158199999976,116.2822270000006,-144.61547900000005,107.05126999999993
233,102.17968800000017,17.17968800000017,98.58984400000008,158.58984400000008,99.10253900000043,84.10253900000043,110.0,107.17968800000017,103.84619099999964,110.76904300000024,107.94873000000007,107.30761700000039,-151.66674799999964,104.10253900000043
234,95.12841800000024,11.025878999999804,95.12841800000024,157.56396500000028,96.53857400000015,87.56396500000028,112.94873000000007,98.84619099999964,95.25634799999989,110.89746099999957,101.9228520000006,98.7177729999994,-156.41015600000037,102.05126999999993
235,90.38476599999922,7.43603499999972,93.84619099999964,158.20507799999996,99.10253900000043,86.53857400000015,110.0,97.05126999999993,88.7177729999994,109.87158199999976,97.94873000000007,93.46142599999985,-157.56420900000057,104.10253900000043
236,86.2822270000006,3.9741210000001956,91.15380900000036,157.05126999999993,99.35888699999941,79.87158199999976,100.25634799999989,98.20507799999996,83.58984400000008,101.0258789999998,94.61523400000078,90.89746099999957,-157.6923829999996,105.76904300000024
237,82.05126999999993,-0.38476599999921746,85.89746099999957,153.20507799999996,91.79492200000004,69.87158199999976,88.3334960000002,98.3334960000002,79.10253900000043,86.15380900000036,91.15380900000036,89.61523400000078,-158.71801800000003,102.43603499999972
238,80.12841800000024,-2.6923829999996087,81.2822270000006,150.12841800000024,79.10253900000043,61.9228520000006,81.53857400000015,97.30761700000039,77.69238299999961,76.9228520000006,89.87158199999976,89.74365200000011,-158.84619099999964,98.46142599999985
239,83.0771479999994,0.8974609999995664,81.9228520000006,151.53857400000015,71.15380900000036,61.025878999999804,83.9741210000002,98.46142599999985,83.3334960000002,84.10253900000043,92.43603499999972,92.05126999999993,-155.64111300000013,100.25634799999989
240,89.74365200000011,9.743652000000111,87.69238299999961,157.56396500000028,75.76904300000024,67.82031300000017,92.82031300000017,103.58984400000008,95.64111300000059,105.51269500000035,98.0771479999994,95.51269500000035,-149.23071300000038,105.12841800000024
241,95.12841800000024,18.461425999999847,93.84619099999964,163.84619099999964,91.6665039999998,77.43603499999972,101.41015599999992,109.74365200000011,108.20507799999996,127.05126999999993,102.43603499999972,97.69238299999961,-142.43579099999943,105.76904300000024
242,95.25634799999989,21.538574000000153,95.64111300000059,165.89746099999957,108.0771479999994,83.46142599999985,105.38476599999922,112.30761700000039,113.46142599999985,134.61523400000078,102.69238299999961,97.17968800000017,-139.23071300000038,101.6665039999998
243,90.76904300000024,18.589844000000085,92.82031300000017,163.20507799999996,113.7177729999994,82.94873000000007,105.51269500000035,109.48730499999965,109.23095699999976,126.15380900000036,100.25634799999989,95.64111300000059,-139.8718259999996,99.10253900000043
244,87.17968800000017,14.871581999999762,90.25634799999989,159.7436520000001,107.05126999999993,78.84619099999964,105.64111300000059,103.9741210000002,100.38476599999922,112.82031300000017,100.25634799999989,96.41015599999992,-140.76928699999962,99.74365200000011
245,89.35888699999941,16.538574000000153,92.05126999999993,159.48730499999965,97.30761700000039,77.69238299999961,107.17968800000017,99.23095699999976,93.58984400000008,106.6665039999998,104.87158199999976,100.89746099999957,-138.076904,99.48730499999965
246,96.79492200000004,23.205077999999958,97.30761700000039,161.41015599999992,94.48730499999965,82.17968800000017,107.82031300000017,96.79492200000004,90.89746099999957,109.35888699999941,110.51269500000035,105.89746099999957,-132.6923829999996,97.69238299999961
247,102.43603499999972,28.205077999999958,100.12841800000024,161.41015599999992,100.25634799999989,88.20507799999996,103.46142599999985,94.35888699999941,89.10253900000043,111.41015599999992,110.12841800000024,105.76904300000024,-130.1281740000004,98.20507799999996
248,99.61523400000078,25.25634799999989,95.76904300000024,157.05126999999993,106.79492200000004,90.0,94.23095699999976,90.0,84.35888699999941,102.43603499999972,100.38476599999922,98.3334960000002,-135.38452099999995,101.0258789999998
249,88.0771479999994,14.358886999999413,86.15380900000036,150.12841800000024,105.76904300000024,85.89746099999957,84.61523400000078,84.35888699999941,76.0258789999998,81.79492200000004,85.64111300000059,87.05126999999993,-147.6923829999996,100.0
250,73.58984400000008,2.0512699999999313,77.30761700000039,144.48730499999965,95.64111300000059,80.12841800000024,79.48730499999965,80.12841800000024,67.30761700000039,60.38476599999922,75.0,78.46142599999985,-160.2563479999999,94.35888699999941
251,64.10253900000043,-4.743652000000111,74.74365200000011,142.6923829999996,82.43603499999972,78.84619099999964,80.12841800000024,78.9741210000002,63.589844000000085,52.69238299999961,74.48730499999965,77.43603499999972,-165.38452099999995,91.2822270000006
252,64.23095699999976,-3.2050779999999577,79.35888699999941,144.23095699999976,73.84619099999964,85.89746099999957,84.10253900000043,81.15380900000036,68.20507799999996,66.15380900000036,83.46142599999985,84.23095699999976,-159.35888699999987,95.25634799999989
253,73.7177729999994,5.128418000000238,88.0771479999994,147.82031300000017,74.87158199999976,100.64111300000059,88.58984400000008,86.0258789999998,80.89746099999957,95.51269500000035,95.89746099999957,94.74365200000011,-144.23071300000038,101.0258789999998
254,88.0771479999994,16.025878999999804,96.6665039999998,152.6923829999996,85.38476599999922,118.9741210000002,93.7177729999994,93.46142599999985,97.69238299999961,126.9228520000006,106.9228520000006,104.48730499999965,-125.38452099999995,102.30761700000039
255,101.41015599999992,25.897460999999566,102.82031300000017,158.58984400000008,100.0,135.12841800000024,100.76904300000024,102.69238299999961,111.6665039999998,146.6665039999998,114.61523400000078,111.0258789999998,-109.10253899999998,101.2822270000006
256,108.84619099999964,32.43603499999972,105.89746099999957,164.23095699999976,111.79492200000004,144.7436520000001,108.9741210000002,111.53857400000015,117.05126999999993,148.20507799999996,119.35888699999941,114.23095699999976,-99.61547900000005,102.82031300000017
257,109.35888699999941,35.25634799999989,106.9228520000006,166.9228520000006,115.76904300000024,147.82031300000017,114.48730499999965,116.6665039999998,111.79492200000004,134.48730499999965,121.15380900000036,114.48730499999965,-97.69238299999961,105.38476599999922
258,105.0,35.38476599999922,106.53857400000015,164.61523400000078,110.89746099999957,146.9228520000006,113.20507799999996,115.25634799999989,100.51269500000035,115.25634799999989,118.58984400000008,111.9228520000006,-100.64111300000013,104.35888699999941
259,97.94873000000007,32.82031300000017,103.9741210000002,157.05126999999993,100.51269500000035,144.87158199999976,104.48730499999965,107.17968800000017,90.12841800000024,100.89746099999957,110.38476599999922,107.43603499999972,-105.76928699999962,101.6665039999998
260,90.0,27.17968800000017,98.0771479999994,146.6665039999998,89.35888699999941,142.43603499999972,92.94873000000007,96.15380900000036,85.38476599999922,94.74365200000011,98.0771479999994,101.9228520000006,-111.41015600000037,102.43603499999972
261,82.94873000000007,19.48730499999965,90.38476599999922,137.43603499999972,83.0771479999994,139.48730499999965,85.76904300000024,87.56396500000028,86.6665039999998,91.9228520000006,86.6665039999998,96.6665039999998,-116.41015600000037,105.12841800000024
262,79.35888699999941,12.82031300000017,84.10253900000043,133.0771479999994,84.48730499999965,137.3076170000004,87.05126999999993,85.51269500000035,90.25634799999989,86.41015599999992,82.05126999999993,93.58984400000008,-119.61547900000005,103.7177729999994
263,80.25634799999989,10.256347999999889,82.05126999999993,134.23095699999976,91.53857400000015,137.56396500000028,94.74365200000011,89.48730499999965,92.17968800000017,78.84619099999964,86.0258789999998,93.7177729999994,-120.0,98.7177729999994
264,82.94873000000007,11.666503999999804,83.58984400000008,138.7177729999994,97.17968800000017,140.12841800000024,101.41015599999992,94.48730499999965,89.74365200000011,75.76904300000024,93.9741210000002,95.51269500000035,-119.35888699999987,96.79492200000004
265,83.58984400000008,13.846190999999635,85.25634799999989,142.17968800000017,94.23095699999976,142.56396500000028,101.15380900000036,95.51269500000035,83.84619099999964,82.56396500000028,98.3334960000002,95.64111300000059,-120.89746100000002,99.10253900000043
266,80.64111300000059,14.102539000000434,85.38476599999922,142.56396500000028,83.20507799999996,142.56396500000028,94.35888699999941,91.6665039999998,78.7177729999994,98.58984400000008,94.87158199999976,92.17968800000017,-124.61547900000005,100.0
267,77.43603499999972,13.205077999999958,85.38476599999922,141.79492200000004,73.58984400000008,140.2563479999999,87.94873000000007,88.0771479999994,80.38476599999922,117.43603499999972,87.17968800000017,88.0771479999994,-125.64111300000013,97.43603499999972
268,79.87158199999976,15.641113000000587,88.9741210000002,143.58984400000008,77.05126999999993,138.3334960000002,88.9741210000002,90.76904300000024,91.0258789999998,132.05126999999993,83.9741210000002,89.61523400000078,-118.46142599999985,96.6665039999998
269,90.12841800000024,24.871581999999762,97.30761700000039,148.84619099999964,95.51269500000035,139.87158199999976,98.3334960000002,101.15380900000036,105.64111300000059,137.56396500000028,90.64111300000059,99.61523400000078,-102.56420900000057,100.64111300000059
270,103.9741210000002,38.20507799999996,106.79492200000004,153.9741210000002,117.17968800000017,144.61523400000078,109.74365200000011,113.58984400000008,114.48730499999965,131.9228520000006,103.58984400000008,113.20507799999996,-85.76928699999962,103.9741210000002
271,111.9228520000006,46.666503999999804,110.51269500000035,153.58984400000008,124.74365200000011,149.10253900000043,114.35888699999941,118.9741210000002,111.0258789999998,116.53857400000015,112.30761700000039,120.64111300000059,-79.61547900000005,101.9228520000006
272,107.43603499999972,42.94873000000007,104.23095699999976,145.89746099999957,109.87158199999976,149.87158199999976,108.0771479999994,112.43603499999972,97.05126999999993,96.6665039999998,107.82031300000017,115.76904300000024,-90.38452099999995,98.46142599999985
273,92.82031300000017,28.717772999999397,90.76904300000024,135.38476599999922,81.79492200000004,146.53857400000015,94.35888699999941,97.43603499999972,81.6665039999998,80.0,91.2822270000006,101.15380900000036,-111.53857400000015,98.9741210000002
274,79.61523400000078,15.384765999999217,79.35888699999941,131.0258789999998,61.53857400000015,142.6923829999996,82.43603499999972,83.3334960000002,74.23095699999976,73.0771479999994,73.9741210000002,87.43603499999972,-127.43579099999943,101.53857400000015
275,78.9741210000002,14.230956999999762,78.58984400000008,138.20507799999996,64.61523400000078,141.9228520000006,80.38476599999922,79.23095699999976,78.20507799999996,77.05126999999993,68.0771479999994,85.12841800000024,-124.74365200000011,101.9228520000006
276,91.79492200000004,25.897460999999566,89.61523400000078,152.43603499999972,87.30761700000039,145.0,88.7177729999994,86.53857400000015,89.35888699999941,88.0771479999994,76.79492200000004,95.76904300000024,-104.61547900000005,101.79492200000004
277,107.82031300000017,39.87158199999976,103.9741210000002,162.94873000000007,110.76904300000024,148.7177729999994,100.51269500000035,99.23095699999976,99.87158199999976,100.38476599999922,92.43603499999972,110.38476599999922,-81.15380900000036,105.38476599999922
278,113.9741210000002,44.35888699999941,110.51269500000035,161.53857400000015,116.79492200000004,149.87158199999976,107.43603499999972,108.3334960000002,103.9741210000002,109.87158199999976,102.69238299999961,117.05126999999993,-70.25634799999989,109.23095699999976
279,105.64111300000059,35.897460999999566,104.23095699999976,148.20507799999996,102.30761700000039,147.05126999999993,106.41015599999992,108.46142599999985,100.89746099999957,114.74365200000011,100.64111300000059,111.0258789999998,-77.43579099999943,106.6665039999998
280,90.25634799999989,22.17968800000017,90.89746099999957,132.3076170000004,81.6665039999998,142.6923829999996,101.6665039999998,100.89746099999957,94.74365200000011,115.38476599999922,90.0,98.3334960000002,-94.23071300000038,99.23095699999976
281,81.41015599999992,15.256347999999889,81.53857400000015,125.12841800000024,74.10253900000043,141.6665039999998,100.12841800000024,92.94873000000007,91.15380900000036,113.7177729999994,81.79492200000004,91.0258789999998,-104.61547900000005,95.25634799999989
282,87.17968800000017,22.17968800000017,84.23095699999976,131.79492200000004,87.17968800000017,147.43603499999972,104.87158199999976,92.69238299999961,93.3334960000002,112.17968800000017,84.48730499999965,96.53857400000015,-98.58984399999963,97.43603499999972
283,103.58984400000008,38.20507799999996,97.05126999999993,147.3076170000004,109.74365200000011,158.3334960000002,112.43603499999972,102.43603499999972,100.25634799999989,112.82031300000017,97.30761700000039,111.79492200000004,-79.35888699999987,100.64111300000059
284,118.0771479999994,51.2822270000006,110.89746099999957,160.0,123.0771479999994,168.9741210000002,115.89746099999957,116.79492200000004,108.20507799999996,115.64111300000059,111.41015599999992,125.38476599999922,-60.1281740000004,101.41015599999992
285,120.25634799999989,51.410155999999915,116.41015599999992,161.53857400000015,116.9228520000006,174.61523400000078,112.43603499999972,126.53857400000015,112.94873000000007,119.10253900000043,117.43603499999972,127.82031300000017,-53.20507799999996,103.46142599999985
286,110.76904300000024,40.12841800000024,111.2822270000006,153.20507799999996,98.3334960000002,175.51269500000035,105.76904300000024,126.6665039999998,112.43603499999972,121.15380900000036,112.94873000000007,119.61523400000078,-59.23071300000038,107.43603499999972
287,98.84619099999964,28.589844000000085,101.2822270000006,144.10253900000043,83.20507799999996,175.6411130000006,102.30761700000039,119.48730499999965,108.0771479999994,119.48730499999965,103.46142599999985,109.87158199999976,-69.23071300000038,108.0771479999994
288,93.58984400000008,26.922852000000603,94.61523400000078,142.05126999999993,81.53857400000015,178.0771479999994,105.51269500000035,111.53857400000015,102.43603499999972,113.58984400000008,97.17968800000017,107.69238299999961,-73.58984399999963,103.20507799999996
289,97.05126999999993,35.38476599999922,95.38476599999922,146.53857400000015,90.12841800000024,181.53857400000015,113.0771479999994,108.20507799999996,97.82031300000017,106.15380900000036,97.56396500000028,113.7177729999994,-69.48706099999981,98.9741210000002
290,104.35888699999941,45.64111300000059,101.0258789999998,151.15380900000036,99.10253900000043,182.56396500000028,119.74365200000011,109.48730499999965,95.64111300000059,102.30761700000039,101.6665039999998,121.79492200000004,-61.153809000000365,101.2822270000006
291,109.74365200000011,50.0,106.9228520000006,151.15380900000036,103.84619099999964,180.38476599999922,122.30761700000039,113.0771479999994,96.79492200000004,105.51269500000035,105.0,126.0258789999998,-53.974365000000034,105.89746099999957
292,111.15380900000036,47.94873000000007,109.74365200000011,147.94873000000007,108.7177729999994,177.43603499999972,120.89746099999957,115.76904300000024,101.6665039999998,114.23095699999976,105.64111300000059,124.87158199999976,-50.25634799999989,106.41015599999992
293,109.35888699999941,43.846190999999635,109.23095699999976,145.0,117.56396500000028,175.2563479999999,117.43603499999972,115.76904300000024,108.3334960000002,122.56396500000028,104.74365200000011,120.89746099999957,-50.0,104.23095699999976
294,105.38476599999922,40.38476599999922,106.2822270000006,143.7177729999994,125.89746099999957,171.41015599999992,113.20507799999996,111.79492200000004,112.69238299999961,123.20507799999996,103.0771479999994,116.2822270000006,-53.33325200000036,104.23095699999976
295,100.25634799999989,37.69238299999961,101.79492200000004,143.0771479999994,124.35888699999941,162.82031300000017,108.3334960000002,104.87158199999976,111.15380900000036,113.3334960000002,100.38476599999922,111.6665039999998,-60.0,105.38476599999922
296,96.41015599999992,35.0,97.82031300000017,142.3076170000004,107.82031300000017,150.76904300000024,103.20507799999996,98.3334960000002,104.35888699999941,98.7177729999994,97.30761700000039,107.30761700000039,-67.05127000000039,103.3334960000002
297,96.9228520000006,33.333496000000196,96.41015599999992,142.3076170000004,82.43603499999972,141.0258789999998,99.23095699999976,96.0258789999998,97.43603499999972,89.87158199999976,96.15380900000036,105.25634799999989,-69.61547900000005,99.61523400000078
298,102.43603499999972,34.23095699999976,98.3334960000002,143.7177729999994,61.79492200000004,139.3588869999994,98.58984400000008,98.9741210000002,95.76904300000024,92.69238299999961,98.7177729999994,106.79492200000004,-63.974365000000034,100.12841800000024
299,110.25634799999989,38.20507799999996,101.79492200000004,145.51269500000035,59.35888699999941,147.43603499999972,102.82031300000017,104.48730499999965,100.64111300000059,103.58984400000008,104.61523400000078,111.0258789999998,-51.79492200000004,104.35888699999941
300,116.0258789999998,43.589844000000085,104.10253900000043,146.2822270000006,79.10253900000043,161.53857400000015,110.64111300000059,109.48730499999965,108.3334960000002,113.7177729999994,111.41015599999992,115.76904300000024,-38.46142599999985,106.0258789999998
301,117.17968800000017,48.333496000000196,104.10253900000043,145.6411130000006,112.05126999999993,175.12841800000024,118.7177729999994,111.53857400000015,113.9741210000002,119.10253900000043,116.15380900000036,119.23095699999976,-29.8718259999996,104.35888699999941
302,114.61523400000078,50.64111300000059,102.30761700000039,144.87158199999976,138.7177729999994,182.17968800000017,122.56396500000028,110.51269500000035,114.74365200000011,122.17968800000017,117.43603499999972,120.38476599999922,-28.846190999999635,104.35888699999941
303,110.89746099999957,49.74365200000011,100.38476599999922,145.89746099999957,141.9228520000006,181.0258789999998,119.87158199999976,107.82031300000017,111.15380900000036,125.0,115.25634799999989,119.48730499999965,-34.10253899999998,106.6665039999998
304,108.58984400000008,46.9228520000006,99.35888699999941,149.48730499999965,120.51269500000035,175.0,111.79492200000004,104.61523400000078,105.51269500000035,125.25634799999989,110.76904300000024,116.53857400000015,-41.153809000000365,105.76904300000024
305,108.58984400000008,45.12841800000024,98.7177729999994,153.9741210000002,91.15380900000036,170.0,103.0771479999994,102.43603499999972,101.6665039999998,120.51269500000035,106.0258789999998,112.69238299999961,-44.61547900000005,99.74365200000011
306,110.64111300000059,46.2822270000006,98.20507799999996,156.15380900000036,73.84619099999964,168.9741210000002,98.46142599999985,102.43603499999972,102.69238299999961,113.84619099999964,103.46142599999985,109.48730499999965,-41.28198199999997,95.51269500000035
307,111.9228520000006,48.7177729999994,96.79492200000004,152.82031300000017,75.64111300000059,168.7177729999994,99.10253900000043,103.7177729999994,107.69238299999961,111.15380900000036,103.84619099999964,107.56396500000028,-33.20507799999996,98.0771479999994
308,109.23095699999976,47.82031300000017,92.94873000000007,143.58984400000008,86.2822270000006,161.6665039999998,101.6665039999998,103.3334960000002,111.0258789999998,113.7177729999994,104.61523400000078,105.64111300000059,-26.794922000000042,102.43603499999972
309,100.64111300000059,40.38476599999922,86.15380900000036,131.53857400000015,90.89746099999957,144.3588869999994,100.38476599999922,98.3334960000002,106.9228520000006,115.76904300000024,101.53857400000015,101.6665039999998,-28.205077999999958,102.82031300000017
310,89.61523400000078,29.48730499999965,78.7177729999994,122.30761700000039,85.64111300000059,122.43603499999972,92.69238299999961,89.61523400000078,95.89746099999957,110.38476599999922,94.48730499999965,96.2822270000006,-37.17944299999999,101.15380900000036
311,83.20507799999996,23.205077999999958,75.76904300000024,121.6665039999998,80.76904300000024,109.48730499999965,83.46142599999985,82.69238299999961,85.89746099999957,98.0771479999994,89.10253900000043,93.7177729999994,-45.89746100000002,102.17968800000017
312,87.05126999999993,28.077147999999397,80.76904300000024,130.76904300000024,87.94873000000007,114.87158199999976,81.41015599999992,84.23095699999976,84.74365200000011,86.9228520000006,91.15380900000036,97.17968800000017,-45.51293900000019,103.58984400000008
313,99.87158199999976,42.05126999999993,91.6665039999998,144.3588869999994,105.76904300000024,134.87158199999976,91.53857400000015,94.87158199999976,93.46142599999985,86.41015599999992,100.51269500000035,105.38476599999922,-35.51293900000019,101.79492200000004
314,112.82031300000017,55.0,100.64111300000059,153.20507799999996,119.35888699999941,154.7436520000001,109.10253900000043,108.20507799999996,105.0,99.10253900000043,110.76904300000024,112.43603499999972,-24.487060999999812,99.61523400000078
315,117.43603499999972,57.17968800000017,101.41015599999992,150.51269500000035,116.53857400000015,162.05126999999993,123.3334960000002,115.38476599999922,111.41015599999992,117.43603499999972,115.0,113.58984400000008,-21.666747999999643,102.17968800000017
316,111.41015599999992,46.79492200000004,93.3334960000002,137.43603499999972,99.23095699999976,155.38476599999922,125.64111300000059,113.3334960000002,110.0,129.3588869999994,111.2822270000006,107.56396500000028,-28.461425999999847,106.53857400000015
317,99.61523400000078,31.282227000000603,81.79492200000004,122.05126999999993,81.41015599999992,142.17968800000017,115.51269500000035,105.51269500000035,104.87158199999976,128.7177729999994,103.20507799999996,97.56396500000028,-39.10253899999998,105.38476599999922
318,89.74365200000011,20.384765999999217,73.3334960000002,113.20507799999996,76.53857400000015,130.51269500000035,100.64111300000059,98.46142599999985,102.17968800000017,121.53857400000015,95.64111300000059,88.58984400000008,-46.41015600000037,99.48730499999965
319,86.79492200000004,20.128418000000238,71.6665039999998,114.87158199999976,87.94873000000007,125.51269500000035,90.64111300000059,95.51269500000035,104.10253900000043,117.69238299999961,93.0771479999994,84.61523400000078,-46.153809000000365,96.2822270000006
320,91.15380900000036,28.205077999999958,75.51269500000035,123.46142599999985,107.43603499999972,128.46142599999985,91.0258789999998,95.89746099999957,105.38476599999922,119.10253900000043,97.05126999999993,87.17968800000017,-38.71801800000003,98.58984400000008
321,98.46142599999985,36.9228520000006,80.76904300000024,131.6665039999998,121.41015599999992,135.12841800000024,98.0771479999994,95.64111300000059,99.23095699999976,118.3334960000002,104.35888699999941,92.94873000000007,-27.820557000000008,100.25634799999989
322,103.46142599999985,40.38476599999922,83.7177729999994,133.9741210000002,120.25634799999989,136.41015599999992,102.17968800000017,91.79492200000004,85.51269500000035,110.38476599999922,108.9741210000002,97.05126999999993,-20.0,98.7177729999994
323,103.46142599999985,40.0,82.82031300000017,131.41015599999992,104.10253900000043,125.76904300000024,96.0258789999998,85.38476599999922,72.82031300000017,100.64111300000059,106.79492200000004,96.6665039999998,-20.512939000000188,98.20507799999996
324,101.15380900000036,42.69238299999961,79.74365200000011,130.2563479999999,83.58984400000008,107.69238299999961,82.94873000000007,79.74365200000011,71.0258789999998,98.58984400000008,99.23095699999976,93.58984400000008,-27.948729999999614,101.41015599999992
325,101.6665039999998,52.43603499999972,78.3334960000002,135.51269500000035,72.43603499999972,97.82031300000017,75.76904300000024,77.94873000000007,81.53857400000015,105.64111300000059,93.3334960000002,92.17968800000017,-33.20507799999996,103.84619099999964
326,107.43603499999972,63.0771479999994,81.15380900000036,145.6411130000006,75.51269500000035,108.7177729999994,84.10253900000043,81.0258789999998,97.17968800000017,114.87158199999976,95.12841800000024,95.51269500000035,-26.538574000000153,102.43603499999972
327,114.74365200000011,63.20507799999996,87.17968800000017,152.3076170000004,85.64111300000059,135.38476599999922,103.46142599999985,86.41015599999992,108.3334960000002,118.7177729999994,105.25634799999989,102.17968800000017,-7.564209000000574,101.6665039999998
328,118.84619099999964,48.46142599999985,92.30761700000039,149.3588869999994,93.58984400000008,158.3334960000002,118.7177729999994,90.12841800000024,110.89746099999957,118.0771479999994,119.48730499999965,108.46142599999985,13.974121000000196,105.12841800000024
329,122.05126999999993,30.51269500000035,95.76904300000024,140.38476599999922,98.58984400000008,161.79492200000004,118.0771479999994,91.0258789999998,108.58984400000008,120.64111300000059,134.10253900000043,113.84619099999964,26.282227000000603,108.58984400000008
330,133.20507799999996,25.897460999999566,100.89746099999957,136.9228520000006,106.0258789999998,146.79492200000004,104.87158199999976,92.82031300000017,107.56396500000028,132.82031300000017,148.84619099999964,121.6665039999998,24.102539000000434,107.69238299999961
331,155.12841800000024,38.20507799999996,110.0,145.76904300000024,115.64111300000059,127.69238299999961,93.20507799999996,98.58984400000008,109.74365200000011,151.6665039999998,161.53857400000015,133.3334960000002,7.948730000000069,105.38476599999922
332,175.6411130000006,50.51269500000035,117.43603499999972,159.48730499999965,116.0258789999998,118.46142599999985,93.84619099999964,103.84619099999964,109.35888699999941,165.2563479999999,165.38476599999922,142.05126999999993,-18.076904000000013,106.79492200000004
333,177.05126999999993,40.0,114.10253900000043,161.6665039999998,97.82031300000017,122.69238299999961,104.23095699999976,99.87158199999976,99.10253900000043,160.76904300000024,153.20507799999996,136.41015599999992,-46.025634999999966,109.10253900000043
334,154.23095699999976,0.6411130000005869,97.56396500000028,143.58984400000008,69.61523400000078,134.10253900000043,113.46142599999985,83.7177729999994,79.87158199999976,135.2563479999999,128.84619099999964,113.58984400000008,-62.435790999999426,105.76904300000024
335,123.7177729999994,-48.07690400000001,78.3334960000002,116.15380900000036,54.48730499999965,143.46142599999985,114.87158199999976,66.0258789999998,64.10253900000043,102.17968800000017,107.94873000000007,86.9228520000006,-54.48706099999981,99.10253900000043
336,110.38476599999922,-73.58984399999963,73.3334960000002,100.76904300000024,68.9741210000002,145.2563479999999,112.17968800000017,63.846190999999635,67.69238299999961,85.51269500000035,107.05126999999993,76.6665039999998,-18.58984399999963,98.0771479999994
337,126.41015599999992,-56.025634999999966,90.12841800000024,108.46142599999985,106.0258789999998,140.89746099999957,114.87158199999976,85.89746099999957,95.12841800000024,100.25634799999989,130.38476599999922,92.43603499999972,34.74365200000011,104.10253900000043
338,158.58984400000008,-5.0,118.20507799999996,127.30761700000039,140.6411130000006,136.9228520000006,127.43603499999972,122.56396500000028,133.20507799999996,137.56396500000028,164.48730499999965,123.84619099999964,86.41015599999992,109.61523400000078
339,179.10253900000043,46.666503999999804,136.9228520000006,135.0,151.0258789999998,139.23095699999976,144.23095699999976,152.17968800000017,159.7436520000001,168.9741210000002,187.3076170000004,147.43603499999972,120.64111300000059,109.23095699999976
340,169.3588869999994,64.87158199999976,133.3334960000002,121.79492200000004,133.20507799999996,147.05126999999993,154.10253900000043,158.7177729999994,160.76904300000024,170.51269500000035,185.0,146.15380900000036,137.43603499999972,105.76904300000024
341,137.17968800000017,40.38476599999922,114.10253900000043,98.3334960000002,98.9741210000002,153.20507799999996,150.6411130000006,144.3588869999994,141.6665039999998,145.2563479999999,163.9741210000002,124.35888699999941,154.87158199999976,102.43603499999972
342,109.87158199999976,-3.846190999999635,100.0,83.84619099999964,66.2822270000006,151.2822270000006,139.87158199999976,127.69238299999961,122.43603499999972,119.35888699999941,145.76904300000024,103.9741210000002,196.53857400000015,98.46142599999985
343,110.51269500000035,-27.435790999999426,107.17968800000017,85.38476599999922,50.51269500000035,143.58984400000008,135.12841800000024,127.56396500000028,119.87158199999976,117.30761700000039,149.3588869999994,105.12841800000024,273.5898440000001,95.25634799999989
344,138.84619099999964,-3.5898440000000846,132.56396500000028,93.20507799999996,60.897460999999566,138.7177729999994,145.38476599999922,147.05126999999993,135.38476599999922,141.15380900000036,175.89746099999957,129.48730499999965,375.76904300000024,98.0771479999994
345,173.9741210000002,60.38476599999922,156.6665039999998,91.9228520000006,96.15380900000036,142.6923829999996,165.0,172.82031300000017,156.53857400000015,173.20507799999996,207.05126999999993,158.20507799999996,479.10253900000043,107.82031300000017
346,192.43603499999972,129.10253900000043,159.23095699999976,76.0258789999998,144.10253900000043,151.79492200000004,177.17968800000017,185.0,168.46142599999985,192.43603499999972,220.0,168.9741210000002,561.5385740000002,115.51269500000035
347,185.51269500000035,166.41015599999992,136.79492200000004,53.974121000000196,183.0771479999994,156.41015599999992,167.94873000000007,172.82031300000017,162.56396500000028,187.94873000000007,205.0,153.20507799999996,617.4360349999997,113.3334960000002
348,163.7177729999994,161.9228520000006,104.61523400000078,40.51269500000035,192.82031300000017,149.48730499999965,139.3588869999994,141.79492200000004,141.53857400000015,163.7177729999994,172.94873000000007,122.82031300000017,661.794922,105.89746099999957
349,147.3076170000004,135.76904300000024,86.15380900000036,46.025878999999804,167.56396500000028,133.0771479999994,109.35888699999941,110.38476599999922,116.9228520000006,135.89746099999957,147.56396500000028,101.0258789999998,719.7436520000001,102.82031300000017
350,148.7177729999994,118.84619099999964,93.58984400000008,66.15380900000036,121.6665039999998,114.61523400000078,96.2822270000006,96.9228520000006,102.30761700000039,123.3334960000002,147.05126999999993,102.94873000000007,807.9487300000001,106.15380900000036
351,163.20507799999996,130.0,118.46142599999985,83.58984400000008,78.9741210000002,100.38476599999922,104.10253900000043,105.12841800000024,103.9741210000002,132.82031300000017,169.87158199999976,123.9741210000002,920.3847659999992,110.64111300000059
352,176.2822270000006,165.12841800000024,139.3588869999994,80.38476599999922,58.974121000000196,93.9741210000002,120.0,121.53857400000015,116.0258789999998,152.56396500000028,197.6923829999996,144.48730499999965,1035.0,114.48730499999965
353,180.89746099999957,205.38476599999922,142.17968800000017,55.38476599999922,69.35888699999941,97.43603499999972,129.3588869999994,130.38476599999922,126.79492200000004,163.46142599999985,213.20507799999996,150.2563479999999,1133.589844,119.74365200000011
354,183.20507799999996,230.89746099999957,131.2822270000006,25.769043000000238,104.61523400000078,111.15380900000036,127.82031300000017,128.3334960000002,129.48730499999965,156.9228520000006,214.87158199999976,143.7177729999994,1215.256348,124.23095699999976
355,191.9228520000006,233.58984400000008,121.41015599999992,11.922852000000603,146.79492200000004,128.58984400000008,121.41015599999992,123.3334960000002,125.64111300000059,141.15380900000036,211.9228520000006,137.3076170000004,1288.7177729999994,122.94873000000007
356,203.58984400000008,220.2563479999999,120.76904300000024,18.589844000000085,173.3334960000002,138.7177729999994,116.6665039999998,122.56396500000028,120.64111300000059,132.43603499999972,210.89746099999957,137.6923829999996,1359.1025390000004,117.56396500000028
357,206.41015599999992,206.53857400000015,124.10253900000043,31.922852000000603,171.41015599999992,133.7177729999994,115.25634799999989,123.84619099999964,118.3334960000002,138.58984400000008,209.10253900000043,139.48730499999965,1423.0771479999994,115.51269500000035
358,192.3076170000004,203.0771479999994,120.12841800000024,34.35888699999941,147.82031300000017,115.38476599999922,113.7177729999994,120.89746099999957,117.43603499999972,151.6665039999998,199.3588869999994,133.0771479999994,1473.4614259999998,118.46142599999985
359,166.41015599999992,207.82031300000017,103.58984400000008,20.0,120.0,93.20507799999996,108.46142599999985,110.51269500000035,114.23095699999976,155.2563479999999,179.7436520000001,114.61523400000078,1508.0771479999994,119.87158199999976
360,143.58984400000008,210.89746099999957,80.89746099999957,-3.5898440000000846,100.64111300000059,77.05126999999993,98.7177729999994,96.41015599999992,106.0258789999998,138.7177729999994,157.43603499999972,90.76904300000024,1534.6152340000008,116.6665039999998
361,137.94873000000007,208.58984400000008,66.79492200000004,-24.230713000000378,90.89746099999957,73.0771479999994,89.23095699999976,85.51269500000035,95.76904300000024,107.30761700000039,146.2822270000006,75.64111300000059,1569.1025390000004,114.23095699999976
362,155.6411130000006,208.58984400000008,73.7177729999994,-31.41015600000037,91.2822270000006,81.9228520000006,88.46142599999985,85.76904300000024,91.53857400000015,80.25634799999989,157.94873000000007,81.2822270000006,1624.743652,117.30761700000039
363,192.3076170000004,222.43603499999972,103.7177729999994,-18.71801800000003,108.20507799999996,100.76904300000024,103.0771479999994,101.53857400000015,101.0258789999998,80.64111300000059,192.82031300000017,109.61523400000078,1700.7690430000002,122.43603499999972
364,234.7436520000001,250.38476599999922,145.38476599999922,11.025878999999804,145.76904300000024,124.74365200000011,131.2822270000006,130.12841800000024,124.74365200000011,118.3334960000002,236.53857400000015,148.84619099999964,1780.6411130000006,125.25634799999989
365,265.76904300000024,276.79492200000004,178.84619099999964,40.897460999999566,190.6411130000006,146.15380900000036,160.0,159.3588869999994,151.79492200000004,177.43603499999972,267.05126999999993,178.84619099999964,1840.0,128.0771479999994
366,270.6411130000006,282.05126999999993,186.0258789999998,46.53857400000015,211.9228520000006,154.48730499999965,172.3076170000004,172.17968800000017,164.10253900000043,220.0,267.17968800000017,181.9228520000006,1861.6665039999998,133.46142599999985
367,248.20507799999996,262.05126999999993,163.7177729999994,15.256347999999889,187.17968800000017,142.94873000000007,159.23095699999976,158.58984400000008,150.89746099999957,212.82031300000017,237.3076170000004,154.61523400000078,1849.8715819999998,136.6665039999998
368,215.0,235.12841800000024,128.20507799999996,-37.30761700000039,129.23095699999976,116.2822270000006,128.84619099999964,126.9228520000006,119.87158199999976,156.9228520000006,198.3334960000002,114.48730499999965,1831.2822270000006,132.6923829999996
369,195.89746099999957,226.53857400000015,103.9741210000002,-76.02563499999997,82.56396500000028,90.64111300000059,101.53857400000015,99.87158199999976,93.58984400000008,88.9741210000002,177.82031300000017,88.0771479999994,1837.6923829999996,126.15380900000036
370,203.0771479999994,247.17968800000017,104.61523400000078,-74.61547900000005,86.0258789999998,83.3334960000002,94.35888699999941,96.0258789999998,90.12841800000024,53.0771479999994,187.6923829999996,90.0,1880.3847659999992,125.51269500000035
371,225.89746099999957,283.7177729999994,122.05126999999993,-38.33325200000036,136.53857400000015,97.17968800000017,107.69238299999961,114.87158199999976,108.46142599999985,66.53857400000015,213.9741210000002,111.15380900000036,1940.8974609999996,130.12841800000024
372,242.05126999999993,311.53857400000015,135.76904300000024,3.717772999999397,192.56396500000028,118.20507799999996,126.79492200000004,138.9741210000002,131.41015599999992,113.3334960000002,231.15380900000036,128.84619099999964,1988.0771479999994,132.3076170000004
373,237.82031300000017,315.3847659999992,132.94873000000007,25.128418000000238,212.56396500000028,128.20507799999996,136.2822270000006,150.6411130000006,141.79492200000004,162.56396500000028,225.89746099999957,128.20507799999996,2004.3588869999994,130.51269500000035
374,219.3588869999994,300.2563479999999,118.3334960000002,22.05126999999993,188.9741210000002,120.0,132.43603499999972,145.38476599999922,136.79492200000004,192.43603499999972,207.17968800000017,113.20507799999996,1997.1796880000002,130.2563479999999
375,204.10253900000043,284.10253900000043,107.05126999999993,11.410155999999915,148.7177729999994,101.9228520000006,122.69238299999961,131.53857400000015,125.89746099999957,198.9741210000002,194.23095699999976,99.61523400000078,1987.6923829999996,133.58984400000008
376,205.51269500000035,281.9228520000006,110.25634799999989,13.205077999999958,126.79492200000004,90.12841800000024,117.43603499999972,121.15380900000036,121.6665039999998,192.82031300000017,198.58984400000008,99.87158199999976,1992.4360349999997,135.6411130000006
377,222.94873000000007,294.48730499999965,126.2822270000006,34.35888699999941,138.58984400000008,94.74365200000011,121.9228520000006,122.30761700000039,129.48730499999965,188.3334960000002,215.89746099999957,114.23095699999976,2011.794922,134.48730499999965
378,243.3334960000002,309.23095699999976,143.84619099999964,65.89746099999957,170.12841800000024,111.2822270000006,131.79492200000004,132.56396500000028,142.94873000000007,192.43603499999972,232.3076170000004,131.79492200000004,2032.94873,134.7436520000001
379,250.6411130000006,310.6411130000006,150.51269500000035,89.48730499999965,190.0,124.10253900000043,137.43603499999972,142.43603499999972,149.7436520000001,201.79492200000004,235.12841800000024,139.10253900000043,2040.3847659999992,137.94873000000007
380,238.84619099999964,295.51269500000035,143.20507799999996,93.58984400000008,179.10253900000043,121.0258789999998,132.56396500000028,142.94873000000007,142.3076170000004,210.2563479999999,222.56396500000028,130.6411130000006,2029.6152340000008,138.46142599999985
381,217.56396500000028,276.9228520000006,130.6411130000006,84.87158199999976,148.7177729999994,104.35888699999941,121.6665039999998,134.7436520000001,127.30761700000039,217.94873000000007,206.0258789999998,114.74365200000011,2011.410156,133.46142599999985
382,203.3334960000002,271.6665039999998,124.35888699999941,83.20507799999996,129.3588869999994,87.94873000000007,114.61523400000078,126.41015599999992,118.7177729999994,226.79492200000004,199.3588869999994,105.0,2001.1538090000004,129.10253900000043
383,204.23095699999976,283.3334960000002,127.69238299999961,104.61523400000078,138.9741210000002,82.56396500000028,115.64111300000059,123.9741210000002,122.56396500000028,232.56396500000028,205.51269500000035,107.30761700000039,2002.3076170000004,130.6411130000006
