,EEG.AF3,EEG.F7,EEG.F3,EEG.FC5,EEG.T7,EEG.P7,EEG.O1,EEG.O2,EEG.P8,EEG.T8,EEG.FC6,EEG.F4,EEG.F8,EEG.AF4
0,113.20507799999996,252.94873000000007,130.76904300000024,36.2822270000006,141.41015599999992,-490.5129390000002,132.43603499999972,127.56396500000028,116.9228520000006,91.9228520000006,138.84619099999964,118.0771479999994,1383.9741210000002,106.6665039999998
1,101.15380900000036,252.3076170000004,120.38476599999922,38.846190999999635,128.58984400000008,-516.923096,113.46142599999985,111.0258789999998,98.0771479999994,61.025878999999804,112.43603499999972,101.2822270000006,1352.4360349999997,103.20507799999996
2,89.35888699999941,250.89746099999957,113.9741210000002,42.17968800000017,107.30761700000039,-532.5642090000006,100.0,102.56396500000028,88.0771479999994,51.9228520000006,96.6665039999998,88.3334960000002,1333.9741210000002,104.23095699999976
3,85.89746099999957,250.2563479999999,115.0,43.0771479999994,92.56396500000028,-533.974365,99.48730499999965,107.30761700000039,92.82031300000017,69.23095699999976,99.87158199999976,86.9228520000006,1332.4360349999997,107.30761700000039
4,91.9228520000006,252.43603499999972,120.64111300000059,38.7177729999994,97.05126999999993,-525.0,109.61523400000078,120.25634799999989,108.0771479999994,99.87158199999976,116.6665039999998,95.76904300000024,1338.589844,106.79492200000004
5,100.51269500000035,255.6411130000006,125.38476599999922,30.51269500000035,120.51269500000035,-512.6923829999996,122.17968800000017,131.6665039999998,123.7177729999994,123.7177729999994,132.6923829999996,107.05126999999993,1336.5385740000002,103.84619099999964
6,104.23095699999976,255.38476599999922,126.15380900000036,22.69238299999961,149.3588869999994,-502.179443,131.41015599999992,135.38476599999922,131.9228520000006,128.58984400000008,136.79492200000004,113.3334960000002,1316.794922,104.10253900000043
7,100.51269500000035,249.10253900000043,124.61523400000078,20.641113000000587,167.05126999999993,-495.64111300000013,135.6411130000006,131.79492200000004,130.51269500000035,116.53857400000015,128.7177729999994,112.17968800000017,1283.7177729999994,106.79492200000004
8,92.43603499999972,239.3588869999994,122.94873000000007,25.897460999999566,165.0,-496.53857400000015,135.0,124.61523400000078,120.51269500000035,96.79492200000004,115.51269500000035,106.0258789999998,1251.0258789999998,106.53857400000015
9,84.48730499999965,231.9228520000006,121.79492200000004,34.61523400000078,146.9228520000006,-507.3076170000004,129.48730499999965,116.6665039999998,104.87158199999976,77.43603499999972,103.9741210000002,98.0771479999994,1228.7177729999994,103.58984400000008
10,79.35888699999941,229.7436520000001,120.51269500000035,40.64111300000059,124.74365200000011,-524.4870609999998,120.64111300000059,109.48730499999965,88.3334960000002,61.666503999999804,96.9228520000006,91.79492200000004,1217.5639650000003,103.3334960000002
11,77.30761700000039,229.87158199999976,118.58984400000008,40.25634799999989,110.12841800000024,-536.4101560000004,112.94873000000007,104.23095699999976,76.41015599999992,50.897460999999566,94.48730499999965,88.7177729999994,1211.1538090000004,106.15380900000036
12,76.6665039999998,228.3334960000002,116.79492200000004,34.61523400000078,106.53857400000015,-529.8718259999996,110.76904300000024,101.6665039999998,72.17968800000017,47.69238299999961,96.15380900000036,88.9741210000002,1202.6923829999996,105.76904300000024
13,75.38476599999922,225.38476599999922,115.38476599999922,29.615234000000783,110.64111300000059,-499.4870609999998,113.58984400000008,101.79492200000004,74.74365200000011,52.94873000000007,100.38476599999922,90.64111300000059,1188.3334960000002,101.0258789999998
14,72.56396500000028,225.2563479999999,114.10253900000043,29.74365200000011,118.20507799999996,-452.3076170000004,117.82031300000017,103.7177729999994,81.2822270000006,63.46142599999985,103.9741210000002,91.6665039999998,1167.8203130000002,98.46142599999985
15,69.10253900000043,230.2563479999999,112.43603499999972,34.87158199999976,126.2822270000006,-404.2307130000004,118.9741210000002,106.2822270000006,88.9741210000002,71.2822270000006,103.9741210000002,91.15380900000036,1143.8461909999996,101.2822270000006
16,66.2822270000006,236.6665039999998,110.12841800000024,39.61523400000078,131.41015599999992,-369.4870609999998,115.25634799999989,108.0771479999994,95.64111300000059,70.76904300000024,99.61523400000078,89.48730499999965,1119.8715819999998,103.84619099999964
17,63.20507799999996,235.6411130000006,107.56396500000028,38.46142599999985,127.82031300000017,-354.35888699999987,107.82031300000017,107.69238299999961,98.58984400000008,63.7177729999994,93.3334960000002,87.30761700000039,1096.2822270000006,101.2822270000006
18,57.43603499999972,222.05126999999993,105.38476599999922,30.0,113.46142599999985,-353.46142599999985,100.0,104.61523400000078,96.6665039999998,58.589844000000085,88.46142599999985,84.74365200000011,1071.6665039999998,98.0771479999994
19,49.102539000000434,201.15380900000036,105.51269500000035,18.974121000000196,96.15380900000036,-353.46142599999985,97.17968800000017,101.15380900000036,91.41015599999992,64.23095699999976,88.20507799999996,83.0771479999994,1046.1538090000004,98.9741210000002
20,42.17968800000017,185.38476599999922,109.35888699999941,12.307617000000391,89.35888699999941,-342.6923829999996,102.17968800000017,101.9228520000006,87.82031300000017,81.41015599999992,93.7177729999994,84.23095699999976,1022.1796880000002,101.41015599999992
21,41.53857400000015,184.23095699999976,115.25634799999989,14.102539000000434,99.10253900000043,-321.02563499999997,112.43603499999972,108.58984400000008,89.10253900000043,101.0258789999998,101.2822270000006,88.46142599999985,999.1025390000004,100.51269500000035
22,48.846190999999635,195.76904300000024,119.23095699999976,21.922852000000603,116.53857400000015,-301.15380900000036,120.51269500000035,116.6665039999998,92.69238299999961,108.9741210000002,103.9741210000002,92.69238299999961,971.1538090000004,98.84619099999964
23,62.43603499999972,210.51269500000035,118.58984400000008,30.25634799999989,126.0258789999998,-295.2563479999999,120.51269500000035,120.25634799999989,93.58984400000008,97.82031300000017,97.82031300000017,93.84619099999964,932.6923829999996,101.2822270000006
24,80.0,221.53857400000015,114.87158199999976,36.025878999999804,120.12841800000024,-301.923096,114.48730499999965,117.94873000000007,91.2822270000006,74.35888699999941,86.79492200000004,92.82031300000017,886.794922,105.0
25,100.25634799999989,229.7436520000001,112.82031300000017,39.61523400000078,105.76904300000024,-306.923096,109.61523400000078,114.74365200000011,90.38476599999922,55.38476599999922,81.0258789999998,94.23095699999976,842.6923829999996,104.35888699999941
26,120.0,238.9741210000002,114.74365200000011,42.43603499999972,95.38476599999922,-297.4357909999994,110.89746099999957,115.12841800000024,94.35888699999941,54.102539000000434,85.64111300000059,100.64111300000059,804.7436520000001,100.89746099999957
27,133.3334960000002,248.58984400000008,117.94873000000007,43.0771479999994,95.51269500000035,-274.4870609999998,116.79492200000004,117.82031300000017,101.41015599999992,70.51269500000035,95.51269500000035,107.94873000000007,766.2822270000006,101.2822270000006
28,135.38476599999922,255.12841800000024,117.43603499999972,39.74365200000011,103.0771479999994,-251.79492200000004,121.79492200000004,118.3334960000002,105.64111300000059,93.46142599999985,99.87158199999976,109.87158199999976,717.0512699999999,105.51269500000035
29,127.69238299999961,256.4101559999999,111.79492200000004,33.20507799999996,110.64111300000059,-242.9487299999996,121.53857400000015,114.23095699999976,103.9741210000002,108.9741210000002,93.58984400000008,103.9741210000002,654.7436520000001,106.53857400000015
30,117.43603499999972,255.2563479999999,103.9741210000002,27.56396500000028,111.53857400000015,-250.5129390000002,115.89746099999957,107.56396500000028,98.3334960000002,108.58984400000008,81.15380900000036,94.23095699999976,587.8203130000002,103.0771479999994
31,112.17968800000017,258.20507799999996,98.3334960000002,27.05126999999993,104.48730499999965,-264.35888699999987,107.82031300000017,102.17968800000017,92.69238299999961,92.43603499999972,71.53857400000015,87.30761700000039,528.0771479999994,101.15380900000036
32,116.0258789999998,271.2822270000006,97.30761700000039,32.82031300000017,93.20507799999996,-269.2307130000004,101.53857400000015,100.64111300000059,89.61523400000078,68.3334960000002,70.12841800000024,86.41015599999992,481.53857400000015,104.23095699999976
33,128.0771479999994,295.89746099999957,100.51269500000035,42.43603499999972,84.48730499999965,-256.66674799999964,99.61523400000078,102.69238299999961,89.61523400000078,48.0771479999994,75.25634799999989,90.38476599999922,446.2822270000006,107.17968800000017
34,143.58984400000008,327.17968800000017,106.15380900000036,51.79492200000004,83.84619099999964,-230.5129390000002,102.56396500000028,106.6665039999998,92.43603499999972,43.333496000000196,81.41015599999992,95.51269500000035,416.53857400000015,106.41015599999992
35,156.41015599999992,356.4101559999999,112.05126999999993,57.69238299999961,92.05126999999993,-203.71801800000003,108.7177729999994,110.51269500000035,97.05126999999993,58.589844000000085,85.12841800000024,99.10253900000043,387.05126999999993,105.89746099999957
36,162.17968800000017,376.53857400000015,116.0258789999998,60.25634799999989,104.48730499999965,-187.9487299999996,115.38476599999922,112.69238299999961,101.53857400000015,86.79492200000004,85.25634799999989,100.38476599999922,354.87158199999976,108.84619099999964
37,160.51269500000035,386.15380900000036,116.6665039999998,61.153809000000365,115.0,-185.76928699999962,119.35888699999941,112.43603499999972,103.84619099999964,111.79492200000004,82.56396500000028,99.74365200000011,319.3588869999994,110.64111300000059
38,155.38476599999922,390.2563479999999,113.84619099999964,62.82031300000017,119.74365200000011,-190.2563479999999,119.48730499999965,111.0258789999998,104.61523400000078,119.61523400000078,77.82031300000017,98.46142599999985,281.53857400000015,106.6665039999998
39,152.56396500000028,396.0258789999998,110.38476599999922,66.6665039999998,118.7177729999994,-191.28198199999997,116.9228520000006,111.0258789999998,106.79492200000004,109.35888699999941,73.0771479999994,98.46142599999985,243.84619099999964,101.6665039999998
40,156.0258789999998,408.7177729999994,109.61523400000078,73.20507799999996,114.35888699999941,-183.97436500000003,114.10253900000043,114.61523400000078,113.20507799999996,93.46142599999985,70.76904300000024,100.38476599999922,209.3588869999994,102.82031300000017
41,164.87158199999976,427.5639650000003,112.43603499999972,81.41015599999992,109.87158199999976,-172.0512700000004,113.3334960000002,120.51269500000035,121.53857400000015,86.2822270000006,71.6665039999998,103.0771479999994,179.7436520000001,107.56396500000028
42,174.3588869999994,446.79492200000004,116.41015599999992,88.84619099999964,108.20507799999996,-163.20507799999996,115.0,125.12841800000024,126.53857400000015,91.2822270000006,73.3334960000002,104.87158199999976,153.46142599999985,108.46142599999985
43,178.84619099999964,458.84619099999964,117.94873000000007,92.94873000000007,110.51269500000035,-162.179443,117.17968800000017,124.87158199999976,123.7177729999994,100.25634799999989,72.69238299999961,104.48730499999965,127.69238299999961,104.74365200000011
44,176.0258789999998,459.23095699999976,114.61523400000078,92.82031300000017,114.61523400000078,-167.6923829999996,116.9228520000006,119.23095699999976,113.84619099999964,101.53857400000015,68.20507799999996,102.56396500000028,100.89746099999957,102.56396500000028
45,167.43603499999972,449.6152340000008,107.82031300000017,89.74365200000011,116.53857400000015,-175.5129390000002,112.05126999999993,110.51269500000035,101.9228520000006,91.2822270000006,61.2822270000006,100.12841800000024,73.9741210000002,103.46142599999985
46,158.0771479999994,437.82031300000017,101.53857400000015,87.17968800000017,113.9741210000002,-182.6923829999996,103.84619099999964,103.0771479999994,93.9741210000002,75.76904300000024,55.51269500000035,98.84619099999964,50.0,103.3334960000002
47,153.58984400000008,432.05126999999993,100.64111300000059,88.9741210000002,108.3334960000002,-189.4870609999998,97.05126999999993,101.2822270000006,94.35888699999941,66.79492200000004,54.35888699999941,100.64111300000059,31.666503999999804,101.6665039999998
48,157.17968800000017,436.4101559999999,107.43603499999972,96.9228520000006,104.35888699999941,-198.97436500000003,95.89746099999957,107.43603499999972,103.84619099999964,71.0258789999998,59.35888699999941,107.05126999999993,19.615234000000783,103.20507799999996
49,166.53857400000015,448.20507799999996,118.58984400000008,109.23095699999976,104.35888699999941,-215.89746100000002,100.25634799999989,118.3334960000002,116.9228520000006,83.58984400000008,68.20507799999996,116.15380900000036,10.512695000000349,107.43603499999972
50,174.48730499999965,458.5898440000001,127.69238299999961,120.12841800000024,105.89746099999957,-244.8718259999996,105.76904300000024,126.6665039999998,125.25634799999989,91.41015599999992,75.25634799999989,123.3334960000002,-1.9228520000006029,107.82031300000017
51,174.23095699999976,459.23095699999976,129.23095699999976,124.35888699999941,103.3334960000002,-286.28198199999997,107.94873000000007,125.51269500000035,122.94873000000007,87.43603499999972,75.64111300000059,124.23095699999976,-22.435790999999426,102.43603499999972
52,165.38476599999922,448.3334960000002,123.3334960000002,121.41015599999992,94.10253900000043,-333.97436500000003,106.15380900000036,115.12841800000024,113.0771479999994,78.3334960000002,70.0,118.84619099999964,-49.35888699999987,98.84619099999964
53,154.61523400000078,431.79492200000004,115.38476599999922,117.17968800000017,83.7177729999994,-375.38452099999995,103.20507799999996,102.94873000000007,104.87158199999976,77.05126999999993,63.7177729999994,112.17968800000017,-75.0,101.79492200000004
54,149.7436520000001,418.46142599999985,111.6665039999998,118.7177729999994,80.64111300000059,-399.61547900000005,102.69238299999961,98.3334960000002,105.38476599999922,88.7177729999994,62.82031300000017,109.74365200000011,-91.79492200000004,106.53857400000015
55,153.7177729999994,411.6665039999998,113.58984400000008,127.82031300000017,88.46142599999985,-406.02563499999997,105.51269500000035,103.84619099999964,112.82031300000017,105.64111300000059,68.3334960000002,113.20507799999996,-99.35888699999987,107.30761700000039
56,161.2822270000006,406.9228520000006,117.17968800000017,138.7177729999994,101.6665039999998,-406.41015600000037,108.46142599999985,112.82031300000017,118.7177729999994,115.0,74.61523400000078,118.58984400000008,-105.25634799999989,106.15380900000036
57,164.48730499999965,397.4360349999997,116.53857400000015,143.46142599999985,111.2822270000006,-418.20507799999996,107.69238299999961,115.89746099999957,116.0258789999998,110.25634799999989,75.0,120.25634799999989,-117.82055700000001,107.05126999999993
58,158.9741210000002,382.05126999999993,110.0,139.23095699999976,113.20507799999996,-452.3076170000004,102.17968800000017,109.74365200000011,104.74365200000011,95.25634799999989,67.43603499999972,115.64111300000059,-138.84619099999964,107.43603499999972
59,147.6923829999996,366.4101559999999,101.9228520000006,130.89746099999957,110.64111300000059,-505.2563479999999,96.53857400000015,100.64111300000059,92.69238299999961,80.76904300000024,57.05126999999993,107.43603499999972,-161.923096,103.20507799999996
60,138.3334960000002,357.05126999999993,98.3334960000002,126.0258789999998,109.23095699999976,-563.718018,95.12841800000024,97.82031300000017,88.20507799999996,75.89746099999957,51.025878999999804,102.05126999999993,-178.58984399999963,98.0771479999994
61,136.79492200000004,354.7436520000001,101.79492200000004,128.58984400000008,110.76904300000024,-612.6923829999996,98.3334960000002,105.38476599999922,93.9741210000002,81.79492200000004,52.69238299999961,103.3334960000002,-185.2563479999999,98.84619099999964
62,142.56396500000028,354.23095699999976,110.0,135.89746099999957,112.30761700000039,-643.205078,102.05126999999993,118.3334960000002,104.74365200000011,91.53857400000015,59.102539000000434,110.0,-184.7436520000001,103.84619099999964
63,149.3588869999994,349.48730499999965,117.17968800000017,142.05126999999993,109.35888699999941,-654.102539,102.05126999999993,127.17968800000017,111.6665039999998,97.05126999999993,64.48730499999965,116.41015599999992,-184.10253899999998,105.64111300000059
64,151.79492200000004,339.6152340000008,119.23095699999976,143.0771479999994,101.41015599999992,-651.4101560000004,97.69238299999961,124.87158199999976,110.38476599999922,95.89746099999957,65.12841800000024,118.46142599999985,-188.97436500000003,102.82031300000017
65,149.7436520000001,327.94873000000007,116.6665039999998,140.76904300000024,94.74365200000011,-644.2307130000004,93.20507799999996,113.58984400000008,103.84619099999964,92.43603499999972,62.05126999999993,117.17968800000017,-199.10253899999998,101.79492200000004
66,148.0771479999994,319.48730499999965,113.46142599999985,140.6411130000006,97.17968800000017,-639.615479,93.84619099999964,102.56396500000028,99.61523400000078,91.2822270000006,59.48730499999965,117.30761700000039,-210.2563479999999,104.35888699999941
67,150.2563479999999,315.3847659999992,113.58984400000008,146.0258789999998,110.12841800000024,-640.5129390000002,101.15380900000036,101.2822270000006,103.20507799999996,94.35888699999941,61.025878999999804,121.9228520000006,-217.820557,105.25634799999989
68,154.48730499999965,312.6923829999996,117.05126999999993,154.48730499999965,124.87158199999976,-646.025635,109.87158199999976,110.38476599999922,112.94873000000007,99.61523400000078,66.41015599999992,129.10253900000043,-222.3076170000004,102.43603499999972
69,155.0,307.82031300000017,120.51269500000035,159.87158199999976,128.84619099999964,-653.974365,112.30761700000039,121.41015599999992,121.53857400000015,103.9741210000002,71.15380900000036,133.84619099999964,-228.20507799999996,100.38476599999922
70,149.23095699999976,300.2563479999999,120.51269500000035,158.0771479999994,117.30761700000039,-660.384521,105.25634799999989,124.87158199999976,121.53857400000015,105.25634799999989,71.53857400000015,132.6923829999996,-238.58984399999963,101.9228520000006
71,141.15380900000036,293.3334960000002,117.30761700000039,151.41015599999992,98.84619099999964,-661.1538090000004,93.9741210000002,118.7177729999994,112.43603499999972,103.58984400000008,67.82031300000017,128.0771479999994,-250.1281740000004,102.56396500000028
72,137.56396500000028,290.51269500000035,114.87158199999976,145.6411130000006,88.20507799999996,-653.5898439999996,86.9228520000006,109.74365200000011,100.12841800000024,101.79492200000004,64.74365200000011,125.25634799999989,-255.89746100000002,99.61523400000078
73,141.41015599999992,291.4101559999999,116.79492200000004,145.0,94.48730499999965,-640.0,89.10253900000043,105.89746099999957,92.94873000000007,101.9228520000006,66.53857400000015,128.0771479999994,-252.9487299999996,98.20507799999996
74,148.20507799999996,291.4101559999999,121.9228520000006,148.3334960000002,113.46142599999985,-626.923096,97.43603499999972,109.23095699999976,93.20507799999996,102.05126999999993,72.05126999999993,134.3588869999994,-246.66674799999964,102.17968800000017
75,149.3588869999994,285.2563479999999,125.0,151.41015599999992,130.51269500000035,-619.8718259999996,103.9741210000002,113.9741210000002,96.53857400000015,98.0771479999994,74.74365200000011,137.05126999999993,-247.3076170000004,106.2822270000006
76,141.0258789999998,271.0258789999998,121.41015599999992,151.41015599999992,131.9228520000006,-619.3588869999999,102.43603499999972,113.46142599999985,97.30761700000039,88.9741210000002,69.10253900000043,130.76904300000024,-260.7692869999996,103.84619099999964
77,127.82031300000017,252.94873000000007,112.56396500000028,149.7436520000001,116.79492200000004,-620.384521,93.46142599999985,106.79492200000004,95.38476599999922,80.64111300000059,57.05126999999993,118.0771479999994,-282.3076170000004,98.3334960000002
78,118.9741210000002,237.3076170000004,104.74365200000011,150.38476599999922,97.82031300000017,-616.5385740000002,84.61523400000078,100.51269500000035,95.76904300000024,81.2822270000006,47.43603499999972,108.3334960000002,-300.38452099999995,97.17968800000017
79,120.51269500000035,228.20507799999996,103.20507799999996,155.0,89.74365200000011,-605.897461,84.48730499999965,100.76904300000024,102.17968800000017,92.56396500000028,48.333496000000196,109.35888699999941,-305.38452099999995,100.0
80,129.10253900000043,223.3334960000002,106.79492200000004,160.38476599999922,97.43603499999972,-592.179443,94.23095699999976,107.69238299999961,111.53857400000015,105.12841800000024,59.102539000000434,119.74365200000011,-298.58984399999963,100.38476599999922
81,135.76904300000024,217.6923829999996,110.38476599999922,161.6665039999998,111.79492200000004,-582.179443,106.53857400000015,115.12841800000024,116.2822270000006,107.05126999999993,71.15380900000036,130.2563479999999,-290.897461,97.43603499999972
82,133.3334960000002,207.3076170000004,110.12841800000024,155.12841800000024,119.35888699999941,-579.8718259999996,112.30761700000039,117.56396500000028,111.79492200000004,94.61523400000078,76.0258789999998,132.43603499999972,-292.4357909999994,96.6665039999998
83,123.0771479999994,192.82031300000017,105.89746099999957,141.9228520000006,113.20507799999996,-582.9487299999996,107.43603499999972,113.9741210000002,100.38476599999922,76.0258789999998,72.17968800000017,125.0,-305.1281740000004,99.23095699999976
84,111.79492200000004,178.9741210000002,101.0258789999998,128.0771479999994,97.56396500000028,-585.2563479999999,95.89746099999957,108.20507799999996,89.61523400000078,66.41015599999992,64.87158199999976,114.74365200000011,-321.41015600000037,100.38476599999922
85,106.41015599999992,170.0,99.74365200000011,121.2822270000006,82.05126999999993,-582.179443,86.0258789999998,104.87158199999976,86.53857400000015,75.38476599999922,61.410155999999915,109.74365200000011,-331.66674799999964,99.35888699999941
86,108.3334960000002,167.6923829999996,103.84619099999964,125.25634799999989,74.61523400000078,-573.205078,84.10253900000043,106.79492200000004,92.82031300000017,100.51269500000035,64.74365200000011,113.0771479999994,-331.41015600000037,100.64111300000059
87,114.61523400000078,170.51269500000035,111.2822270000006,138.20507799999996,77.56396500000028,-560.897461,90.76904300000024,113.20507799999996,105.0,128.3334960000002,72.82031300000017,121.2822270000006,-323.58984399999963,104.61523400000078
88,120.89746099999957,175.2563479999999,117.56396500000028,153.58984400000008,89.10253900000043,-547.179443,101.2822270000006,121.79492200000004,117.69238299999961,144.3588869999994,80.25634799999989,127.82031300000017,-315.2563479999999,104.87158199999976
89,124.35888699999941,177.3076170000004,118.9741210000002,164.23095699999976,103.84619099999964,-533.4614259999998,109.48730499999965,129.61523400000078,127.30761700000039,143.7177729999994,82.17968800000017,128.3334960000002,-313.20507799999996,99.23095699999976
90,123.0771479999994,173.0771479999994,114.74365200000011,164.7436520000001,114.23095699999976,-521.1538090000004,111.2822270000006,132.82031300000017,131.6665039999998,132.17968800000017,77.30761700000039,122.56396500000028,-320.7692869999996,95.25634799999989
91,117.30761700000039,162.17968800000017,107.30761700000039,156.15380900000036,114.61523400000078,-511.53857400000015,106.6665039999998,128.9741210000002,129.7436520000001,119.10253900000043,68.3334960000002,114.10253900000043,-336.15380900000036,98.7177729999994
92,110.0,150.2563479999999,101.6665039999998,145.6411130000006,106.41015599999992,-504.61547900000005,99.23095699999976,119.35888699999941,121.9228520000006,110.38476599999922,61.410155999999915,108.3334960000002,-351.923096,104.48730499999965
93,107.30761700000039,144.48730499999965,102.56396500000028,141.79492200000004,97.82031300000017,-498.33325200000036,93.7177729999994,108.58984400000008,111.53857400000015,105.38476599999922,61.2822270000006,109.61523400000078,-359.35888699999987,104.61523400000078
94,112.17968800000017,148.0771479999994,110.51269500000035,148.0771479999994,97.05126999999993,-490.5129390000002,93.20507799999996,102.05126999999993,103.0771479999994,101.53857400000015,68.7177729999994,117.82031300000017,-354.4870609999998,100.12841800000024
95,121.53857400000015,155.89746099999957,120.12841800000024,158.7177729999994,104.35888699999941,-480.897461,97.30761700000039,101.6665039999998,99.23095699999976,97.94873000000007,79.74365200000011,127.94873000000007,-342.179443,97.56396500000028
96,128.3334960000002,158.58984400000008,124.10253900000043,164.10253900000043,113.0771479999994,-471.923096,101.79492200000004,104.74365200000011,98.9741210000002,96.15380900000036,88.46142599999985,132.82031300000017,-332.4357909999994,97.30761700000039
97,127.43603499999972,150.38476599999922,119.48730499999965,159.3588869999994,115.25634799999989,-466.15380900000036,102.94873000000007,107.30761700000039,99.87158199999976,96.9228520000006,91.15380900000036,128.9741210000002,-333.33325200000036,95.51269500000035
98,119.74365200000011,134.48730499999965,109.61523400000078,148.84619099999964,108.9741210000002,-463.46142599999985,100.12841800000024,106.9228520000006,100.0,99.35888699999941,88.84619099999964,119.61523400000078,-344.2307130000004,93.46142599999985
99,111.6665039999998,120.38476599999922,101.9228520000006,142.82031300000017,100.0,-460.0,96.6665039999998,104.35888699999941,99.35888699999941,101.15380900000036,86.0258789999998,112.56396500000028,-356.79492200000004,95.38476599999922
100,110.76904300000024,117.56396500000028,102.30761700000039,149.10253900000043,96.79492200000004,-451.53857400000015,96.41015599999992,103.0771479999994,99.23095699999976,101.15380900000036,87.56396500000028,114.48730499999965,-361.28198199999997,99.61523400000078
101,119.48730499999965,127.82031300000017,111.6665039999998,165.51269500000035,103.3334960000002,-437.179443,100.38476599999922,105.64111300000059,100.89746099999957,100.12841800000024,95.38476599999922,125.51269500000035,-354.2307130000004,100.12841800000024
102,131.79492200000004,142.82031300000017,123.58984400000008,181.15380900000036,113.9741210000002,-421.79492200000004,105.25634799999989,110.51269500000035,103.58984400000008,99.61523400000078,106.15380900000036,139.10253900000043,-341.923096,96.79492200000004
103,137.3076170000004,149.3588869999994,128.7177729999994,183.7177729999994,116.53857400000015,-412.4357909999994,105.89746099999957,112.05126999999993,105.12841800000024,99.35888699999941,112.43603499999972,145.89746099999957,-335.2563479999999,96.0258789999998
104,129.48730499999965,139.7436520000001,121.53857400000015,170.38476599999922,103.20507799999996,-413.076904,99.48730499999965,106.0258789999998,103.3334960000002,98.46142599999985,108.9741210000002,140.0,-340.64111300000013,99.23095699999976
105,112.43603499999972,118.84619099999964,106.15380900000036,149.7436520000001,79.74365200000011,-420.1281740000004,89.35888699999941,96.0258789999998,99.48730499999965,97.69238299999961,97.56396500000028,124.87158199999976,-354.2307130000004,100.51269500000035
106,99.23095699999976,100.64111300000059,93.20507799999996,135.76904300000024,63.7177729999994,-424.102539,82.69238299999961,90.76904300000024,98.46142599999985,100.0,87.43603499999972,111.79492200000004,-363.84619099999964,97.43603499999972
107,100.51269500000035,96.53857400000015,92.30761700000039,136.2822270000006,70.25634799999989,-416.41015600000037,84.61523400000078,96.0258789999998,103.58984400000008,107.56396500000028,87.05126999999993,111.41015599999992,-361.15380900000036,95.51269500000035
108,115.0,106.6665039999998,102.82031300000017,148.0771479999994,98.58984400000008,-397.3076170000004,93.46142599999985,109.23095699999976,111.9228520000006,118.20507799999996,97.30761700000039,123.84619099999964,-348.58984399999963,98.0771479999994
109,130.89746099999957,120.38476599999922,115.89746099999957,160.89746099999957,130.76904300000024,-376.02563499999997,101.15380900000036,122.30761700000039,116.53857400000015,125.0,110.38476599999922,138.58984400000008,-337.820557,100.38476599999922
110,135.51269500000035,125.38476599999922,121.0258789999998,166.0258789999998,145.6411130000006,-363.20507799999996,101.15380900000036,127.56396500000028,112.82031300000017,122.82031300000017,116.15380900000036,142.94873000000007,-338.84619099999964,97.82031300000017
111,125.89746099999957,117.69238299999961,115.51269500000035,162.43603499999972,136.41015599999992,-361.53857400000015,93.9741210000002,124.23095699999976,103.20507799999996,113.46142599999985,111.0258789999998,134.23095699999976,-351.53857400000015,94.35888699999941
112,110.38476599999922,104.74365200000011,104.87158199999976,156.0258789999998,115.0,-363.58984399999963,87.05126999999993,117.82031300000017,95.12841800000024,105.0,100.25634799999989,120.38476599999922,-366.66674799999964,95.38476599999922
113,101.0258789999998,97.82031300000017,97.94873000000007,153.46142599999985,99.74365200000011,-359.2307130000004,87.69238299999961,115.25634799999989,94.87158199999976,104.23095699999976,92.94873000000007,113.0771479999994,-373.46142599999985,98.0771479999994
114,102.69238299999961,102.43603499999972,98.9741210000002,155.51269500000035,100.25634799999989,-345.897461,96.6665039999998,118.9741210000002,102.82031300000017,110.76904300000024,94.61523400000078,116.9228520000006,-368.46142599999985,96.79492200000004
115,111.2822270000006,112.82031300000017,105.38476599999922,158.46142599999985,112.05126999999993,-330.7692869999996,107.69238299999961,125.76904300000024,113.0771479999994,117.82031300000017,103.46142599999985,127.05126999999993,-357.179443,93.7177729999994
116,118.58984400000008,117.69238299999961,111.0258789999998,158.0771479999994,123.7177729999994,-322.820557,113.58984400000008,130.51269500000035,118.9741210000002,120.12841800000024,112.69238299999961,134.48730499999965,-347.9487299999996,94.23095699999976
117,118.58984400000008,109.87158199999976,111.41015599999992,153.7177729999994,126.53857400000015,-324.8718259999996,111.53857400000015,130.2563479999999,116.9228520000006,117.05126999999993,115.25634799999989,133.0771479999994,-347.4357909999994,97.05126999999993
118,111.15380900000036,91.53857400000015,105.89746099999957,147.6923829999996,117.94873000000007,-331.66674799999964,104.10253900000043,126.0258789999998,109.23095699999976,110.0,107.69238299999961,123.20507799999996,-356.41015600000037,96.15380900000036
119,100.25634799999989,72.17968800000017,97.69238299999961,142.82031300000017,101.53857400000015,-335.5129390000002,97.05126999999993,120.89746099999957,101.15380900000036,100.25634799999989,92.82031300000017,110.76904300000024,-370.5129390000002,91.53857400000015
120,92.05126999999993,60.897460999999566,91.41015599999992,140.76904300000024,84.48730499999965,-331.41015600000037,94.48730499999965,117.30761700000039,97.17968800000017,89.74365200000011,78.84619099999964,103.0771479999994,-382.4357909999994,90.25634799999989
121,91.2822270000006,62.05126999999993,90.89746099999957,142.17968800000017,75.38476599999922,-320.1281740000004,97.30761700000039,115.64111300000059,98.20507799999996,81.9228520000006,74.23095699999976,104.35888699999941,-385.2563479999999,93.46142599999985
122,98.58984400000008,72.56396500000028,96.6665039999998,146.2822270000006,79.23095699999976,-306.41015600000037,102.82031300000017,115.51269500000035,101.41015599999992,80.51269500000035,82.17968800000017,112.82031300000017,-376.53857400000015,95.51269500000035
123,109.87158199999976,84.35888699999941,105.64111300000059,151.15380900000036,93.7177729999994,-295.0,107.30761700000039,116.0258789999998,103.3334960000002,87.56396500000028,97.30761700000039,122.69238299999961,-360.5129390000002,93.9741210000002
124,118.0771479999994,88.9741210000002,113.3334960000002,153.9741210000002,110.0,-288.46142599999985,107.56396500000028,116.6665039999998,101.9228520000006,101.2822270000006,110.64111300000059,128.3334960000002,-345.897461,93.7177729999994
125,118.58984400000008,83.58984400000008,116.15380900000036,152.94873000000007,118.58984400000008,-285.5129390000002,103.7177729999994,117.56396500000028,98.20507799999996,117.05126999999993,115.64111300000059,127.69238299999961,-339.61547900000005,96.41015599999992
126,112.69238299999961,72.05126999999993,113.84619099999964,148.84619099999964,117.05126999999993,-282.179443,99.10253900000043,119.10253900000043,96.41015599999992,129.48730499999965,112.30761700000039,123.9741210000002,-342.0512700000004,96.79492200000004
127,106.53857400000015,61.79492200000004,109.35888699999941,144.48730499999965,111.6665039999998,-275.7692869999996,97.82031300000017,121.9228520000006,99.74365200000011,134.48730499999965,106.79492200000004,122.17968800000017,-347.6923829999996,92.05126999999993
128,106.0258789999998,58.20507799999996,106.41015599999992,143.20507799999996,111.41015599999992,-266.79492200000004,101.0258789999998,125.38476599999922,107.82031300000017,131.79492200000004,105.12841800000024,125.12841800000024,-350.2563479999999,88.3334960000002
129,110.76904300000024,61.025878999999804,106.15380900000036,145.76904300000024,117.82031300000017,-258.58984399999963,105.51269500000035,127.56396500000028,115.51269500000035,124.35888699999941,108.58984400000008,130.6411130000006,-348.33325200000036,91.2822270000006
130,115.25634799999989,64.35888699999941,106.2822270000006,148.58984400000008,121.9228520000006,-254.35888699999987,105.51269500000035,124.87158199999976,116.6665039999998,115.64111300000059,111.9228520000006,133.0771479999994,-345.897461,96.53857400000015
131,112.43603499999972,61.79492200000004,103.7177729999994,146.79492200000004,111.79492200000004,-255.89746100000002,97.69238299999961,115.25634799999989,108.46142599999985,107.94873000000007,109.10253900000043,127.94873000000007,-348.076904,96.79492200000004
132,101.53857400000015,51.9228520000006,97.82031300000017,138.46142599999985,85.64111300000059,-261.53857400000015,84.10253900000043,100.12841800000024,93.9741210000002,102.17968800000017,99.23095699999976,116.15380900000036,-355.64111300000013,93.58984400000008
133,89.10253900000043,40.64111300000059,91.53857400000015,128.46142599999985,56.153809000000365,-266.66674799999964,72.43603499999972,86.15380900000036,80.76904300000024,97.69238299999961,88.3334960000002,104.35888699999941,-362.9487299999996,93.46142599999985
134,85.12841800000024,36.2822270000006,89.87158199999976,124.48730499999965,44.102539000000434,-265.5129390000002,70.38476599999922,81.0258789999998,75.0,94.10253900000043,84.87158199999976,100.51269500000035,-362.179443,96.79492200000004
135,93.7177729999994,43.0771479999994,95.25634799999989,130.6411130000006,61.53857400000015,-255.2563479999999,80.25634799999989,88.3334960000002,78.46142599999985,91.9228520000006,93.20507799999996,108.20507799999996,-350.38452099999995,98.3334960000002
136,109.74365200000011,56.410155999999915,106.0258789999998,142.94873000000007,100.89746099999957,-238.71801800000003,95.76904300000024,104.23095699999976,88.3334960000002,93.3334960000002,109.48730499999965,123.3334960000002,-333.20507799999996,97.82031300000017
137,122.05126999999993,65.89746099999957,115.64111300000059,152.94873000000007,138.20507799999996,-223.58984399999963,107.30761700000039,119.35888699999941,99.35888699999941,99.87158199999976,124.48730499999965,136.41015599999992,-320.7692869999996,99.10253900000043
138,121.9228520000006,63.20507799999996,117.69238299999961,153.46142599999985,150.51269500000035,-216.79492200000004,108.3334960000002,125.25634799999989,106.6665039999998,109.35888699999941,129.48730499999965,139.23095699999976,-319.61547900000005,101.79492200000004
139,109.74365200000011,48.0771479999994,110.51269500000035,144.48730499999965,132.82031300000017,-219.35888699999987,100.0,120.12841800000024,107.17968800000017,116.0258789999998,121.9228520000006,130.2563479999999,-328.33325200000036,100.25634799999989
140,94.61523400000078,28.461425999999847,99.10253900000043,132.17968800000017,101.0258789999998,-225.5129390000002,89.48730499999965,109.74365200000011,102.05126999999993,115.12841800000024,107.43603499999972,116.2822270000006,-339.35888699999987,94.61523400000078
141,86.2822270000006,14.615234000000783,90.64111300000059,123.7177729999994,77.43603499999972,-228.71801800000003,83.20507799999996,101.9228520000006,95.25634799999989,105.38476599999922,95.76904300000024,106.41015599999992,-345.1281740000004,91.79492200000004
142,88.46142599999985,12.17968800000017,89.10253900000043,122.56396500000028,73.7177729999994,-225.76928699999962,82.43603499999972,100.89746099999957,91.0258789999998,89.87158199999976,93.20507799999996,105.0,-343.46142599999985,94.23095699999976
143,97.05126999999993,19.615234000000783,92.82031300000017,127.69238299999961,84.87158199999976,-217.9487299999996,84.23095699999976,105.38476599999922,91.53857400000015,76.0258789999998,99.23095699999976,110.12841800000024,-337.179443,95.64111300000059
144,105.25634799999989,30.769043000000238,97.43603499999972,135.38476599999922,96.6665039999998,-208.46142599999985,85.38476599999922,111.41015599999992,96.41015599999992,74.10253900000043,108.20507799999996,116.41015599999992,-330.1281740000004,92.43603499999972
145,107.69238299999961,38.46142599999985,98.46142599999985,141.15380900000036,97.94873000000007,-200.64111300000013,84.87158199999976,115.0,103.7177729999994,89.23095699999976,113.9741210000002,119.35888699999941,-324.8718259999996,89.74365200000011
146,102.30761700000039,38.589844000000085,94.35888699999941,141.0258789999998,88.58984400000008,-195.76928699999962,83.7177729999994,114.87158199999976,109.74365200000011,113.84619099999964,113.20507799999996,116.9228520000006,-323.58984399999963,92.17968800000017
147,90.64111300000059,30.384765999999217,86.53857400000015,134.3588869999994,77.30761700000039,-193.076904,82.94873000000007,111.79492200000004,110.51269500000035,130.89746099999957,106.15380900000036,109.74365200000011,-326.66674799999964,95.38476599999922
148,77.94873000000007,17.56396500000028,79.10253900000043,124.35888699999941,73.84619099999964,-189.7436520000001,83.20507799999996,107.94873000000007,105.12841800000024,128.84619099999964,96.9228520000006,101.15380900000036,-332.6923829999996,93.20507799999996
149,71.0258789999998,5.897460999999566,76.41015599999992,117.17968800000017,81.0258789999998,-183.84619099999964,85.64111300000059,105.89746099999957,97.69238299999961,112.30761700000039,91.41015599999992,96.15380900000036,-337.3076170000004,88.58984400000008
150,74.10253900000043,0.6411130000005869,80.0,117.17968800000017,92.43603499999972,-175.76928699999962,90.0,107.17968800000017,94.74365200000011,95.64111300000059,93.58984400000008,97.56396500000028,-335.897461,88.20507799999996
151,84.35888699999941,2.0512699999999313,86.6665039999998,123.0771479999994,98.58984400000008,-168.33325200000036,94.61523400000078,111.15380900000036,97.82031300000017,88.20507799999996,101.41015599999992,103.58984400000008,-328.33325200000036,91.2822270000006
152,93.7177729999994,6.025878999999804,91.15380900000036,128.84619099999964,95.25634799999989,-163.71801800000003,97.17968800000017,114.74365200000011,102.69238299999961,88.3334960000002,108.3334960000002,108.7177729999994,-320.2563479999999,92.56396500000028
153,94.48730499999965,7.307617000000391,89.35888699999941,128.46142599999985,85.38476599999922,-161.66674799999964,96.6665039999998,115.25634799999989,103.20507799999996,89.87158199999976,108.20507799999996,108.3334960000002,-317.820557,91.79492200000004
154,86.0258789999998,3.3334960000001956,82.56396500000028,121.15380900000036,76.6665039999998,-159.35888699999987,93.58984400000008,111.9228520000006,98.7177729999994,90.0,101.2822270000006,102.05126999999993,-322.9487299999996,92.82031300000017
155,75.89746099999957,-2.5639650000002803,76.41015599999992,111.9228520000006,75.64111300000059,-154.8718259999996,90.51269500000035,107.43603499999972,93.58984400000008,90.38476599999922,94.10253900000043,94.61523400000078,-329.4870609999998,94.74365200000011
156,73.84619099999964,-4.102538999999979,77.17968800000017,109.23095699999976,83.9741210000002,-147.3076170000004,90.0,105.89746099999957,93.0771479999994,94.23095699999976,93.9741210000002,92.82031300000017,-328.84619099999964,92.69238299999961
157,84.48730499999965,2.8203130000001693,86.53857400000015,117.05126999999993,96.6665039999998,-137.56420900000057,93.7177729999994,110.38476599999922,98.7177729999994,101.9228520000006,102.56396500000028,100.64111300000059,-316.79492200000004,88.0771479999994
158,102.56396500000028,14.871581999999762,100.12841800000024,131.41015599999992,105.25634799999989,-127.82055700000001,100.38476599999922,119.10253900000043,107.30761700000039,111.15380900000036,115.25634799999989,115.51269500000035,-298.71801800000003,87.94873000000007
159,116.15380900000036,23.205077999999958,110.64111300000059,142.05126999999993,102.69238299999961,-121.79492200000004,105.25634799999989,126.41015599999992,112.82031300000017,117.56396500000028,123.20507799999996,128.3334960000002,-285.897461,93.0771479999994
160,116.0258789999998,20.128418000000238,112.17968800000017,141.9228520000006,89.48730499999965,-122.94872999999961,103.58984400000008,126.6665039999998,110.38476599999922,117.69238299999961,120.89746099999957,130.51269500000035,-287.0512700000004,95.64111300000059
161,102.94873000000007,6.153809000000365,105.0,132.82031300000017,74.48730499999965,-130.64111300000013,94.48730499999965,119.10253900000043,100.25634799999989,112.17968800000017,109.74365200000011,120.64111300000059,-300.64111300000013,92.30761700000039
162,87.56396500000028,-8.974365000000034,95.89746099999957,123.46142599999985,68.9741210000002,-139.10253899999998,83.7177729999994,109.35888699999941,88.9741210000002,106.0258789999998,97.82031300000017,106.9228520000006,-315.7692869999996,89.10253900000043
163,81.41015599999992,-14.230713000000378,92.69238299999961,121.53857400000015,77.69238299999961,-140.76928699999962,78.46142599999985,104.61523400000078,83.84619099999964,103.58984400000008,93.7177729999994,100.0,-320.38452099999995,91.15380900000036
164,87.43603499999972,-6.923095999999987,97.17968800000017,126.6665039999998,93.9741210000002,-132.820557,81.6665039999998,106.79492200000004,86.79492200000004,105.0,99.10253900000043,103.84619099999964,-311.923096,94.48730499999965
165,97.69238299999961,4.871581999999762,104.10253900000043,131.6665039999998,104.87158199999976,-119.10253899999998,89.35888699999941,110.76904300000024,92.17968800000017,106.0258789999998,107.05126999999993,112.69238299999961,-299.2307130000004,93.84619099999964
166,100.64111300000059,9.358886999999413,106.15380900000036,130.0,101.15380900000036,-106.53857400000015,94.61523400000078,110.25634799999989,92.82031300000017,103.46142599999985,108.3334960000002,117.17968800000017,-294.8718259999996,92.17968800000017
167,92.94873000000007,1.7949220000000423,100.89746099999957,122.56396500000028,86.15380900000036,-99.48706099999981,93.9741210000002,104.74365200000011,88.46142599999985,98.9741210000002,100.0,112.82031300000017,-303.076904,94.23095699999976
168,81.53857400000015,-11.538574000000153,93.0771479999994,116.41015599999992,71.9228520000006,-96.79492200000004,90.0,100.12841800000024,85.12841800000024,97.05126999999993,88.3334960000002,104.23095699999976,-316.28198199999997,97.17968800000017
169,76.79492200000004,-19.74365200000011,90.12841800000024,117.69238299999961,69.61523400000078,-94.61547900000005,87.56396500000028,102.56396500000028,89.10253900000043,99.61523400000078,83.20507799999996,100.12841800000024,-322.179443,96.0258789999998
170,83.3334960000002,-16.923095999999987,95.76904300000024,126.15380900000036,81.41015599999992,-89.35888699999987,90.0,112.17968800000017,99.74365200000011,103.84619099999964,89.74365200000011,105.76904300000024,-315.1281740000004,92.69238299999961
171,96.6665039999998,-6.41015600000037,107.17968800000017,136.2822270000006,99.23095699999976,-81.15380900000036,96.6665039999998,123.0771479999994,110.12841800000024,105.76904300000024,103.9741210000002,118.84619099999964,-300.2563479999999,92.82031300000017
172,107.69238299999961,3.2050779999999577,117.82031300000017,142.56396500000028,112.05126999999993,-73.07690400000001,103.7177729999994,128.46142599999985,112.82031300000017,104.10253900000043,115.76904300000024,130.76904300000024,-287.5642090000006,95.51269500000035
173,110.0,6.153809000000365,121.6665039999998,143.20507799999996,112.82031300000017,-68.58984399999963,106.6665039999998,125.64111300000059,106.0258789999998,100.76904300000024,116.9228520000006,134.23095699999976,-283.33325200000036,94.48730499999965
174,103.46142599999985,2.8203130000001693,118.0771479999994,140.38476599999922,102.82031300000017,-68.71801800000003,104.48730499999965,117.94873000000007,95.25634799999989,98.3334960000002,107.30761700000039,127.94873000000007,-286.28198199999997,90.12841800000024
175,93.7177729999994,-1.9228520000006029,110.38476599999922,136.2822270000006,89.87158199999976,-71.28198199999997,100.0,111.2822270000006,87.94873000000007,97.43603499999972,94.48730499999965,117.30761700000039,-289.7436520000001,88.84619099999964
176,87.43603499999972,-4.871825999999601,103.46142599999985,132.82031300000017,82.82031300000017,-72.94872999999961,96.9228520000006,109.61523400000078,88.0771479999994,97.82031300000017,87.05126999999993,108.58984400000008,-288.71801800000003,91.9228520000006
177,86.79492200000004,-6.538574000000153,99.87158199999976,129.7436520000001,84.87158199999976,-71.79492200000004,96.53857400000015,112.56396500000028,93.46142599999985,99.10253900000043,88.46142599999985,104.35888699999941,-283.33325200000036,93.7177729999994
178,88.9741210000002,-10.0,99.10253900000043,126.53857400000015,92.43603499999972,-68.71801800000003,97.17968800000017,116.53857400000015,98.9741210000002,101.9228520000006,95.0,102.56396500000028,-278.20507799999996,92.30761700000039
179,89.61523400000078,-16.666747999999643,99.48730499999965,123.20507799999996,98.0771479999994,-65.38452099999995,96.9228520000006,118.3334960000002,100.51269500000035,107.56396500000028,100.64111300000059,100.64111300000059,-277.4357909999994,92.43603499999972
180,87.56396500000028,-23.333252000000357,99.61523400000078,120.76904300000024,96.41015599999992,-61.79492200000004,96.2822270000006,118.3334960000002,98.9741210000002,115.76904300000024,101.6665039999998,99.35888699999941,-280.1281740000004,96.6665039999998
181,84.87158199999976,-25.38452099999995,99.48730499999965,120.12841800000024,87.94873000000007,-56.153809000000365,97.43603499999972,119.10253900000043,98.3334960000002,123.20507799999996,99.35888699999941,100.64111300000059,-281.28198199999997,99.23095699999976
182,84.35888699999941,-21.538574000000153,99.61523400000078,120.89746099999957,77.94873000000007,-48.33325200000036,100.12841800000024,121.41015599999992,101.79492200000004,125.25634799999989,97.30761700000039,104.87158199999976,-276.41015600000037,96.2822270000006
183,85.76904300000024,-15.256347999999889,99.23095699999976,120.89746099999957,72.30761700000039,-41.28198199999997,101.15380900000036,122.82031300000017,108.0771479999994,120.25634799999989,97.56396500000028,108.7177729999994,-266.79492200000004,92.43603499999972
184,86.41015599999992,-12.564209000000574,96.2822270000006,118.9741210000002,73.84619099999964,-39.74365200000011,97.17968800000017,119.87158199999976,111.0258789999998,109.35888699999941,98.58984400000008,108.3334960000002,-258.20507799999996,93.0771479999994
185,83.9741210000002,-16.153809000000365,89.74365200000011,116.41015599999992,80.64111300000059,-44.10253899999998,89.23095699999976,111.9228520000006,106.0258789999998,94.87158199999976,97.56396500000028,102.30761700000039,-256.15380900000036,95.12841800000024
186,79.74365200000011,-23.846190999999635,82.17968800000017,115.64111300000059,88.46142599999985,-49.61547900000005,82.17968800000017,102.43603499999972,94.10253900000043,80.51269500000035,94.10253900000043,93.84619099999964,-260.7692869999996,93.58984400000008
187,76.79492200000004,-30.641113000000132,77.56396500000028,117.56396500000028,92.94873000000007,-49.61547900000005,80.64111300000059,96.79492200000004,82.82031300000017,71.2822270000006,90.64111300000059,88.20507799999996,-266.923096,90.64111300000059
188,78.3334960000002,-31.794922000000042,78.9741210000002,121.53857400000015,92.94873000000007,-41.53857400000015,86.0258789999998,98.3334960000002,80.12841800000024,72.17968800000017,90.25634799999989,89.23095699999976,-268.46142599999985,91.15380900000036
189,85.25634799999989,-26.41015600000037,86.15380900000036,126.2822270000006,91.53857400000015,-28.205077999999958,95.89746099999957,106.2822270000006,88.84619099999964,84.35888699999941,93.58984400000008,97.05126999999993,-261.66674799999964,92.82031300000017
190,95.89746099999957,-17.051270000000386,96.15380900000036,131.2822270000006,94.23095699999976,-15.38452099999995,105.51269500000035,117.05126999999993,103.58984400000008,102.56396500000028,98.7177729999994,107.56396500000028,-248.58984399999963,90.89746099999957
191,105.25634799999989,-8.846190999999635,104.35888699999941,135.6411130000006,102.94873000000007,-8.205077999999958,110.76904300000024,126.0258789999998,115.0,119.10253900000043,102.82031300000017,115.64111300000059,-235.76928699999962,87.30761700000039
192,108.58984400000008,-6.794922000000042,107.05126999999993,137.17968800000017,112.69238299999961,-8.205077999999958,109.23095699999976,129.87158199999976,116.41015599999992,127.30761700000039,104.61523400000078,118.0771479999994,-229.10253899999998,89.10253900000043
193,104.23095699999976,-11.794922000000042,103.7177729999994,133.9741210000002,114.10253900000043,-12.564209000000574,102.30761700000039,127.30761700000039,108.20507799999996,124.48730499999965,104.48730499999965,115.38476599999922,-230.76928699999962,95.51269500000035
194,95.25634799999989,-20.769286999999622,96.41015599999992,127.17968800000017,101.41015599999992,-17.179442999999992,93.58984400000008,119.74365200000011,96.9228520000006,112.56396500000028,103.58984400000008,109.48730499999965,-237.9487299999996,98.46142599999985
195,86.6665039999998,-29.487060999999812,87.94873000000007,119.87158199999976,78.58984400000008,-19.8718259999996,86.2822270000006,109.74365200000011,89.35888699999941,97.82031300000017,101.6665039999998,103.0771479999994,-246.41015600000037,95.38476599999922
196,82.30761700000039,-34.8718259999996,81.2822270000006,115.64111300000059,58.46142599999985,-21.025634999999966,81.6665039999998,100.64111300000059,87.56396500000028,87.30761700000039,97.82031300000017,97.69238299999961,-252.3076170000004,92.17968800000017
197,83.58984400000008,-34.61547900000005,77.94873000000007,116.53857400000015,54.35888699999941,-20.512939000000188,80.51269500000035,95.89746099999957,89.48730499999965,85.76904300000024,92.94873000000007,94.87158199999976,-253.076904,92.82031300000017
198,89.74365200000011,-28.58984399999963,79.10253900000043,122.05126999999993,69.10253900000043,-17.69238299999961,82.94873000000007,97.94873000000007,92.56396500000028,92.56396500000028,90.12841800000024,96.15380900000036,-248.58984399999963,93.20507799999996
199,97.69238299999961,-19.487060999999812,84.10253900000043,129.10253900000043,91.41015599999992,-12.307617000000391,87.94873000000007,106.2822270000006,96.15380900000036,102.69238299999961,92.17968800000017,101.6665039999998,-240.5129390000002,90.51269500000035
200,102.56396500000028,-12.820557000000008,90.0,133.20507799999996,103.58984400000008,-6.281981999999971,91.79492200000004,116.53857400000015,100.64111300000059,109.74365200000011,98.20507799999996,108.58984400000008,-232.43579099999943,89.61523400000078
201,101.53857400000015,-12.179442999999992,93.84619099999964,131.2822270000006,97.05126999999993,-0.769043000000238,91.15380900000036,122.94873000000007,105.25634799999989,109.61523400000078,104.23095699999976,113.20507799999996,-227.56420900000057,93.46142599999985
202,96.9228520000006,-16.025634999999966,94.48730499999965,125.64111300000059,80.0,4.743652000000111,86.79492200000004,122.43603499999972,107.69238299999961,103.0771479999994,106.2822270000006,113.7177729999994,-225.89746100000002,97.05126999999993
203,94.35888699999941,-18.461425999999847,94.23095699999976,122.17968800000017,70.12841800000024,12.051269999999931,83.3334960000002,117.05126999999993,106.41015599999992,95.38476599999922,105.25634799999989,112.05126999999993,-224.35888699999987,95.51269500000035
204,97.56396500000028,-15.1281740000004,96.0258789999998,124.74365200000011,78.9741210000002,21.538574000000153,85.25634799999989,111.9228520000006,102.69238299999961,92.94873000000007,104.74365200000011,111.6665039999998,-220.0,92.69238299999961
205,104.87158199999976,-7.179442999999992,100.0,131.79492200000004,102.05126999999993,31.153809000000365,93.0771479999994,110.89746099999957,99.23095699999976,97.94873000000007,107.69238299999961,114.35888699999941,-213.58984399999963,95.12841800000024
206,111.41015599999992,-0.38476599999921746,102.82031300000017,137.94873000000007,122.94873000000007,37.94873000000007,102.30761700000039,113.46142599999985,98.3334960000002,106.2822270000006,112.43603499999972,118.7177729999994,-208.076904,100.0
207,113.84619099999964,0.512695000000349,101.0258789999998,138.46142599999985,127.17968800000017,39.35888699999941,107.69238299999961,115.76904300000024,99.10253900000043,110.76904300000024,115.51269500000035,122.05126999999993,-205.89746100000002,100.12841800000024
208,112.17968800000017,-4.487060999999812,95.12841800000024,132.94873000000007,112.94873000000007,35.51269500000035,106.6665039999998,115.0,99.10253900000043,106.6665039999998,114.10253900000043,122.30761700000039,-207.6923829999996,95.76904300000024
209,109.35888699999941,-10.769286999999622,89.10253900000043,126.15380900000036,92.30761700000039,30.25634799999989,101.41015599999992,111.2822270000006,97.43603499999972,95.89746099999957,109.61523400000078,120.25634799999989,-211.53857400000015,93.0771479999994
210,108.58984400000008,-12.692382999999609,87.82031300000017,123.7177729999994,80.64111300000059,28.589844000000085,97.17968800000017,108.46142599999985,96.15380900000036,87.17968800000017,106.15380900000036,118.46142599999985,-214.61547900000005,93.58984400000008
211,110.64111300000059,-8.71801800000003,91.9228520000006,127.30761700000039,84.10253900000043,32.05126999999993,96.9228520000006,109.48730499999965,98.58984400000008,90.76904300000024,107.17968800000017,118.46142599999985,-214.61547900000005,93.20507799999996
212,113.3334960000002,-2.6923829999996087,97.82031300000017,134.10253900000043,94.87158199999976,37.17968800000017,100.0,113.84619099999964,106.15380900000036,108.9741210000002,112.56396500000028,120.12841800000024,-211.66674799999964,91.6665039999998
213,113.3334960000002,-0.12841800000023795,100.12841800000024,138.7177729999994,100.0,39.48730499999965,102.43603499999972,118.3334960000002,115.76904300000024,132.56396500000028,118.46142599999985,121.6665039999998,-207.9487299999996,93.3334960000002
214,109.87158199999976,-2.5639650000002803,96.6665039999998,138.3334960000002,94.35888699999941,38.974121000000196,101.9228520000006,120.64111300000059,121.2822270000006,144.7436520000001,120.89746099999957,121.53857400000015,-205.1281740000004,97.69238299999961
215,105.89746099999957,-6.666747999999643,90.38476599999922,133.84619099999964,85.12841800000024,40.38476599999922,100.0,121.53857400000015,118.20507799999996,136.0258789999998,119.23095699999976,120.76904300000024,-203.33325200000036,97.56396500000028
216,105.25634799999989,-7.692382999999609,87.30761700000039,128.84619099999964,83.9741210000002,47.69238299999961,100.89746099999957,124.10253900000043,108.46142599999985,112.43603499999972,115.89746099999957,121.79492200000004,-200.89746100000002,91.9228520000006
217,109.61523400000078,-4.61547900000005,91.15380900000036,127.30761700000039,94.23095699999976,59.87158199999976,107.43603499999972,129.23095699999976,99.74365200000011,92.69238299999961,114.10253900000043,126.15380900000036,-197.3076170000004,88.7177729999994
218,116.15380900000036,-1.4101559999999154,99.48730499999965,129.87158199999976,106.9228520000006,70.51269500000035,116.9228520000006,133.9741210000002,97.94873000000007,91.41015599999992,114.35888699999941,131.79492200000004,-195.0,93.0771479999994
219,118.46142599999985,-3.5898440000000846,104.74365200000011,132.6923829999996,109.61523400000078,73.9741210000002,122.05126999999993,133.9741210000002,101.9228520000006,107.17968800000017,113.84619099999964,134.23095699999976,-197.179443,98.9741210000002
220,111.9228520000006,-13.461425999999847,101.2822270000006,131.0258789999998,97.82031300000017,68.7177729999994,116.41015599999992,126.79492200000004,104.61523400000078,122.56396500000028,109.74365200000011,129.48730499999965,-205.64111300000013,99.35888699999941
221,97.69238299999961,-26.666747999999643,90.25634799999989,123.0771479999994,79.35888699999941,59.48730499999965,101.0258789999998,113.58984400000008,101.0258789999998,120.12841800000024,101.9228520000006,118.7177729999994,-217.56420900000057,95.89746099999957
222,83.3334960000002,-35.64111300000013,78.84619099999964,112.17968800000017,66.79492200000004,53.0771479999994,84.74365200000011,99.61523400000078,92.69238299999961,97.56396500000028,94.10253900000043,107.17968800000017,-227.3076170000004,94.23095699999976
223,76.9228520000006,-35.0,74.74365200000011,105.38476599999922,67.43603499999972,54.35888699999941,77.30761700000039,90.51269500000035,85.76904300000024,71.2822270000006,90.12841800000024,101.15380900000036,-228.97436500000003,93.7177729999994
224,81.15380900000036,-26.41015600000037,79.61523400000078,107.17968800000017,77.94873000000007,62.56396500000028,82.17968800000017,89.74365200000011,85.89746099999957,62.69238299999961,91.6665039999998,103.20507799999996,-221.02563499999997,91.0258789999998
225,91.79492200000004,-17.30761700000039,88.84619099999964,115.76904300000024,88.0771479999994,72.05126999999993,94.48730499999965,96.79492200000004,93.20507799999996,80.51269500000035,96.6665039999998,111.15380900000036,-208.076904,89.35888699999941
226,101.41015599999992,-13.974365000000034,95.51269500000035,125.25634799999989,90.12841800000024,77.05126999999993,105.0,107.56396500000028,103.3334960000002,112.56396500000028,102.05126999999993,119.48730499999965,-196.79492200000004,93.20507799999996
227,104.48730499999965,-17.30761700000039,96.6665039999998,129.23095699999976,86.15380900000036,76.6665039999998,107.30761700000039,116.2822270000006,109.23095699999976,135.2563479999999,105.76904300000024,122.94873000000007,-192.3076170000004,99.10253900000043
228,100.38476599999922,-23.076904000000013,93.20507799999996,125.0,83.0771479999994,74.48730499999965,101.41015599999992,118.0771479999994,106.2822270000006,133.0771479999994,106.41015599999992,119.61523400000078,-194.8718259999996,98.9741210000002
229,92.43603499999972,-27.179442999999992,88.46142599999985,114.87158199999976,83.9741210000002,74.35888699999941,91.53857400000015,110.76904300000024,94.87158199999976,110.25634799999989,103.3334960000002,110.89746099999957,-201.79492200000004,93.0771479999994
230,85.76904300000024,-28.974365000000034,84.23095699999976,104.10253900000043,84.74365200000011,75.76904300000024,82.82031300000017,97.43603499999972,81.41015599999992,86.0258789999998,97.69238299999961,101.2822270000006,-208.71801800000003,89.23095699999976
231,84.10253900000043,-29.10253899999998,81.53857400000015,98.46142599999985,79.48730499999965,76.0258789999998,77.94873000000007,85.0,73.20507799999996,76.6665039999998,93.0771479999994,95.64111300000059,-211.41015600000037,90.12841800000024
232,88.20507799999996,-27.69238299999961,80.76904300000024,101.0258789999998,68.58984400000008,74.48730499999965,77.94873000000007,80.38476599999922,73.84619099999964,82.43603499999972,92.56396500000028,96.79492200000004,-207.3076170000004,91.41015599999992
233,95.38476599999922,-23.846190999999635,82.30761700000039,109.74365200000011,61.2822270000006,74.48730499999965,82.56396500000028,86.0258789999998,81.9228520000006,91.6665039999998,97.30761700000039,104.48730499999965,-196.79492200000004,90.64111300000059
234,102.05126999999993,-17.948729999999614,86.0258789999998,119.23095699999976,67.82031300000017,79.87158199999976,90.76904300000024,97.82031300000017,92.94873000000007,94.23095699999976,104.87158199999976,114.87158199999976,-183.33325200000036,92.43603499999972
235,105.51269500000035,-12.564209000000574,90.38476599999922,124.35888699999941,88.46142599999985,90.89746099999957,99.48730499999965,107.82031300000017,101.41015599999992,91.41015599999992,110.89746099999957,122.69238299999961,-171.41015600000037,98.0771479999994
236,104.23095699999976,-11.28198199999997,92.30761700000039,123.0771479999994,110.51269500000035,102.82031300000017,104.61523400000078,110.0,103.46142599999985,91.41015599999992,111.79492200000004,123.20507799999996,-165.64111300000013,101.15380900000036
237,98.46142599999985,-16.794922000000042,89.61523400000078,116.79492200000004,116.15380900000036,110.0,103.20507799999996,103.7177729999994,98.9741210000002,98.9741210000002,107.05126999999993,115.51269500000035,-168.076904,97.56396500000028
238,90.0,-27.564209000000574,83.3334960000002,108.7177729999994,98.84619099999964,109.87158199999976,96.2822270000006,94.10253900000043,90.89746099999957,110.64111300000059,99.48730499999965,103.58984400000008,-177.6923829999996,92.43603499999972
239,82.82031300000017,-38.07690400000001,77.43603499999972,103.46142599999985,69.74365200000011,105.38476599999922,88.46142599999985,88.3334960000002,83.9741210000002,117.56396500000028,93.7177729999994,94.48730499999965,-188.71801800000003,91.9228520000006
240,81.9228520000006,-41.153809000000365,77.05126999999993,104.74365200000011,50.897460999999566,103.0771479999994,85.51269500000035,91.79492200000004,82.43603499999972,114.48730499999965,94.23095699999976,94.74365200000011,-193.71801800000003,93.58984400000008
241,90.12841800000024,-33.846190999999635,84.35888699999941,112.94873000000007,56.9228520000006,107.43603499999972,90.0,103.46142599999985,88.84619099999964,105.25634799999989,101.6665039999998,105.0,-187.43579099999943,92.56396500000028
242,103.84619099999964,-19.230713000000378,95.76904300000024,123.58984400000008,82.43603499999972,116.9228520000006,99.48730499999965,117.05126999999993,101.41015599999992,99.23095699999976,112.82031300000017,119.10253900000043,-172.43579099999943,91.15380900000036
243,115.0,-6.281981999999971,103.46142599999985,129.7436520000001,105.64111300000059,124.10253900000043,107.56396500000028,125.0,113.58984400000008,101.53857400000015,120.64111300000059,127.82031300000017,-157.6923829999996,94.10253900000043
244,116.53857400000015,-2.3076170000003913,101.0258789999998,127.05126999999993,107.17968800000017,122.05126999999993,108.7177729999994,123.7177729999994,118.3334960000002,108.3334960000002,120.12841800000024,125.38476599999922,-152.0512700000004,98.7177729999994
245,108.84619099999964,-8.974365000000034,90.38476599999922,117.82031300000017,87.05126999999993,111.53857400000015,103.20507799999996,115.89746099999957,113.58984400000008,111.0258789999998,111.6665039999998,113.9741210000002,-156.79492200000004,98.46142599999985
246,99.10253900000043,-20.89746100000002,80.25634799999989,108.58984400000008,64.10253900000043,101.6665039999998,96.53857400000015,108.46142599999985,103.84619099999964,106.79492200000004,101.53857400000015,101.9228520000006,-165.0,95.0
247,95.76904300000024,-30.512939000000188,78.84619099999964,105.76904300000024,59.23095699999976,101.79492200000004,94.61523400000078,106.41015599999992,96.0258789999998,101.53857400000015,97.05126999999993,97.94873000000007,-167.6923829999996,95.12841800000024
248,100.76904300000024,-34.35888699999987,86.2822270000006,109.48730499999965,75.76904300000024,113.3334960000002,98.84619099999964,110.25634799999989,94.10253900000043,102.82031300000017,99.74365200000011,103.0771479999994,-161.923096,99.48730499999965
249,108.46142599999985,-34.48706099999981,94.87158199999976,115.0,95.76904300000024,127.94873000000007,104.74365200000011,115.64111300000059,97.05126999999993,111.53857400000015,104.87158199999976,111.0258789999998,-153.20507799999996,101.2822270000006
250,110.12841800000024,-35.0,96.53857400000015,116.2822270000006,97.17968800000017,135.0,106.2822270000006,116.9228520000006,100.89746099999957,121.15380900000036,105.89746099999957,113.46142599999985,-150.2563479999999,97.94873000000007
251,102.17968800000017,-37.82055700000001,89.48730499999965,111.41015599999992,75.0,130.89746099999957,101.41015599999992,111.9228520000006,102.17968800000017,124.35888699999941,100.12841800000024,107.43603499999972,-156.923096,94.74365200000011
252,89.74365200000011,-40.1281740000004,79.35888699999941,104.23095699999976,47.05126999999993,121.9228520000006,94.35888699999941,104.74365200000011,100.64111300000059,120.12841800000024,91.2822270000006,98.0771479999994,-168.076904,94.48730499999965
253,82.82031300000017,-37.69238299999961,74.74365200000011,100.64111300000059,39.102539000000434,119.23095699999976,91.41015599999992,102.43603499999972,99.23095699999976,112.56396500000028,86.41015599999992,93.9741210000002,-173.97436500000003,93.46142599999985
254,87.94873000000007,-28.205077999999958,80.25634799999989,104.10253900000043,62.05126999999993,129.10253900000043,95.89746099999957,109.23095699999976,101.53857400000015,106.0258789999998,90.51269500000035,100.38476599999922,-167.43579099999943,89.74365200000011
255,102.43603499999972,-15.1281740000004,93.20507799999996,112.69238299999961,102.30761700000039,147.94873000000007,105.25634799999989,121.6665039999998,108.20507799999996,101.0258789999998,102.82031300000017,115.0,-150.0,88.58984400000008
256,117.17968800000017,-5.0,106.53857400000015,121.2822270000006,132.17968800000017,165.12841800000024,113.9741210000002,131.79492200000004,116.2822270000006,97.17968800000017,116.9228520000006,129.7436520000001,-130.64111300000013,93.46142599999985
257,123.7177729999994,-2.6923829999996087,114.35888699999941,125.76904300000024,132.6923829999996,171.6665039999998,117.30761700000039,132.94873000000007,121.41015599999992,95.64111300000059,125.51269500000035,137.3076170000004,-119.10253899999998,98.3334960000002
258,121.15380900000036,-7.435790999999426,116.15380900000036,126.41015599999992,108.46142599999985,166.0258789999998,114.87158199999976,126.2822270000006,122.56396500000028,99.87158199999976,125.64111300000059,136.79492200000004,-117.82055700000001,97.43603499999972
259,115.64111300000059,-13.846190999999635,115.38476599999922,126.2822270000006,80.64111300000059,154.61523400000078,109.48730499999965,117.94873000000007,121.41015599999992,111.0258789999998,120.25634799999989,133.46142599999985,-122.05127000000039,94.23095699999976
260,112.56396500000028,-17.30761700000039,114.10253900000043,126.9228520000006,67.30761700000039,146.2822270000006,104.23095699999976,113.9741210000002,119.74365200000011,123.3334960000002,114.35888699999941,131.79492200000004,-125.64111300000013,94.87158199999976
261,112.17968800000017,-17.051270000000386,111.53857400000015,126.15380900000036,70.51269500000035,145.2563479999999,100.51269500000035,115.0,116.6665039999998,128.0771479999994,110.51269500000035,131.2822270000006,-126.53857400000015,97.69238299999961
262,109.87158199999976,-16.153809000000365,105.51269500000035,120.64111300000059,78.20507799999996,149.61523400000078,96.9228520000006,115.89746099999957,110.12841800000024,121.15380900000036,107.69238299999961,127.43603499999972,-127.94872999999961,96.6665039999998
263,102.17968800000017,-18.71801800000003,95.89746099999957,110.38476599999922,78.3334960000002,153.46142599999985,91.41015599999992,111.41015599999992,100.38476599999922,106.79492200000004,103.3334960000002,117.82031300000017,-133.20507799999996,92.94873000000007
264,91.41015599999992,-25.0,85.76904300000024,99.87158199999976,69.87158199999976,152.6923829999996,83.9741210000002,101.41015599999992,91.15380900000036,94.35888699999941,97.17968800000017,105.51269500000035,-141.41015600000037,91.79492200000004
265,84.61523400000078,-30.89746100000002,80.25634799999989,95.64111300000059,63.589844000000085,149.3588869999994,79.23095699999976,91.79492200000004,87.69238299999961,91.0258789999998,93.0771479999994,97.30761700000039,-146.66674799999964,93.46142599999985
266,88.3334960000002,-30.1281740000004,82.94873000000007,101.0258789999998,71.79492200000004,149.7436520000001,83.3334960000002,90.38476599999922,92.82031300000017,96.79492200000004,95.51269500000035,99.74365200000011,-142.43579099999943,92.82031300000017
267,102.56396500000028,-20.1281740000004,93.58984400000008,113.84619099999964,95.64111300000059,158.46142599999985,97.56396500000028,100.12841800000024,105.51269500000035,105.38476599999922,105.76904300000024,113.7177729999994,-127.43579099999943,90.25634799999989
268,118.7177729999994,-5.897461000000021,106.15380900000036,126.41015599999992,120.76904300000024,173.46142599999985,114.48730499999965,115.12841800000024,119.87158199999976,108.84619099999964,118.7177729999994,131.79492200000004,-108.84619099999964,91.15380900000036
269,125.12841800000024,1.9228520000006029,112.69238299999961,129.7436520000001,127.17968800000017,185.51269500000035,122.43603499999972,123.7177729999994,127.94873000000007,103.0771479999994,125.38476599999922,141.79492200000004,-97.82055700000001,95.64111300000059
270,115.64111300000059,-4.871825999999601,107.82031300000017,119.74365200000011,105.89746099999957,185.0,114.10253900000043,117.56396500000028,123.9741210000002,92.05126999999993,118.9741210000002,134.61523400000078,-102.69238299999961,96.79492200000004
271,95.51269500000035,-23.974365000000034,93.9741210000002,101.2822270000006,69.61523400000078,170.89746099999957,93.46142599999985,99.10253900000043,108.58984400000008,85.38476599999922,101.6665039999998,112.82031300000017,-121.41015600000037,92.43603499999972
272,78.9741210000002,-41.92309599999999,80.25634799999989,86.41015599999992,45.12841800000024,153.84619099999964,74.48730499999965,81.9228520000006,91.15380900000036,90.51269500000035,84.61523400000078,90.89746099999957,-141.15380900000036,89.74365200000011
273,78.84619099999964,-43.33325200000036,77.05126999999993,85.64111300000059,51.53857400000015,148.9741210000002,70.76904300000024,80.76904300000024,83.7177729999994,106.2822270000006,80.76904300000024,85.12841800000024,-146.15380900000036,92.94873000000007
274,97.05126999999993,-24.358886999999868,87.94873000000007,100.25634799999989,83.3334960000002,163.46142599999985,85.76904300000024,99.35888699999941,92.05126999999993,124.23095699999976,94.74365200000011,99.87158199999976,-130.1281740000004,97.30761700000039
275,122.17968800000017,3.4614259999998467,106.41015599999992,120.38476599999922,115.0,189.61523400000078,110.0,127.05126999999993,111.0258789999998,135.76904300000024,117.82031300000017,124.87158199999976,-101.66674799999964,98.0771479999994
276,138.58984400000008,21.794922000000042,120.12841800000024,133.0771479999994,123.7177729999994,210.89746099999957,128.84619099999964,147.3076170000004,128.58984400000008,137.3076170000004,135.2563479999999,143.3334960000002,-77.43579099999943,98.20507799999996
277,137.94873000000007,20.25634799999989,121.0258789999998,132.05126999999993,108.58984400000008,216.15380900000036,133.20507799999996,150.89746099999957,135.2563479999999,131.15380900000036,137.43603499999972,145.76904300000024,-69.61547900000005,102.43603499999972
278,124.61523400000078,3.4614259999998467,111.0258789999998,121.9228520000006,87.82031300000017,207.17968800000017,125.51269500000035,141.15380900000036,130.89746099999957,121.79492200000004,127.43603499999972,135.76904300000024,-77.43579099999943,106.6665039999998
279,110.0,-15.0,99.48730499999965,111.79492200000004,79.74365200000011,195.89746099999957,115.12841800000024,129.87158199999976,122.82031300000017,114.61523400000078,115.89746099999957,124.35888699999941,-90.25634799999989,105.0
280,102.43603499999972,-24.61547900000005,95.0,107.30761700000039,87.56396500000028,192.94873000000007,110.51269500000035,125.76904300000024,119.48730499999965,114.35888699999941,112.17968800000017,119.87158199999976,-97.43579099999943,99.87158199999976
281,101.6665039999998,-25.0,98.46142599999985,106.41015599999992,99.23095699999976,199.10253900000043,112.94873000000007,128.58984400000008,123.9741210000002,121.79492200000004,116.41015599999992,122.43603499999972,-96.02563499999997,98.0771479999994
282,101.53857400000015,-23.58984399999963,102.69238299999961,103.3334960000002,99.61523400000078,205.89746099999957,116.2822270000006,131.2822270000006,131.9228520000006,131.41015599999992,121.0258789999998,125.12841800000024,-91.79492200000004,99.10253900000043
283,97.17968800000017,-27.435790999999426,100.25634799999989,95.51269500000035,83.46142599999985,204.3588869999994,113.3334960000002,127.17968800000017,135.0,133.58984400000008,118.20507799999996,121.41015599999992,-92.56420900000057,97.56396500000028
284,89.48730499999965,-36.28198199999997,90.76904300000024,87.17968800000017,61.025878999999804,193.46142599999985,102.56396500000028,116.53857400000015,128.58984400000008,124.61523400000078,108.20507799999996,111.15380900000036,-101.02563499999997,93.46142599999985
285,85.25634799999989,-42.564209000000574,82.05126999999993,86.15380900000036,49.87158199999976,181.53857400000015,91.0258789999998,106.15380900000036,116.2822270000006,111.0258789999998,98.9741210000002,101.41015599999992,-111.15380900000036,92.94873000000007
286,90.25634799999989,-38.58984399999963,82.43603499999972,96.2822270000006,60.0,178.84619099999964,87.30761700000039,102.69238299999961,106.41015599999992,104.61523400000078,98.58984400000008,100.0,-113.71801800000003,96.6665039999998
287,103.3334960000002,-24.61547900000005,93.3334960000002,112.94873000000007,84.74365200000011,188.58984400000008,93.84619099999964,107.30761700000039,104.61523400000078,109.87158199999976,108.20507799999996,108.3334960000002,-104.10253899999998,98.58984400000008
288,116.9228520000006,-8.461425999999847,107.94873000000007,126.53857400000015,107.43603499999972,204.61523400000078,105.76904300000024,115.12841800000024,109.23095699999976,120.12841800000024,120.64111300000059,121.0258789999998,-86.41015600000037,96.9228520000006
289,123.84619099999964,1.0258789999998044,117.94873000000007,130.2563479999999,115.89746099999957,217.56396500000028,115.64111300000059,120.51269500000035,115.25634799999989,126.2822270000006,127.94873000000007,131.15380900000036,-69.35888699999987,97.17968800000017
290,123.0771479999994,1.6665039999998044,119.74365200000011,125.76904300000024,109.61523400000078,221.6665039999998,119.23095699999976,121.2822270000006,119.35888699999941,126.79492200000004,127.69238299999961,135.38476599999922,-60.0,101.79492200000004
291,118.9741210000002,-2.0512699999999313,115.89746099999957,119.61523400000078,97.69238299999961,218.46142599999985,116.79492200000004,119.87158199999976,122.17968800000017,127.56396500000028,122.94873000000007,135.2563479999999,-60.1281740000004,104.35888699999941
292,115.51269500000035,-5.897461000000021,110.51269500000035,116.0258789999998,89.87158199999976,212.94873000000007,111.15380900000036,119.10253900000043,125.0,133.20507799999996,118.20507799999996,133.0771479999994,-66.92309599999999,100.89746099999957
293,112.17968800000017,-10.38452099999995,105.64111300000059,113.46142599999985,87.43603499999972,208.0771479999994,104.61523400000078,118.7177729999994,127.05126999999993,138.84619099999964,114.48730499999965,128.7177729999994,-76.15380900000036,96.53857400000015
294,106.15380900000036,-19.10253899999998,99.35888699999941,108.3334960000002,83.20507799999996,202.94873000000007,97.94873000000007,115.76904300000024,124.87158199999976,133.58984400000008,110.38476599999922,120.25634799999989,-84.35888699999987,97.30761700000039
295,96.2822270000006,-32.051270000000386,90.51269500000035,100.38476599999922,70.38476599999922,196.53857400000015,90.89746099999957,107.17968800000017,115.38476599999922,111.79492200000004,103.84619099999964,107.94873000000007,-89.61547900000005,100.25634799999989
296,85.64111300000059,-43.71801800000003,81.6665039999998,94.10253900000043,51.53857400000015,190.6411130000006,83.84619099999964,94.23095699999976,100.12841800000024,82.56396500000028,96.2822270000006,96.6665039999998,-91.66674799999964,99.74365200000011
297,79.61523400000078,-47.17944299999999,77.69238299999961,93.7177729999994,37.82031300000017,189.7436520000001,79.35888699999941,82.56396500000028,86.2822270000006,66.79492200000004,91.15380900000036,92.43603499999972,-91.28198199999997,97.69238299999961
298,81.53857400000015,-40.38452099999995,81.53857400000015,99.61523400000078,41.53857400000015,196.53857400000015,79.87158199999976,79.10253900000043,81.6665039999998,80.0,91.79492200000004,97.43603499999972,-89.74365200000011,99.10253900000043
299,90.25634799999989,-27.820557000000008,90.76904300000024,106.9228520000006,66.0258789999998,210.12841800000024,85.38476599999922,86.79492200000004,89.61523400000078,116.6665039999998,97.94873000000007,108.0771479999994,-87.17944299999999,102.17968800000017
300,101.41015599999992,-16.538574000000153,99.74365200000011,109.35888699999941,103.3334960000002,225.76904300000024,93.0771479999994,102.17968800000017,105.51269500000035,152.05126999999993,106.2822270000006,118.3334960000002,-82.56420900000057,101.53857400000015
301,108.84619099999964,-11.538574000000153,102.82031300000017,104.10253900000043,135.51269500000035,236.79492200000004,99.61523400000078,116.79492200000004,120.12841800000024,161.6665039999998,112.56396500000028,123.58984400000008,-75.38452099999995,98.20507799999996
302,108.58984400000008,-15.1281740000004,98.46142599999985,94.10253900000043,144.87158199999976,238.58984400000008,102.56396500000028,121.53857400000015,123.7177729999994,140.2563479999999,114.23095699999976,121.9228520000006,-68.07690400000001,98.46142599999985
303,101.2822270000006,-24.74365200000011,89.61523400000078,86.2822270000006,127.17968800000017,231.9228520000006,101.79492200000004,113.7177729999994,113.20507799999996,105.89746099999957,111.53857400000015,114.61523400000078,-63.974365000000034,102.05126999999993
304,92.43603499999972,-33.974365000000034,82.69238299999961,86.53857400000015,98.0771479999994,224.3588869999994,100.89746099999957,100.0,95.51269500000035,86.53857400000015,107.56396500000028,106.41015599999992,-64.48706099999981,102.43603499999972
305,88.9741210000002,-36.28198199999997,82.56396500000028,94.87158199999976,81.9228520000006,225.0,104.35888699999941,92.30761700000039,83.58984400000008,97.94873000000007,105.51269500000035,102.56396500000028,-68.33325200000036,98.3334960000002
306,92.43603499999972,-30.641113000000132,88.0771479999994,105.12841800000024,90.25634799999989,236.2822270000006,112.05126999999993,97.43603499999972,86.41015599999992,129.87158199999976,105.38476599999922,104.48730499999965,-73.97436500000003,95.76904300000024
307,97.56396500000028,-23.076904000000013,92.43603499999972,109.35888699999941,110.89746099999957,249.87158199999976,117.43603499999972,110.76904300000024,100.12841800000024,153.0771479999994,104.10253900000043,107.82031300000017,-80.1281740000004,97.56396500000028
308,96.2822270000006,-21.28198199999997,88.9741210000002,104.48730499999965,118.0771479999994,252.6923829999996,112.56396500000028,119.61523400000078,111.2822270000006,145.6411130000006,98.3334960000002,105.38476599999922,-85.76928699999962,98.58984400000008
309,85.64111300000059,-28.58984399999963,76.2822270000006,93.7177729999994,94.74365200000011,238.0771479999994,96.9228520000006,113.84619099999964,109.61523400000078,111.41015599999992,88.9741210000002,94.23095699999976,-89.74365200000011,95.64111300000059
310,71.2822270000006,-40.25634799999989,61.153809000000365,83.7177729999994,50.38476599999922,213.58984400000008,79.48730499999965,96.41015599999992,97.43603499999972,77.17968800000017,80.64111300000059,79.10253900000043,-91.15380900000036,93.46142599999985
311,64.10253900000043,-46.66674799999964,53.846190999999635,80.12841800000024,19.74365200000011,198.20507799999996,73.20507799999996,82.17968800000017,88.20507799999996,67.94873000000007,80.0,70.76904300000024,-88.58984399999963,96.2822270000006
312,72.69238299999961,-40.51293900000019,60.76904300000024,84.61523400000078,35.0,208.3334960000002,84.48730499999965,85.76904300000024,95.12841800000024,87.94873000000007,90.38476599999922,77.17968800000017,-80.64111300000013,100.25634799999989
313,94.35888699999941,-23.71801800000003,78.9741210000002,94.10253900000043,93.46142599999985,243.7177729999994,106.79492200000004,107.43603499999972,117.94873000000007,119.61523400000078,108.7177729999994,96.53857400000015,-68.07690400000001,100.12841800000024
314,114.87158199999976,-8.076904000000013,96.2822270000006,101.9228520000006,152.05126999999993,284.87158199999976,123.7177729999994,130.2563479999999,141.2822270000006,139.7436520000001,125.64111300000059,115.76904300000024,-55.89746100000002,98.84619099999964
315,118.0771479999994,-7.179442999999992,99.87158199999976,101.2822270000006,161.0258789999998,306.6665039999998,120.76904300000024,133.0771479999994,144.48730499999965,135.38476599999922,130.6411130000006,119.87158199999976,-51.41015600000037,100.12841800000024
316,98.58984400000008,-24.74365200000011,85.89746099999957,89.23095699999976,107.69238299999961,298.0771479999994,96.9228520000006,108.46142599999985,118.46142599999985,109.74365200000011,119.35888699999941,103.20507799999996,-58.974365000000034,101.2822270000006
317,68.20507799999996,-50.25634799999989,63.0771479999994,71.53857400000015,29.230956999999762,271.4101559999999,66.9228520000006,71.2822270000006,76.15380900000036,78.0771479999994,97.43603499999972,74.74365200000011,-75.38452099999995,97.30761700000039
318,48.20507799999996,-65.38452099999995,47.69238299999961,60.12841800000024,-15.641113000000132,252.05126999999993,51.2822270000006,47.69238299999961,44.61523400000078,58.333496000000196,78.84619099999964,54.23095699999976,-90.64111300000013,92.30761700000039
319,53.7177729999994,-57.435790999999426,51.79492200000004,65.25634799999989,8.205077999999958,259.23095699999976,60.25634799999989,54.61523400000078,45.897460999999566,62.30761700000039,76.2822270000006,57.43603499999972,-93.71801800000003,93.9741210000002
320,82.05126999999993,-30.512939000000188,74.10253900000043,86.2822270000006,84.74365200000011,290.12841800000024,87.43603499999972,86.41015599999992,79.61523400000078,88.3334960000002,91.6665039999998,83.46142599999985,-80.76928699999962,101.2822270000006
321,114.74365200000011,-2.3076170000003913,100.0,109.87158199999976,158.46142599999985,322.6923829999996,113.84619099999964,119.74365200000011,122.43603499999972,121.53857400000015,115.0,115.38476599999922,-57.82055700000001,106.0258789999998
322,132.6923829999996,9.102539000000434,113.20507799999996,120.38476599999922,177.56396500000028,334.48730499999965,122.17968800000017,132.43603499999972,145.89746099999957,142.43603499999972,132.05126999999993,132.43603499999972,-35.25634799999989,104.87158199999976
323,130.0,1.2822270000006029,107.94873000000007,112.43603499999972,134.10253900000043,321.0258789999998,109.48730499999965,120.12841800000024,137.94873000000007,139.48730499999965,135.12841800000024,126.79492200000004,-20.1281740000004,102.94873000000007
324,116.0258789999998,-12.948729999999614,92.30761700000039,95.64111300000059,69.35888699999941,298.46142599999985,88.46142599999985,96.79492200000004,110.0,117.82031300000017,127.82031300000017,107.69238299999961,-13.205077999999958,103.46142599999985
325,104.74365200000011,-19.10253899999998,79.74365200000011,85.51269500000035,35.38476599999922,286.6665039999998,75.64111300000059,81.2822270000006,84.61523400000078,93.46142599999985,119.23095699999976,91.6665039999998,-12.179442999999992,102.94873000000007
326,102.82031300000017,-15.512939000000188,78.3334960000002,88.7177729999994,52.69238299999961,292.17968800000017,77.69238299999961,80.76904300000024,76.79492200000004,80.12841800000024,116.41015599999992,88.46142599999985,-15.0,100.64111300000059
327,107.30761700000039,-12.179442999999992,85.89746099999957,98.9741210000002,96.6665039999998,304.6152340000008,88.20507799999996,88.58984400000008,84.61523400000078,81.15380900000036,119.61523400000078,95.76904300000024,-20.769286999999622,101.9228520000006
328,110.38476599999922,-16.538574000000153,94.23095699999976,104.74365200000011,123.7177729999994,308.20507799999996,95.25634799999989,94.23095699999976,95.64111300000059,91.53857400000015,124.48730499999965,103.84619099999964,-27.820557000000008,107.56396500000028
329,107.43603499999972,-23.71801800000003,95.64111300000059,100.25634799999989,108.9741210000002,295.89746099999957,91.53857400000015,92.94873000000007,99.87158199999976,105.64111300000059,126.53857400000015,104.61523400000078,-33.46142599999985,110.51269500000035
330,99.74365200000011,-22.69238299999961,89.35888699999941,90.51269500000035,65.38476599999922,274.10253900000043,79.10253900000043,88.46142599999985,96.79492200000004,119.35888699999941,124.23095699999976,97.43603499999972,-34.61547900000005,106.2822270000006
331,92.43603499999972,-8.974365000000034,80.89746099999957,85.25634799999989,28.333496000000196,256.2822270000006,65.89746099999957,86.9228520000006,93.58984400000008,128.20507799999996,120.89746099999957,88.46142599999985,-29.10253899999998,101.15380900000036
332,91.2822270000006,8.077147999999397,77.30761700000039,90.38476599999922,24.48730499999965,252.94873000000007,60.12841800000024,91.15380900000036,96.9228520000006,127.05126999999993,121.2822270000006,85.25634799999989,-17.30761700000039,102.43603499999972
333,98.9741210000002,14.230956999999762,82.56396500000028,102.94873000000007,54.102539000000434,265.89746099999957,66.2822270000006,98.58984400000008,106.41015599999992,115.0,127.56396500000028,91.6665039999998,-0.12841800000023795,106.9228520000006
334,113.9741210000002,3.4614259999998467,94.61523400000078,113.7177729999994,97.05126999999993,287.17968800000017,81.53857400000015,104.74365200000011,115.64111300000059,99.23095699999976,137.6923829999996,105.0,19.74365200000011,107.43603499999972
335,129.3588869999994,-16.41015600000037,106.79492200000004,115.12841800000024,130.12841800000024,304.6152340000008,98.20507799999996,106.0258789999998,117.05126999999993,91.79492200000004,146.53857400000015,118.0771479999994,36.9228520000006,105.12841800000024
336,137.3076170000004,-30.0,112.05126999999993,106.6665039999998,139.7436520000001,308.7177729999994,107.30761700000039,102.30761700000039,109.48730499999965,99.87158199999976,149.7436520000001,123.0771479999994,45.897460999999566,105.76904300000024
337,134.61523400000078,-26.923095999999987,108.20507799999996,95.51269500000035,125.76904300000024,298.84619099999964,105.76904300000024,96.41015599999992,97.94873000000007,118.7177729999994,146.9228520000006,117.94873000000007,47.56396500000028,109.23095699999976
338,126.15380900000036,-9.8718259999996,99.87158199999976,90.38476599999922,99.23095699999976,284.10253900000043,97.43603499999972,92.05126999999993,89.74365200000011,134.23095699999976,142.94873000000007,107.56396500000028,49.87158199999976,109.61523400000078
339,120.51269500000035,6.666503999999804,95.25634799999989,93.84619099999964,75.0,276.0258789999998,89.74365200000011,91.0258789999998,88.84619099999964,135.2563479999999,143.7177729999994,100.64111300000059,60.897460999999566,106.41015599999992
340,121.53857400000015,5.641113000000587,98.0771479999994,99.35888699999941,63.974121000000196,279.6152340000008,87.69238299999961,92.05126999999993,93.20507799999996,120.0,149.61523400000078,101.53857400000015,80.76904300000024,105.12841800000024
341,125.0,-20.512939000000188,103.9741210000002,97.05126999999993,65.89746099999957,290.76904300000024,89.48730499999965,92.94873000000007,98.0771479999994,95.38476599999922,154.87158199999976,106.2822270000006,103.0771479999994,106.2822270000006
342,123.3334960000002,-61.92309599999999,105.76904300000024,83.3334960000002,72.17968800000017,299.87158199999976,90.51269500000035,92.82031300000017,100.12841800000024,72.30761700000039,154.10253900000043,106.79492200000004,123.9741210000002,104.87158199999976
343,114.61523400000078,-97.30761700000039,100.51269500000035,65.0,73.7177729999994,299.10253900000043,88.20507799999996,92.69238299999961,101.41015599999992,61.153809000000365,147.6923829999996,100.0,148.7177729999994,100.0
344,104.23095699999976,-110.38452099999995,92.43603499999972,52.56396500000028,67.94873000000007,288.5898440000001,85.25634799999989,95.64111300000059,106.15380900000036,68.58984400000008,142.3076170000004,90.51269500000035,184.3588869999994,98.20507799999996
345,99.48730499999965,-101.41015600000037,89.10253900000043,51.2822270000006,60.25634799999989,276.9228520000006,87.17968800000017,102.94873000000007,115.0,92.94873000000007,143.9741210000002,85.89746099999957,231.53857400000015,102.17968800000017
346,102.56396500000028,-84.74365200000011,93.3334960000002,57.05126999999993,58.846190999999635,275.0,96.79492200000004,112.17968800000017,123.58984400000008,123.58984400000008,153.58984400000008,89.48730499999965,284.6152340000008,106.0258789999998
347,107.82031300000017,-73.97436500000003,101.53857400000015,61.153809000000365,66.0258789999998,285.12841800000024,110.51269500000035,118.0771479999994,125.76904300000024,145.12841800000024,164.23095699999976,96.6665039999998,336.6665039999998,104.87158199999976
348,106.15380900000036,-71.28198199999997,105.51269500000035,56.53857400000015,73.46142599999985,296.2822270000006,119.10253900000043,115.25634799999989,120.0,146.2822270000006,166.41015599999992,98.46142599999985,385.0,102.82031300000017
349,95.51269500000035,-69.23071300000038,100.64111300000059,43.0771479999994,72.17968800000017,294.87158199999976,116.2822270000006,104.48730499999965,110.64111300000059,126.79492200000004,156.0258789999998,91.0258789999998,432.5639650000003,104.61523400000078
350,84.61523400000078,-61.025634999999966,91.15380900000036,28.205077999999958,66.2822270000006,281.0258789999998,105.64111300000059,94.87158199999976,106.2822270000006,98.84619099999964,141.79492200000004,80.12841800000024,488.20507799999996,107.17968800000017
351,85.64111300000059,-47.17944299999999,87.82031300000017,21.922852000000603,69.48730499999965,267.94873000000007,98.3334960000002,97.56396500000028,112.94873000000007,81.79492200000004,139.61523400000078,77.82031300000017,558.7177729999994,106.0258789999998
352,100.0,-34.10253899999998,95.38476599999922,28.333496000000196,85.25634799999989,266.2822270000006,100.64111300000059,113.7177729999994,127.43603499999972,88.7177729999994,156.0258789999998,88.58984400000008,639.8715819999998,103.7177729999994
353,113.84619099999964,-28.58984399999963,107.05126999999993,40.51269500000035,95.25634799999989,270.76904300000024,106.53857400000015,130.2563479999999,136.53857400000015,114.23095699999976,178.7177729999994,102.17968800000017,714.4873049999997,105.25634799999989
354,110.64111300000059,-31.794922000000042,109.61523400000078,45.38476599999922,76.15380900000036,267.05126999999993,104.35888699999941,129.61523400000078,126.2822270000006,134.3588869999994,186.0258789999998,102.05126999999993,764.7436520000001,108.0771479999994
355,88.58984400000008,-37.948729999999614,97.69238299999961,35.38476599999922,26.153809000000365,249.23095699999976,90.51269500000035,106.9228520000006,96.0258789999998,125.38476599999922,167.05126999999993,82.69238299999961,788.5898440000001,106.41015599999992
356,64.61523400000078,-37.564209000000574,80.76904300000024,16.538574000000153,-25.1281740000004,228.7177729999994,74.61523400000078,76.2822270000006,62.69238299999961,86.79492200000004,134.23095699999976,57.56396500000028,807.1796880000002,101.6665039999998
357,60.76904300000024,-24.61547900000005,74.87158199999976,3.5898440000000846,-37.82055700000001,223.3334960000002,71.6665039999998,60.76904300000024,49.87158199999976,47.69238299999961,113.7177729999994,48.20507799999996,849.1025390000004,101.79492200000004
358,83.58984400000008,-4.102538999999979,87.69238299999961,7.051269999999931,3.9741210000001956,239.23095699999976,86.6665039999998,73.46142599999985,68.58984400000008,42.05126999999993,121.6665039999998,63.974121000000196,923.8461909999996,107.56396500000028
359,116.9228520000006,10.384765999999217,110.38476599999922,22.82031300000017,73.9741210000002,263.9741210000002,108.7177729999994,105.64111300000059,107.56396500000028,77.82031300000017,149.87158199999976,92.94873000000007,1012.0512699999999,111.53857400000015
360,135.12841800000024,7.43603499999972,125.12841800000024,35.76904300000024,121.79492200000004,277.5639650000003,120.12841800000024,134.23095699999976,141.41015599999992,128.9741210000002,173.0771479999994,112.05126999999993,1082.5639650000003,110.12841800000024
361,126.41015599999992,-9.230713000000378,120.89746099999957,34.102539000000434,113.3334960000002,269.87158199999976,112.05126999999993,138.84619099999964,148.0771479999994,156.53857400000015,172.05126999999993,107.56396500000028,1119.8715819999998,107.94873000000007
362,101.9228520000006,-22.30761700000039,102.69238299999961,20.0,57.69238299999961,247.94873000000007,91.79492200000004,117.69238299999961,124.23095699999976,140.2563479999999,148.58984400000008,86.2822270000006,1133.3334960000002,108.46142599999985
363,83.0771479999994,-17.30761700000039,86.0258789999998,6.666503999999804,-3.077147999999397,227.17968800000017,74.35888699999941,86.53857400000015,85.12841800000024,91.53857400000015,120.25634799999989,66.15380900000036,1141.794922,108.3334960000002
364,81.53857400000015,1.153809000000365,81.53857400000015,4.6152340000007825,-29.74365200000011,219.23095699999976,69.10253900000043,64.74365200000011,51.9228520000006,42.69238299999961,102.69238299999961,59.48730499999965,1154.1025390000004,106.15380900000036
365,92.43603499999972,14.615234000000783,88.46142599999985,12.051269999999931,-13.71801800000003,225.12841800000024,75.0,61.2822270000006,37.69238299999961,22.05126999999993,99.10253900000043,64.61523400000078,1166.6665039999998,105.89746099999957
366,103.20507799999996,12.43603499999972,98.3334960000002,18.846190999999635,23.077147999999397,239.23095699999976,85.64111300000059,72.69238299999961,41.79492200000004,35.76904300000024,102.94873000000007,72.17968800000017,1178.0771479999994,110.12841800000024
367,107.56396500000028,5.3847659999992175,105.25634799999989,18.077147999999397,51.410155999999915,255.51269500000035,95.12841800000024,89.23095699999976,55.51269500000035,67.82031300000017,107.56396500000028,76.2822270000006,1194.4873049999997,113.46142599999985
368,108.9741210000002,14.230956999999762,109.35888699999941,11.410155999999915,57.05126999999993,271.53857400000015,102.43603499999972,103.7177729999994,72.17968800000017,95.89746099999957,111.0258789999998,78.58984400000008,1221.1538090000004,111.2822270000006
369,113.58984400000008,45.76904300000024,114.10253900000043,6.410155999999915,44.102539000000434,286.4101559999999,108.0771479999994,114.23095699999976,90.38476599999922,107.69238299999961,115.51269500000035,83.9741210000002,1252.3076170000004,108.20507799999996
370,122.82031300000017,83.46142599999985,120.51269500000035,8.589844000000085,23.717772999999397,296.79492200000004,110.89746099999957,120.51269500000035,110.12841800000024,107.17968800000017,121.2822270000006,93.0771479999994,1275.256348,110.51269500000035
371,132.56396500000028,101.79492200000004,125.76904300000024,15.256347999999889,2.5639650000002803,296.53857400000015,108.46142599999985,121.2822270000006,126.9228520000006,104.61523400000078,125.0,100.76904300000024,1281.5385740000002,115.25634799999989
372,138.84619099999964,89.61523400000078,126.2822270000006,18.589844000000085,-15.1281740000004,283.5898440000001,100.64111300000059,115.25634799999989,131.53857400000015,106.53857400000015,122.43603499999972,101.53857400000015,1274.3588869999994,115.89746099999957
373,141.15380900000036,58.974121000000196,122.05126999999993,12.307617000000391,-23.58984399999963,265.89746099999957,91.79492200000004,103.7177729999994,118.0771479999994,110.76904300000024,113.46142599999985,95.51269500000035,1263.7177729999994,113.0771479999994
374,141.0258789999998,33.589844000000085,116.9228520000006,-2.3076170000003913,-16.538574000000153,259.10253900000043,88.84619099999964,91.9228520000006,90.38476599999922,111.6665039999998,102.30761700000039,87.82031300000017,1257.1796880000002,113.20507799999996
375,138.3334960000002,29.74365200000011,113.7177729999994,-18.076904000000013,3.3334960000001956,273.5898440000001,93.9741210000002,85.76904300000024,61.666503999999804,104.87158199999976,92.43603499999972,83.20507799999996,1253.8461909999996,115.76904300000024
376,131.41015599999992,45.38476599999922,112.17968800000017,-28.71801800000003,21.794922000000042,305.6411130000006,102.30761700000039,87.56396500000028,47.30761700000039,93.3334960000002,83.20507799999996,81.15380900000036,1247.8203130000002,114.61523400000078
377,120.0,64.61523400000078,109.48730499999965,-32.82055700000001,25.384765999999217,340.89746099999957,106.53857400000015,95.0,54.23095699999976,85.89746099999957,72.43603499999972,78.46142599999985,1235.0,109.35888699999941
378,107.56396500000028,70.89746099999957,105.0,-33.33325200000036,13.461425999999847,365.76904300000024,103.46142599999985,102.82031300000017,77.30761700000039,88.3334960000002,60.897460999999566,74.48730499999965,1218.8461909999996,107.05126999999993
379,99.74365200000011,61.153809000000365,101.15380900000036,-33.58984399999963,-2.6923829999996087,374.10253900000043,96.15380900000036,105.89746099999957,101.15380900000036,96.0258789999998,52.94873000000007,71.41015599999992,1208.9741210000002,110.25634799999989
380,100.38476599999922,46.666503999999804,100.38476599999922,-34.10253899999998,-11.41015600000037,368.0771479999994,89.87158199999976,103.0771479999994,111.53857400000015,98.9741210000002,53.974121000000196,72.17968800000017,1214.2309569999998,113.7177729999994
381,108.84619099999964,43.589844000000085,104.23095699999976,-33.46142599999985,-8.333252000000357,354.87158199999976,87.82031300000017,98.20507799999996,105.89746099999957,93.7177729999994,64.23095699999976,77.17968800000017,1233.205078,114.23095699999976
382,121.2822270000006,57.69238299999961,111.15380900000036,-31.025634999999966,3.3334960000001956,343.9741210000002,90.51269500000035,97.30761700000039,93.46142599999985,86.6665039999998,78.0771479999994,84.48730499999965,1252.8203130000002,115.38476599999922
383,132.3076170000004,79.23095699999976,118.3334960000002,-27.948729999999614,17.43603499999972,343.3334960000002,96.15380900000036,103.58984400000008,86.6665039999998,86.9228520000006,86.6665039999998,91.2822270000006,1257.4360349999997,119.35888699999941
