,EEG.AF3,EEG.F7,EEG.F3,EEG.FC5,EEG.T7,EEG.P7,EEG.O1,EEG.O2,EEG.P8,EEG.T8,EEG.FC6,EEG.F4,EEG.F8,EEG.AF4
0,-17.564209000000574,286.2822270000006,102.94873000000007,-178.20507799999996,170.89746099999957,120.76904300000024,117.82031300000017,122.69238299999961,90.25634799999989,88.20507799999996,169.3588869999994,113.84619099999964,1855.1284180000002,105.12841800000024
1,-48.07690400000001,272.6923829999996,86.2822270000006,-183.84619099999964,123.20507799999996,90.0,98.9741210000002,105.38476599999922,67.30761700000039,69.23095699999976,148.46142599999985,91.79492200000004,1821.794922,99.74365200000011
2,-68.07690400000001,261.53857400000015,74.35888699999941,-190.1281740000004,74.61523400000078,63.20507799999996,84.61523400000078,92.69238299999961,50.76904300000024,62.69238299999961,127.82031300000017,72.56396500000028,1791.0258789999998,96.6665039999998
3,-64.74365200000011,262.05126999999993,75.64111300000059,-194.61547900000005,66.15380900000036,60.897460999999566,85.51269500000035,94.10253900000043,50.897460999999566,70.51269500000035,121.41015599999992,69.61523400000078,1779.2309569999998,97.82031300000017
4,-43.974365000000034,273.84619099999964,88.46142599999985,-197.56420900000057,107.43603499999972,85.0,100.89746099999957,107.82031300000017,65.76904300000024,86.2822270000006,131.2822270000006,83.0771479999994,1785.5126950000003,99.35888699999941
5,-23.333252000000357,285.76904300000024,103.3334960000002,-202.0512700000004,169.23095699999976,118.46142599999985,120.0,122.82031300000017,84.10253900000043,102.43603499999972,147.82031300000017,101.6665039999998,1795.256348,99.74365200000011
6,-18.205077999999958,286.4101559999999,110.89746099999957,-209.35888699999987,207.82031300000017,139.3588869999994,131.2822270000006,128.84619099999964,94.61523400000078,113.7177729999994,158.58984400000008,112.56396500000028,1793.589844,100.64111300000059
7,-30.25634799999989,276.2822270000006,108.58984400000008,-216.79492200000004,199.48730499999965,136.2822270000006,129.7436520000001,123.0771479999994,93.46142599999985,116.53857400000015,157.17968800000017,110.76904300000024,1777.5639650000003,102.30761700000039
8,-48.974365000000034,266.79492200000004,100.89746099999957,-219.7436520000001,155.12841800000024,115.0,118.7177729999994,111.6665039999998,84.61523400000078,107.82031300000017,146.6665039999998,101.15380900000036,1755.1284180000002,101.9228520000006
9,-61.153809000000365,268.20507799999996,94.74365200000011,-217.56420900000057,109.48730499999965,91.41015599999992,106.2822270000006,102.69238299999961,74.61523400000078,88.20507799999996,135.12841800000024,92.30761700000039,1736.794922,98.9741210000002
10,-62.17944299999999,278.84619099999964,93.58984400000008,-214.7436520000001,94.10253900000043,78.58984400000008,98.7177729999994,99.74365200000011,67.43603499999972,64.61523400000078,127.94873000000007,89.23095699999976,1725.3847659999992,97.43603499999972
11,-56.025634999999966,286.79492200000004,95.76904300000024,-216.923096,115.64111300000059,80.12841800000024,98.58984400000008,101.9228520000006,64.48730499999965,49.23095699999976,126.0258789999998,90.89746099999957,1716.0258789999998,99.35888699999941
12,-49.35888699999987,282.94873000000007,98.46142599999985,-224.4870609999998,155.12841800000024,90.76904300000024,104.61523400000078,107.17968800000017,66.79492200000004,52.56396500000028,127.82031300000017,94.10253900000043,1702.94873,101.2822270000006
13,-46.28198199999997,269.3588869999994,100.0,-232.179443,183.20507799999996,101.53857400000015,112.56396500000028,113.58984400000008,75.0,75.51269500000035,131.53857400000015,96.9228520000006,1684.1025390000004,100.51269500000035
14,-47.564209000000574,256.15380900000036,99.74365200000011,-234.61547900000005,182.43603499999972,104.23095699999976,116.53857400000015,118.20507799999996,85.89746099999957,106.41015599999992,134.10253900000043,97.82031300000017,1662.05127,99.48730499999965
15,-52.435790999999426,251.53857400000015,96.9228520000006,-231.79492200000004,159.10253900000043,97.30761700000039,113.0771479999994,117.05126999999993,92.43603499999972,128.20507799999996,132.43603499999972,94.87158199999976,1639.1025390000004,101.0258789999998
16,-58.20507799999996,255.38476599999922,91.79492200000004,-227.9487299999996,135.0,86.0258789999998,104.48730499999965,109.48730499999965,88.9741210000002,130.12841800000024,125.89746099999957,87.43603499999972,1616.410156,102.30761700000039
17,-60.76928699999962,260.3847659999992,86.53857400000015,-226.41015600000037,128.7177729999994,78.46142599999985,97.43603499999972,99.87158199999976,77.43603499999972,116.41015599999992,118.3334960000002,78.3334960000002,1594.743652,99.35888699999941
18,-55.89746100000002,260.76904300000024,84.23095699999976,-226.15380900000036,141.6665039999998,80.12841800000024,98.58984400000008,94.74365200000011,65.51269500000035,101.41015599999992,115.0,72.82031300000017,1575.1284180000002,94.48730499999965
19,-42.69238299999961,256.53857400000015,86.15380900000036,-224.10253899999998,161.2822270000006,89.74365200000011,108.0771479999994,97.05126999999993,60.25634799999989,96.53857400000015,118.20507799999996,74.61523400000078,1557.6923829999996,92.43603499999972
20,-24.61547900000005,251.9228520000006,90.0,-218.71801800000003,172.43603499999972,100.12841800000024,118.7177729999994,103.7177729999994,61.79492200000004,99.48730499999965,124.61523400000078,81.6665039999998,1539.3588869999994,92.94873000000007
21,-7.307617000000391,248.58984400000008,91.9228520000006,-212.6923829999996,168.58984400000008,103.0771479999994,121.15380900000036,108.20507799999996,64.23095699999976,98.7177729999994,127.56396500000028,87.43603499999972,1514.6152340000008,92.17968800000017
22,6.538574000000153,244.7436520000001,89.87158199999976,-209.7436520000001,156.2822270000006,96.15380900000036,112.30761700000039,107.05126999999993,63.46142599999985,88.46142599999985,123.46142599999985,86.6665039999998,1479.3588869999994,90.0
23,20.0,237.3076170000004,85.64111300000059,-210.38452099999995,149.3588869999994,84.48730499999965,97.94873000000007,101.79492200000004,61.9228520000006,76.15380900000036,114.74365200000011,80.25634799999989,1435.0,89.74365200000011
24,37.69238299999961,227.05126999999993,82.30761700000039,-211.41015600000037,155.38476599999922,76.41015599999992,87.69238299999961,97.05126999999993,63.974121000000196,74.48730499999965,107.56396500000028,73.58984400000008,1388.7177729999994,91.2822270000006
25,61.410155999999915,218.84619099999964,81.6665039999998,-209.23071300000038,168.7177729999994,76.0258789999998,86.79492200000004,95.64111300000059,69.87158199999976,88.0771479999994,105.51269500000035,71.53857400000015,1347.5639650000003,91.15380900000036
26,87.56396500000028,217.17968800000017,83.3334960000002,-202.820557,176.53857400000015,81.15380900000036,93.7177729999994,96.6665039999998,75.38476599999922,108.58984400000008,107.56396500000028,74.48730499999965,1312.05127,89.87158199999976
27,110.76904300000024,221.9228520000006,86.0258789999998,-193.46142599999985,172.43603499999972,86.79492200000004,102.56396500000028,98.0771479999994,76.6665039999998,123.0771479999994,109.87158199999976,79.48730499999965,1276.6665039999998,91.79492200000004
28,127.69238299999961,227.94873000000007,89.23095699999976,-183.46142599999985,162.17968800000017,90.12841800000024,109.48730499999965,99.61523400000078,74.48730499999965,125.12841800000024,109.48730499999965,83.0771479999994,1234.3588869999994,97.82031300000017
29,138.84619099999964,229.87158199999976,92.82031300000017,-174.10253899999998,157.3076170000004,92.17968800000017,113.7177729999994,102.56396500000028,72.82031300000017,118.3334960000002,106.9228520000006,84.35888699999941,1181.9228520000006,101.9228520000006
30,147.17968800000017,227.56396500000028,96.6665039999998,-165.76928699999962,162.43603499999972,95.25634799999989,116.15380900000036,107.43603499999972,75.51269500000035,112.17968800000017,104.61523400000078,84.74365200000011,1120.3847659999992,100.89746099999957
31,156.53857400000015,227.82031300000017,100.12841800000024,-157.820557,171.15380900000036,99.87158199999976,117.30761700000039,112.82031300000017,83.0771479999994,113.3334960000002,105.64111300000059,87.17968800000017,1053.205078,98.20507799999996
32,168.84619099999964,240.6411130000006,103.46142599999985,-149.7436520000001,173.7177729999994,104.35888699999941,117.43603499999972,116.15380900000036,91.53857400000015,120.76904300000024,110.64111300000059,92.94873000000007,984.6152340000008,98.3334960000002
33,182.94873000000007,271.9228520000006,106.53857400000015,-141.66674799999964,167.43603499999972,107.43603499999972,117.94873000000007,116.79492200000004,95.64111300000059,127.56396500000028,117.43603499999972,100.38476599999922,918.0771479999994,99.74365200000011
34,195.12841800000024,319.48730499999965,110.38476599999922,-133.46142599999985,159.87158199999976,109.87158199999976,120.89746099999957,116.6665039999998,94.10253900000043,128.58984400000008,122.56396500000028,106.79492200000004,855.3847659999992,99.74365200000011
35,202.17968800000017,373.0771479999994,115.0,-124.48706099999981,160.38476599999922,113.58984400000008,128.0771479999994,118.9741210000002,91.6665039999998,125.25634799999989,123.0771479999994,110.64111300000059,795.0,100.51269500000035
36,202.56396500000028,419.10253900000043,118.7177729999994,-115.1281740000004,171.15380900000036,118.0771479999994,136.41015599999992,123.58984400000008,92.56396500000028,122.05126999999993,117.30761700000039,111.15380900000036,732.3076170000004,104.35888699999941
37,195.76904300000024,446.0258789999998,117.82031300000017,-107.82055700000001,183.20507799999996,117.69238299999961,138.20507799999996,125.64111300000059,95.38476599999922,119.10253900000043,104.48730499999965,106.6665039999998,662.9487300000001,107.82031300000017
38,183.0771479999994,450.76904300000024,109.48730499999965,-105.89746100000002,184.87158199999976,106.6665039999998,127.05126999999993,118.9741210000002,93.0771479999994,112.69238299999961,85.89746099999957,96.0258789999998,586.2822270000006,106.15380900000036
39,169.48730499999965,441.15380900000036,96.0258789999998,-108.33325200000036,172.56396500000028,87.17968800000017,106.2822270000006,104.48730499999965,82.82031300000017,101.6665039999998,67.43603499999972,82.43603499999972,509.48730499999965,101.0258789999998
40,163.3334960000002,432.17968800000017,86.41015599999992,-108.84619099999964,156.53857400000015,72.30761700000039,89.35888699999941,91.41015599999992,71.53857400000015,92.17968800000017,58.974121000000196,74.10253900000043,444.10253900000043,98.84619099999964
41,171.53857400000015,436.15380900000036,89.61523400000078,-99.35888699999987,151.9228520000006,75.51269500000035,90.64111300000059,91.79492200000004,71.2822270000006,93.9741210000002,66.9228520000006,78.7177729999994,399.23095699999976,101.9228520000006
42,193.7177729999994,454.10253900000043,106.9228520000006,-77.94872999999961,165.2563479999999,98.3334960000002,111.9228520000006,108.20507799999996,87.17968800000017,109.48730499999965,87.56396500000028,95.89746099999957,373.0771479999994,106.41015599999992
43,220.51269500000035,476.15380900000036,129.48730499999965,-51.41015600000037,187.3076170000004,126.41015599999992,139.61523400000078,131.15380900000036,111.53857400000015,131.0258789999998,108.7177729999994,117.05126999999993,353.0771479999994,109.87158199999976
44,238.3334960000002,490.3847659999992,143.58984400000008,-31.794922000000042,200.76904300000024,140.38476599999922,155.51269500000035,145.38476599999922,129.23095699999976,146.0258789999998,117.94873000000007,130.76904300000024,324.48730499999965,112.56396500000028
45,238.0771479999994,490.6411130000006,141.0258789999998,-27.435790999999426,194.7436520000001,132.05126999999993,150.2563479999999,142.17968800000017,128.9741210000002,146.53857400000015,109.87158199999976,130.89746099999957,280.2563479999999,113.3334960000002
46,220.6411130000006,480.6411130000006,124.61523400000078,-36.53857400000015,174.10253900000043,110.25634799999989,129.61523400000078,125.51269500000035,112.17968800000017,133.84619099999964,89.48730499999965,119.74365200000011,224.61523400000078,108.9741210000002
47,197.43603499999972,470.2563479999999,105.64111300000059,-47.948729999999614,154.61523400000078,93.3334960000002,108.84619099999964,107.94873000000007,90.38476599999922,117.17968800000017,67.94873000000007,105.76904300000024,169.61523400000078,100.64111300000059
48,182.94873000000007,469.48730499999965,95.89746099999957,-48.974365000000034,149.61523400000078,93.84619099999964,101.9228520000006,101.15380900000036,77.69238299999961,107.30761700000039,56.153809000000365,97.56396500000028,127.05126999999993,96.15380900000036
49,185.2563479999999,482.5639650000003,99.48730499999965,-35.25634799999989,159.7436520000001,109.74365200000011,111.6665039999998,107.94873000000007,80.38476599999922,109.23095699999976,57.69238299999961,98.46142599999985,100.89746099999957,99.74365200000011
50,200.76904300000024,505.51269500000035,111.79492200000004,-12.435790999999426,173.7177729999994,127.17968800000017,129.23095699999976,121.53857400000015,94.23095699999976,119.61523400000078,67.43603499999972,105.51269500000035,85.64111300000059,106.41015599999992
51,216.6665039999998,527.8203130000002,123.46142599999985,7.692382999999609,178.3334960000002,132.6923829999996,140.51269500000035,131.2822270000006,108.46142599999985,130.2563479999999,76.2822270000006,112.30761700000039,69.87158199999976,109.74365200000011
52,220.76904300000024,539.4873049999997,126.79492200000004,17.43603499999972,169.3588869999994,122.56396500000028,137.6923829999996,130.89746099999957,114.61523400000078,134.61523400000078,78.0771479999994,114.61523400000078,45.0,109.23095699999976
53,210.89746099999957,536.6665039999998,121.15380900000036,17.56396500000028,153.7177729999994,105.76904300000024,124.48730499999965,122.43603499999972,111.9228520000006,132.3076170000004,73.3334960000002,112.17968800000017,10.384765999999217,107.82031300000017
54,196.15380900000036,523.9741210000002,112.56396500000028,16.025878999999804,142.43603499999972,95.64111300000059,112.69238299999961,114.10253900000043,105.64111300000059,128.0771479999994,67.69238299999961,108.7177729999994,-27.179442999999992,105.76904300000024
55,189.10253900000043,510.6411130000006,108.46142599999985,21.410155999999915,140.89746099999957,100.0,111.6665039999998,112.82031300000017,101.9228520000006,127.56396500000028,66.6665039999998,108.0771479999994,-59.35888699999987,102.43603499999972
56,194.87158199999976,502.94873000000007,111.79492200000004,35.897460999999566,146.0258789999998,115.0,121.2822270000006,118.46142599999985,102.43603499999972,132.6923829999996,71.15380900000036,111.15380900000036,-82.82055700000001,100.89746099999957
57,207.6923829999996,500.89746099999957,118.7177729999994,54.61523400000078,149.61523400000078,129.7436520000001,132.3076170000004,125.25634799999989,104.35888699999941,140.12841800000024,77.56396500000028,115.51269500000035,-100.76928699999962,103.84619099999964
58,216.79492200000004,499.48730499999965,122.69238299999961,70.25634799999989,145.6411130000006,135.0,135.6411130000006,127.30761700000039,103.46142599999985,143.3334960000002,81.2822270000006,117.56396500000028,-119.48706099999981,107.94873000000007
59,215.0,494.3588869999994,119.87158199999976,78.20507799999996,133.9741210000002,129.10253900000043,129.48730499999965,123.46142599999985,98.3334960000002,138.58984400000008,80.12841800000024,115.25634799999989,-142.56420900000057,107.56396500000028
60,203.46142599999985,482.94873000000007,111.41015599999992,78.0771479999994,118.9741210000002,117.30761700000039,118.20507799999996,116.6665039999998,90.64111300000059,127.82031300000017,75.0,108.7177729999994,-168.58984399999963,102.94873000000007
61,189.61523400000078,466.2822270000006,101.41015599999992,73.0771479999994,106.15380900000036,105.76904300000024,108.0771479999994,111.0258789999998,84.23095699999976,116.2822270000006,68.58984400000008,100.0,-193.20507799999996,99.35888699999941
62,182.05126999999993,449.10253900000043,95.0,68.9741210000002,100.12841800000024,99.35888699999941,103.0771479999994,109.48730499999965,82.17968800000017,107.69238299999961,64.74365200000011,92.82031300000017,-211.79492200000004,98.9741210000002
63,186.0258789999998,437.94873000000007,95.38476599999922,70.76904300000024,104.74365200000011,100.76904300000024,104.61523400000078,113.9741210000002,86.0258789999998,103.3334960000002,66.0258789999998,92.17968800000017,-222.43579099999943,98.58984400000008
64,199.48730499999965,436.79492200000004,103.0771479999994,80.25634799999989,121.41015599999992,109.61523400000078,111.9228520000006,123.9741210000002,95.12841800000024,103.84619099999964,73.0771479999994,100.64111300000059,-227.6923829999996,97.05126999999993
65,215.12841800000024,442.05126999999993,114.48730499999965,94.61523400000078,144.48730499999965,121.2822270000006,122.17968800000017,135.38476599999922,106.2822270000006,110.38476599999922,81.9228520000006,115.25634799999989,-233.46142599999985,97.94873000000007
66,224.61523400000078,444.87158199999976,122.82031300000017,108.46142599999985,161.15380900000036,128.46142599999985,130.6411130000006,141.6665039999998,113.9741210000002,122.30761700000039,86.15380900000036,127.69238299999961,-245.5129390000002,101.79492200000004
67,224.23095699999976,437.94873000000007,123.9741210000002,117.56396500000028,158.9741210000002,126.6665039999998,133.20507799999996,138.7177729999994,114.23095699999976,135.89746099999957,82.17968800000017,130.6411130000006,-264.2307130000004,104.61523400000078
68,217.43603499999972,421.79492200000004,118.9741210000002,121.41015599999992,137.82031300000017,118.3334960000002,130.12841800000024,129.10253900000043,108.3334960000002,146.53857400000015,72.69238299999961,124.35888699999941,-284.2307130000004,103.46142599999985
69,210.6411130000006,403.46142599999985,114.10253900000043,123.20507799999996,111.41015599999992,110.38476599999922,125.51269500000035,121.0258789999998,102.30761700000039,152.05126999999993,65.25634799999989,116.15380900000036,-298.58984399999963,101.9228520000006
70,208.46142599999985,390.3847659999992,114.48730499999965,126.6665039999998,96.9228520000006,108.46142599999985,122.69238299999961,120.12841800000024,101.41015599999992,152.82031300000017,65.51269500000035,113.7177729999994,-304.7436520000001,103.0771479999994
71,210.2563479999999,383.9741210000002,119.10253900000043,132.05126999999993,101.53857400000015,112.05126999999993,121.6665039999998,125.64111300000059,105.12841800000024,150.6411130000006,71.53857400000015,117.82031300000017,-307.179443,104.87158199999976
72,211.6665039999998,378.46142599999985,121.53857400000015,135.89746099999957,116.53857400000015,115.25634799999989,119.61523400000078,130.6411130000006,108.0771479999994,147.17968800000017,75.76904300000024,122.82031300000017,-313.58984399999963,103.3334960000002
73,207.6923829999996,366.9228520000006,116.79492200000004,133.7177729999994,125.89746099999957,113.3334960000002,115.0,128.7177729999994,105.38476599999922,142.82031300000017,71.53857400000015,121.79492200000004,-329.102539,100.25634799999989
74,198.0771479999994,348.3334960000002,106.6665039999998,124.87158199999976,120.38476599999922,106.79492200000004,108.9741210000002,118.9741210000002,96.6665039999998,137.3076170000004,59.23095699999976,114.10253900000043,-351.79492200000004,98.9741210000002
75,188.20507799999996,328.46142599999985,98.7177729999994,115.64111300000059,105.38476599999922,101.15380900000036,105.38476599999922,107.69238299999961,86.2822270000006,129.7436520000001,46.410155999999915,104.87158199999976,-373.58984399999963,99.10253900000043
76,184.7436520000001,314.48730499999965,99.74365200000011,114.48730499999965,93.7177729999994,100.89746099999957,106.2822270000006,102.43603499999972,80.0,121.41015599999992,41.53857400000015,101.15380900000036,-386.02563499999997,97.82031300000017
77,189.48730499999965,307.94873000000007,110.0,124.48730499999965,92.94873000000007,105.64111300000059,110.51269500000035,105.89746099999957,80.76904300000024,115.12841800000024,47.30761700000039,105.38476599999922,-388.46142599999985,96.41015599999992
78,196.79492200000004,303.9741210000002,122.69238299999961,139.87158199999976,99.87158199999976,111.41015599999992,114.35888699999941,113.84619099999964,86.53857400000015,113.46142599999985,58.333496000000196,114.61523400000078,-388.20507799999996,97.82031300000017
79,199.10253900000043,296.4101559999999,129.48730499999965,150.89746099999957,105.51269500000035,114.74365200000011,114.61523400000078,118.7177729999994,92.05126999999993,115.76904300000024,66.53857400000015,122.56396500000028,-392.9487299999996,101.15380900000036
80,193.9741210000002,284.3588869999994,127.05126999999993,151.79492200000004,103.9741210000002,115.12841800000024,111.2822270000006,117.05126999999993,93.7177729999994,119.23095699999976,67.05126999999993,125.38476599999922,-404.4870609999998,101.53857400000015
81,185.6411130000006,272.3076170000004,118.9741210000002,145.2563479999999,96.53857400000015,114.35888699999941,107.05126999999993,111.6665039999998,91.53857400000015,120.76904300000024,62.82031300000017,123.7177729999994,-417.9487299999996,98.7177729999994
82,180.6411130000006,265.76904300000024,112.56396500000028,139.7436520000001,88.0771479999994,113.46142599999985,105.12841800000024,107.69238299999961,88.7177729999994,120.25634799999989,60.12841800000024,122.17968800000017,-427.6923829999996,97.30761700000039
83,181.6665039999998,266.0258789999998,112.56396500000028,141.6665039999998,83.20507799999996,112.30761700000039,106.79492200000004,108.3334960000002,87.56396500000028,119.74365200000011,62.56396500000028,123.3334960000002,-432.5642090000006,98.7177729999994
84,186.2822270000006,268.7177729999994,117.43603499999972,151.2822270000006,83.84619099999964,111.0258789999998,110.12841800000024,112.05126999999993,88.0771479999994,121.2822270000006,67.69238299999961,125.89746099999957,-435.1281740000004,99.23095699999976
85,189.61523400000078,268.3334960000002,122.69238299999961,162.43603499999972,90.0,110.64111300000059,112.30761700000039,115.51269500000035,89.35888699999941,125.25634799999989,70.76904300000024,126.41015599999992,-438.20507799999996,96.9228520000006
86,189.23095699999976,262.82031300000017,124.61523400000078,168.7177729999994,100.51269500000035,112.82031300000017,112.30761700000039,117.17968800000017,91.53857400000015,130.51269500000035,69.87158199999976,123.46142599999985,-441.923096,95.51269500000035
87,186.15380900000036,254.10253900000043,123.0771479999994,166.6665039999998,114.23095699999976,118.0771479999994,112.43603499999972,118.3334960000002,94.87158199999976,135.0,67.82031300000017,119.74365200000011,-444.2307130000004,97.43603499999972
88,182.94873000000007,245.76904300000024,120.64111300000059,158.84619099999964,128.46142599999985,124.48730499999965,115.0,121.0258789999998,99.10253900000043,136.9228520000006,68.46142599999985,118.20507799999996,-443.46142599999985,99.61523400000078
89,181.15380900000036,239.61523400000078,119.61523400000078,149.87158199999976,137.82031300000017,128.46142599999985,119.61523400000078,124.87158199999976,103.3334960000002,135.51269500000035,73.20507799999996,119.74365200000011,-441.02563499999997,98.3334960000002
90,179.61523400000078,234.23095699999976,120.12841800000024,143.84619099999964,135.89746099999957,126.79492200000004,122.43603499999972,127.17968800000017,106.53857400000015,131.2822270000006,78.9741210000002,122.30761700000039,-440.897461,96.0258789999998
91,175.6411130000006,227.3076170000004,120.64111300000059,141.53857400000015,120.25634799999989,119.35888699999941,120.76904300000024,125.64111300000059,107.82031300000017,125.0,81.0258789999998,123.20507799999996,-445.5129390000002,96.53857400000015
92,168.3334960000002,218.46142599999985,119.35888699999941,141.9228520000006,96.6665039999998,110.12841800000024,116.6665039999998,121.0258789999998,106.6665039999998,116.53857400000015,76.53857400000015,120.51269500000035,-454.102539,98.20507799999996
93,159.3588869999994,209.61523400000078,116.41015599999992,143.84619099999964,76.53857400000015,104.74365200000011,114.35888699999941,116.6665039999998,103.20507799999996,105.76904300000024,67.82031300000017,115.0,-463.076904,97.17968800000017
94,152.3076170000004,203.3334960000002,113.3334960000002,146.6665039999998,69.61523400000078,106.15380900000036,116.2822270000006,115.0,99.10253900000043,96.79492200000004,60.64111300000059,109.35888699999941,-468.46142599999985,94.74365200000011
95,149.3588869999994,200.2563479999999,111.15380900000036,149.3588869999994,77.82031300000017,112.05126999999993,119.23095699999976,115.89746099999957,96.2822270000006,96.53857400000015,60.0,106.6665039999998,-468.97436500000003,95.0
96,148.9741210000002,197.94873000000007,109.23095699999976,150.51269500000035,93.7177729999994,116.6665039999998,118.7177729999994,117.05126999999993,95.89746099999957,108.46142599999985,65.51269500000035,107.17968800000017,-466.53857400000015,97.56396500000028
97,148.0771479999994,193.9741210000002,106.9228520000006,148.58984400000008,105.64111300000059,115.89746099999957,112.82031300000017,116.0258789999998,97.05126999999993,127.69238299999961,72.43603499999972,109.10253900000043,-464.2307130000004,97.82031300000017
98,145.6411130000006,189.10253900000043,105.12841800000024,144.87158199999976,106.6665039999998,110.89746099999957,105.12841800000024,113.0771479999994,98.7177729999994,143.3334960000002,77.05126999999993,111.2822270000006,-462.820557,94.87158199999976
99,144.3588869999994,185.6411130000006,106.6665039999998,142.56396500000028,98.3334960000002,107.17968800000017,100.89746099999957,110.76904300000024,100.38476599999922,147.43603499999972,79.35888699999941,114.74365200000011,-460.2563479999999,93.20507799999996
100,147.05126999999993,184.61523400000078,112.30761700000039,144.48730499999965,88.20507799999996,108.84619099999964,103.20507799999996,111.15380900000036,101.6665039999998,139.87158199999976,81.53857400000015,120.25634799999989,-454.2307130000004,94.48730499999965
101,152.56396500000028,183.58984400000008,119.35888699999941,150.2563479999999,83.9741210000002,115.38476599999922,110.12841800000024,113.9741210000002,101.79492200000004,127.05126999999993,84.23095699999976,126.15380900000036,-445.897461,95.76904300000024
102,156.6665039999998,180.12841800000024,123.58984400000008,156.53857400000015,89.10253900000043,122.05126999999993,117.56396500000028,117.05126999999993,100.64111300000059,118.46142599999985,86.53857400000015,129.87158199999976,-439.61547900000005,95.64111300000059
103,156.79492200000004,174.23095699999976,123.46142599999985,161.15380900000036,101.9228520000006,125.25634799999989,122.30761700000039,118.0771479999994,99.74365200000011,120.64111300000059,87.30761700000039,130.38476599999922,-438.33325200000036,97.17968800000017
104,153.3334960000002,169.48730499999965,119.74365200000011,163.84619099999964,116.15380900000036,123.9741210000002,122.69238299999961,117.05126999999993,101.41015599999992,132.6923829999996,86.53857400000015,128.3334960000002,-441.41015600000037,101.0258789999998
105,149.23095699999976,168.0771479999994,115.25634799999989,165.2563479999999,124.35888699999941,120.25634799999989,118.58984400000008,115.51269500000035,105.51269500000035,145.12841800000024,84.74365200000011,125.76904300000024,-445.897461,102.43603499999972
106,146.53857400000015,168.58984400000008,111.6665039999998,165.76904300000024,121.9228520000006,116.0258789999998,111.6665039999998,114.74365200000011,109.23095699999976,147.17968800000017,82.69238299999961,123.84619099999964,-449.8718259999996,98.20507799999996
107,145.76904300000024,166.79492200000004,109.74365200000011,164.7436520000001,109.48730499999965,112.94873000000007,105.12841800000024,114.74365200000011,110.0,136.6665039999998,81.41015599999992,123.20507799999996,-452.820557,92.56396500000028
108,146.79492200000004,160.2563479999999,109.61523400000078,162.82031300000017,93.3334960000002,111.79492200000004,102.05126999999993,115.89746099999957,108.7177729999994,121.9228520000006,81.9228520000006,123.84619099999964,-454.4870609999998,90.89746099999957
109,148.46142599999985,150.89746099999957,110.51269500000035,161.6665039999998,80.51269500000035,112.56396500000028,103.7177729999994,118.9741210000002,108.0771479999994,114.10253900000043,84.10253900000043,124.87158199999976,-454.2307130000004,92.56396500000028
110,149.10253900000043,142.43603499999972,111.53857400000015,162.17968800000017,75.51269500000035,114.10253900000043,108.7177729999994,123.3334960000002,109.48730499999965,117.56396500000028,86.41015599999992,124.74365200000011,-452.5642090000006,93.84619099999964
111,146.41015599999992,136.79492200000004,110.89746099999957,163.20507799999996,78.46142599999985,115.0,113.9741210000002,126.15380900000036,110.89746099999957,126.79492200000004,85.76904300000024,121.9228520000006,-452.3076170000004,94.48730499999965
112,140.0,133.0771479999994,107.69238299999961,162.6923829999996,85.76904300000024,115.12841800000024,116.2822270000006,124.23095699999976,109.48730499999965,132.6923829999996,81.15380900000036,116.41015599999992,-456.15380900000036,96.41015599999992
113,132.17968800000017,129.48730499999965,102.94873000000007,160.2563479999999,92.69238299999961,115.76904300000024,114.10253900000043,117.30761700000039,103.9741210000002,130.38476599999922,73.7177729999994,110.12841800000024,-464.4870609999998,97.56396500000028
114,127.05126999999993,125.64111300000059,99.10253900000043,158.20507799999996,95.51269500000035,117.30761700000039,108.20507799999996,108.84619099999964,96.41015599999992,123.0771479999994,67.43603499999972,105.89746099999957,-473.84619099999964,95.0
115,126.79492200000004,122.05126999999993,98.58984400000008,159.3588869999994,93.0771479999994,118.58984400000008,101.79492200000004,102.82031300000017,90.25634799999989,118.58984400000008,65.51269500000035,105.25634799999989,-479.2307130000004,90.38476599999922
116,130.76904300000024,119.87158199999976,102.30761700000039,164.23095699999976,87.56396500000028,117.56396500000028,98.46142599999985,101.2822270000006,88.58984400000008,120.25634799999989,69.48730499999965,108.0771479999994,-477.9487299999996,88.84619099999964
117,137.17968800000017,120.0,108.9741210000002,171.41015599999992,84.10253900000043,115.0,101.0258789999998,104.74365200000011,92.05126999999993,124.61523400000078,78.20507799999996,113.3334960000002,-470.1281740000004,91.15380900000036
118,144.23095699999976,122.82031300000017,116.53857400000015,178.20507799999996,87.05126999999993,114.61523400000078,109.10253900000043,112.30761700000039,99.23095699999976,125.38476599999922,88.3334960000002,120.0,-458.58984399999963,93.0771479999994
119,149.23095699999976,125.51269500000035,122.05126999999993,181.0258789999998,95.51269500000035,120.12841800000024,118.58984400000008,121.0258789999998,106.9228520000006,120.51269500000035,95.64111300000059,126.6665039999998,-448.97436500000003,92.69238299999961
120,148.3334960000002,123.20507799999996,122.05126999999993,177.17968800000017,102.05126999999993,130.51269500000035,122.82031300000017,126.15380900000036,110.51269500000035,112.17968800000017,95.64111300000059,129.48730499999965,-447.4357909999994,92.94873000000007
121,139.48730499999965,113.0771479999994,114.87158199999976,166.41015599999992,98.0771479999994,140.38476599999922,116.9228520000006,123.46142599999985,107.17968800000017,102.69238299999961,87.17968800000017,124.87158199999976,-456.02563499999997,94.48730499999965
122,126.0258789999998,98.58984400000008,103.7177729999994,153.46142599999985,83.84619099999964,145.0,102.43603499999972,114.10253900000043,98.46142599999985,94.61523400000078,75.0,113.58984400000008,-470.0,93.7177729999994
123,116.2822270000006,87.94873000000007,95.64111300000059,145.76904300000024,68.84619099999964,144.7436520000001,88.0771479999994,104.48730499999965,90.38476599999922,91.79492200000004,67.43603499999972,102.56396500000028,-478.97436500000003,89.48730499999965
124,116.9228520000006,86.2822270000006,95.64111300000059,148.0771479999994,63.846190999999635,144.48730499999965,82.94873000000007,101.79492200000004,89.23095699999976,97.43603499999972,70.51269500000035,100.25634799999989,-475.38452099999995,86.9228520000006
125,127.30761700000039,92.30761700000039,103.3334960000002,157.43603499999972,71.79492200000004,148.58984400000008,90.12841800000024,107.82031300000017,95.76904300000024,110.0,82.56396500000028,109.35888699999941,-460.7692869999996,89.61523400000078
126,140.51269500000035,98.84619099999964,112.56396500000028,166.2822270000006,85.64111300000059,157.82031300000017,103.9741210000002,118.20507799999996,105.0,122.69238299999961,95.89746099999957,124.10253900000043,-444.2307130000004,94.10253900000043
127,147.82031300000017,100.51269500000035,117.94873000000007,169.10253900000043,95.64111300000059,167.6923829999996,115.12841800000024,126.2822270000006,111.53857400000015,129.48730499999965,102.69238299999961,135.2563479999999,-434.7436520000001,95.38476599999922
128,145.76904300000024,96.53857400000015,117.69238299999961,166.2822270000006,96.6665039999998,172.56396500000028,117.94873000000007,128.3334960000002,113.84619099999964,130.0,100.76904300000024,137.17968800000017,-434.7436520000001,94.48730499999965
129,137.6923829999996,91.41015599999992,114.35888699999941,162.82031300000017,91.79492200000004,170.12841800000024,113.84619099999964,125.76904300000024,114.23095699999976,127.82031300000017,94.10253900000043,131.15380900000036,-439.2307130000004,94.87158199999976
130,130.51269500000035,89.87158199999976,111.9228520000006,163.9741210000002,88.46142599999985,163.9741210000002,109.35888699999941,123.3334960000002,115.12841800000024,124.48730499999965,89.10253900000043,123.20507799999996,-441.28198199999997,95.76904300000024
131,129.48730499999965,92.94873000000007,111.9228520000006,170.38476599999922,90.38476599999922,160.12841800000024,109.74365200000011,123.46142599999985,116.53857400000015,118.7177729999994,88.58984400000008,118.46142599999985,-438.33325200000036,94.61523400000078
132,133.7177729999994,97.17968800000017,113.20507799999996,177.43603499999972,93.58984400000008,161.9228520000006,113.7177729999994,125.64111300000059,116.0258789999998,109.87158199999976,90.25634799999989,117.69238299999961,-433.71801800000003,92.56396500000028
133,137.43603499999972,96.79492200000004,112.94873000000007,178.7177729999994,91.2822270000006,165.76904300000024,115.25634799999989,125.89746099999957,111.6665039999998,99.61523400000078,88.9741210000002,117.56396500000028,-433.46142599999985,93.0771479999994
134,136.0258789999998,90.25634799999989,109.35888699999941,171.79492200000004,82.94873000000007,165.6411130000006,110.38476599999922,121.41015599999992,103.9741210000002,91.9228520000006,82.69238299999961,114.23095699999976,-439.61547900000005,95.51269500000035
135,130.6411130000006,82.05126999999993,104.87158199999976,162.05126999999993,77.30761700000039,160.2563479999999,102.17968800000017,114.23095699999976,97.56396500000028,90.25634799999989,75.12841800000024,108.9741210000002,-446.79492200000004,95.64111300000059
136,126.79492200000004,79.23095699999976,104.35888699999941,158.0771479999994,83.9741210000002,155.51269500000035,98.0771479999994,110.0,97.69238299999961,96.0258789999998,72.82031300000017,106.79492200000004,-446.66674799999964,93.46142599999985
137,128.84619099999964,84.48730499999965,109.74365200000011,163.58984400000008,102.69238299999961,158.7177729999994,102.69238299999961,112.30761700000039,105.76904300000024,106.41015599999992,78.9741210000002,111.15380900000036,-435.897461,93.3334960000002
138,134.7436520000001,92.94873000000007,117.43603499999972,174.23095699999976,121.0258789999998,170.76904300000024,113.0771479999994,119.23095699999976,116.15380900000036,115.12841800000024,89.23095699999976,119.35888699999941,-420.0,96.15380900000036
139,138.58984400000008,97.05126999999993,121.15380900000036,180.76904300000024,124.87158199999976,184.87158199999976,121.15380900000036,123.7177729999994,120.12841800000024,116.53857400000015,95.89746099999957,124.48730499999965,-408.97436500000003,97.30761700000039
140,136.0258789999998,93.20507799999996,118.58984400000008,178.84619099999964,112.17968800000017,193.58984400000008,121.41015599999992,121.0258789999998,113.84619099999964,112.05126999999993,94.23095699999976,122.69238299999961,-408.33325200000036,94.61523400000078
141,128.9741210000002,84.48730499999965,112.69238299999961,171.9228520000006,93.9741210000002,195.12841800000024,115.25634799999989,113.20507799999996,101.53857400000015,108.84619099999964,86.9228520000006,116.6665039999998,-415.2563479999999,91.79492200000004
142,123.20507799999996,76.9228520000006,109.23095699999976,168.0771479999994,84.48730499999965,194.48730499999965,108.84619099999964,106.9228520000006,91.53857400000015,113.0771479999994,81.2822270000006,112.69238299999961,-421.66674799999964,92.05126999999993
143,123.20507799999996,74.10253900000043,110.12841800000024,170.76904300000024,88.20507799999996,195.51269500000035,106.41015599999992,107.30761700000039,89.10253900000043,120.64111300000059,81.9228520000006,114.48730499999965,-422.4357909999994,93.46142599999985
144,127.43603499999972,74.23095699999976,112.82031300000017,175.76904300000024,96.9228520000006,195.51269500000035,106.79492200000004,112.94873000000007,92.82031300000017,120.25634799999989,86.6665039999998,119.48730499999965,-419.61547900000005,92.69238299999961
145,129.61523400000078,71.53857400000015,112.30761700000039,175.0,98.7177729999994,187.3076170000004,105.12841800000024,117.43603499999972,97.30761700000039,104.48730499999965,89.10253900000043,121.2822270000006,-419.102539,91.6665039999998
146,125.12841800000024,63.0771479999994,106.53857400000015,165.0,90.51269500000035,168.20507799999996,99.61523400000078,115.38476599999922,98.84619099999964,80.25634799999989,85.38476599999922,116.15380900000036,-424.7436520000001,92.69238299999961
147,114.87158199999976,50.76904300000024,98.3334960000002,150.6411130000006,81.15380900000036,145.12841800000024,93.3334960000002,107.43603499999972,97.43603499999972,63.589844000000085,77.94873000000007,106.2822270000006,-433.076904,93.7177729999994
148,105.25634799999989,40.897460999999566,93.0771479999994,141.0258789999998,82.17968800000017,131.15380900000036,91.6665039999998,98.7177729999994,95.25634799999989,66.15380900000036,72.82031300000017,98.0771479999994,-436.53857400000015,91.2822270000006
149,101.9228520000006,37.56396500000028,94.48730499999965,141.41015599999992,95.89746099999957,133.20507799999996,95.76904300000024,95.38476599999922,94.23095699999976,84.35888699999941,73.9741210000002,96.79492200000004,-430.897461,87.56396500000028
150,105.12841800000024,40.25634799999989,100.76904300000024,148.9741210000002,112.05126999999993,145.76904300000024,101.6665039999998,98.84619099999964,93.84619099999964,103.3334960000002,80.25634799999989,102.05126999999993,-419.61547900000005,87.56396500000028
151,110.12841800000024,44.87158199999976,106.9228520000006,156.0258789999998,116.6665039999998,154.87158199999976,104.10253900000043,106.2822270000006,92.82031300000017,109.23095699999976,86.2822270000006,109.10253900000043,-410.5129390000002,91.0258789999998
152,112.43603499999972,47.30761700000039,108.46142599999985,156.6665039999998,105.12841800000024,150.38476599999922,101.53857400000015,113.0771479999994,91.6665039999998,101.15380900000036,87.43603499999972,113.58984400000008,-408.58984399999963,93.0771479999994
153,111.15380900000036,45.897460999999566,106.15380900000036,151.9228520000006,87.43603499999972,133.84619099999964,97.56396500000028,116.53857400000015,92.69238299999961,89.61523400000078,84.61523400000078,114.48730499999965,-411.923096,92.43603499999972
154,108.20507799999996,41.410155999999915,103.20507799999996,147.56396500000028,79.74365200000011,116.41015599999992,97.05126999999993,117.43603499999972,97.56396500000028,86.53857400000015,82.43603499999972,113.46142599999985,-414.4870609999998,92.17968800000017
155,105.76904300000024,35.76904300000024,102.43603499999972,147.82031300000017,89.10253900000043,108.58984400000008,101.79492200000004,117.43603499999972,104.48730499999965,94.23095699999976,84.23095699999976,112.43603499999972,-411.66674799999964,92.94873000000007
156,103.84619099999964,30.769043000000238,103.0771479999994,151.9228520000006,105.64111300000059,112.30761700000039,108.20507799999996,117.30761700000039,108.9741210000002,105.25634799999989,88.7177729999994,110.76904300000024,-404.8718259999996,91.79492200000004
157,100.89746099999957,26.922852000000603,102.43603499999972,155.0,111.9228520000006,120.12841800000024,110.89746099999957,116.2822270000006,107.69238299999961,110.64111300000059,91.15380900000036,106.9228520000006,-400.0,88.3334960000002
158,96.15380900000036,24.615234000000783,98.84619099999964,153.84619099999964,99.35888699999941,123.3334960000002,107.69238299999961,113.46142599999985,102.17968800000017,107.43603499999972,87.82031300000017,101.41015599999992,-401.28198199999997,87.43603499999972
159,92.17968800000017,24.871581999999762,93.9741210000002,150.38476599999922,76.6665039999998,120.12841800000024,101.53857400000015,110.0,96.6665039999998,99.74365200000011,80.51269500000035,97.56396500000028,-407.0512700000004,90.89746099999957
160,92.30761700000039,27.94873000000007,91.79492200000004,149.23095699999976,62.30761700000039,116.2822270000006,98.46142599999985,108.20507799999996,95.12841800000024,93.58984400000008,74.74365200000011,98.3334960000002,-411.41015600000037,94.35888699999941
161,97.30761700000039,31.538574000000153,94.74365200000011,152.05126999999993,67.56396500000028,117.43603499999972,100.51269500000035,109.74365200000011,97.69238299999961,90.89746099999957,74.74365200000011,102.82031300000017,-409.4870609999998,93.7177729999994
162,103.46142599999985,31.794922000000042,100.89746099999957,155.76904300000024,87.82031300000017,122.17968800000017,104.61523400000078,113.7177729999994,100.76904300000024,88.58984400000008,79.74365200000011,107.17968800000017,-402.820557,91.53857400000015
163,105.51269500000035,27.17968800000017,105.64111300000059,155.76904300000024,106.79492200000004,124.61523400000078,105.89746099999957,116.79492200000004,100.25634799999989,83.3334960000002,84.74365200000011,108.3334960000002,-396.79492200000004,91.79492200000004
164,101.53857400000015,20.25634799999989,106.15380900000036,151.41015599999992,111.53857400000015,120.76904300000024,102.56396500000028,116.53857400000015,96.0258789999998,76.41015599999992,85.38476599999922,105.76904300000024,-395.1281740000004,93.20507799999996
165,94.74365200000011,16.410155999999915,103.7177729999994,146.2822270000006,102.82031300000017,113.3334960000002,98.0771479999994,113.58984400000008,92.30761700000039,73.84619099999964,82.05126999999993,102.43603499999972,-396.53857400000015,92.43603499999972
166,90.64111300000059,19.48730499999965,101.9228520000006,144.7436520000001,91.79492200000004,108.7177729999994,96.9228520000006,110.76904300000024,93.0771479999994,81.0258789999998,78.58984400000008,102.05126999999993,-396.02563499999997,90.38476599999922
167,91.53857400000015,27.17968800000017,102.43603499999972,147.43603499999972,88.20507799999996,110.38476599999922,100.51269500000035,110.0,97.82031300000017,96.15380900000036,78.0771479999994,105.0,-391.41015600000037,89.87158199999976
168,94.23095699999976,32.17968800000017,102.82031300000017,150.38476599999922,90.89746099999957,115.12841800000024,104.23095699999976,109.48730499999965,101.15380900000036,109.23095699999976,78.58984400000008,107.82031300000017,-385.7692869999996,90.12841800000024
169,92.82031300000017,28.077147999999397,98.7177729999994,148.58984400000008,90.38476599999922,116.41015599999992,101.79492200000004,106.15380900000036,97.17968800000017,109.61523400000078,75.64111300000059,105.51269500000035,-385.5129390000002,87.94873000000007
170,85.0,15.128418000000238,89.87158199999976,140.89746099999957,80.51269500000035,110.64111300000059,92.17968800000017,99.23095699999976,85.89746099999957,95.12841800000024,67.69238299999961,97.30761700000039,-393.58984399999963,84.74365200000011
171,75.64111300000059,1.9228520000006029,81.9228520000006,132.43603499999972,67.05126999999993,102.05126999999993,82.17968800000017,92.56396500000028,73.9741210000002,74.23095699999976,60.51269500000035,88.7177729999994,-404.35888699999987,85.38476599999922
172,73.3334960000002,-1.2822270000006029,81.9228520000006,130.51269500000035,63.589844000000085,99.35888699999941,81.0258789999998,91.41015599999992,70.0,59.23095699999976,62.30761700000039,87.05126999999993,-407.820557,89.87158199999976
173,82.82031300000017,9.102539000000434,92.05126999999993,138.58984400000008,78.3334960000002,107.69238299999961,91.79492200000004,97.82031300000017,77.69238299999961,57.30761700000039,75.76904300000024,95.12841800000024,-397.5642090000006,93.58984400000008
174,99.23095699999976,26.410155999999915,106.2822270000006,151.9228520000006,104.23095699999976,123.46142599999985,108.0771479999994,108.0771479999994,91.6665039999998,65.64111300000059,93.58984400000008,107.82031300000017,-377.820557,93.46142599999985
175,111.41015599999992,38.46142599999985,114.61523400000078,160.89746099999957,123.7177729999994,136.6665039999998,118.58984400000008,114.74365200000011,102.56396500000028,75.89746099999957,103.58984400000008,116.15380900000036,-360.38452099999995,92.17968800000017
176,111.41015599999992,37.82031300000017,111.41015599999992,159.10253900000043,122.94873000000007,140.0,117.05126999999993,113.3334960000002,103.9741210000002,81.79492200000004,99.23095699999976,114.35888699999941,-355.0,91.53857400000015
177,100.51269500000035,26.922852000000603,99.48730499999965,148.58984400000008,104.35888699999941,133.9741210000002,106.79492200000004,106.6665039999998,97.94873000000007,83.0771479999994,84.87158199999976,104.87158199999976,-361.66674799999964,90.0
178,87.43603499999972,15.769043000000238,88.0771479999994,137.3076170000004,82.82031300000017,125.89746099999957,96.9228520000006,101.79492200000004,92.30761700000039,83.58984400000008,72.82031300000017,95.12841800000024,-371.53857400000015,86.79492200000004
179,80.51269500000035,12.051269999999931,84.35888699999941,131.9228520000006,71.15380900000036,121.0258789999998,93.9741210000002,102.94873000000007,93.3334960000002,87.43603499999972,72.56396500000028,91.79492200000004,-375.38452099999995,85.76904300000024
180,81.6665039999998,15.0,87.94873000000007,132.82031300000017,69.74365200000011,118.7177729999994,96.79492200000004,108.3334960000002,100.76904300000024,94.61523400000078,84.23095699999976,95.25634799999989,-370.5129390000002,88.7177729999994
181,85.76904300000024,17.56396500000028,92.30761700000039,134.7436520000001,70.0,113.9741210000002,98.9741210000002,112.30761700000039,108.46142599999985,100.12841800000024,97.94873000000007,100.12841800000024,-361.53857400000015,91.6665039999998
182,86.0258789999998,13.589844000000085,91.15380900000036,132.6923829999996,65.51269500000035,104.23095699999976,95.64111300000059,111.0258789999998,110.0,98.84619099999964,102.69238299999961,100.38476599999922,-354.8718259999996,90.12841800000024
183,81.53857400000015,4.487304999999651,85.0,126.6665039999998,60.0,93.20507799999996,88.84619099999964,105.51269500000035,105.0,90.64111300000059,96.0258789999998,95.89746099999957,-354.102539,87.17968800000017
184,77.56396500000028,-2.8203119999998307,80.12841800000024,120.64111300000059,61.2822270000006,87.43603499999972,85.0,100.76904300000024,98.7177729999994,80.51269500000035,85.0,91.6665039999998,-356.923096,87.69238299999961
185,79.61523400000078,-2.4360349999997197,81.6665039999998,119.48730499999965,71.2822270000006,91.15380900000036,88.3334960000002,101.6665039999998,96.15380900000036,74.35888699999941,79.48730499999965,92.30761700000039,-358.97436500000003,90.76904300000024
186,87.56396500000028,4.358886999999413,88.9741210000002,124.23095699999976,81.6665039999998,101.41015599999992,96.41015599999992,107.82031300000017,97.43603499999972,75.51269500000035,83.46142599999985,97.69238299999961,-357.9487299999996,91.9228520000006
187,95.51269500000035,11.538574000000153,96.9228520000006,131.53857400000015,82.05126999999993,110.12841800000024,103.20507799999996,113.9741210000002,99.48730499999965,83.20507799999996,93.0771479999994,103.9741210000002,-354.61547900000005,90.51269500000035
188,98.9741210000002,14.871581999999762,101.41015599999992,137.6923829999996,71.79492200000004,112.30761700000039,105.0,115.38476599999922,100.51269500000035,93.20507799999996,101.6665039999998,107.94873000000007,-350.7692869999996,90.12841800000024
189,98.9741210000002,16.282227000000603,102.82031300000017,141.6665039999998,62.43603499999972,109.74365200000011,103.7177729999994,113.20507799999996,101.6665039999998,100.51269500000035,106.0258789999998,109.87158199999976,-346.02563499999997,91.2822270000006
190,99.87158199999976,20.51269500000035,103.84619099999964,145.12841800000024,67.43603499999972,108.84619099999964,104.48730499999965,112.05126999999993,105.0,102.82031300000017,106.6665039999998,112.05126999999993,-339.2307130000004,91.41015599999992
191,104.10253900000043,28.717772999999397,106.9228520000006,149.10253900000043,87.82031300000017,113.46142599999985,109.48730499999965,115.12841800000024,109.74365200000011,101.15380900000036,106.2822270000006,116.15380900000036,-331.28198199999997,90.51269500000035
192,109.35888699999941,36.666503999999804,111.15380900000036,152.94873000000007,110.38476599999922,121.0258789999998,115.89746099999957,120.25634799999989,113.0771479999994,97.30761700000039,106.41015599999992,121.15380900000036,-325.38452099999995,91.2822270000006
193,111.41015599999992,38.7177729999994,113.3334960000002,154.10253900000043,118.84619099999964,124.87158199999976,117.94873000000007,122.94873000000007,111.79492200000004,91.15380900000036,106.2822270000006,124.23095699999976,-324.7436520000001,93.58984400000008
194,107.17968800000017,32.56396500000028,111.15380900000036,150.12841800000024,107.30761700000039,120.38476599999922,113.0771479999994,120.12841800000024,104.87158199999976,82.17968800000017,103.7177729999994,122.30761700000039,-330.38452099999995,92.94873000000007
195,97.17968800000017,20.384765999999217,104.61523400000078,141.0258789999998,83.58984400000008,108.3334960000002,103.0771479999994,111.79492200000004,94.74365200000011,71.53857400000015,96.9228520000006,114.10253900000043,-340.64111300000013,87.82031300000017
196,84.74365200000011,7.43603499999972,95.38476599999922,129.3588869999994,62.82031300000017,94.74365200000011,92.94873000000007,100.89746099999957,86.0258789999998,62.94873000000007,86.15380900000036,101.9228520000006,-352.3076170000004,83.58984400000008
197,75.38476599999922,-1.0258789999998044,87.43603499999972,120.51269500000035,55.51269500000035,86.6665039999998,87.82031300000017,93.0771479999994,83.3334960000002,59.48730499999965,74.87158199999976,90.64111300000059,-360.7692869999996,83.9741210000002
198,73.7177729999994,-1.4101559999999154,84.35888699999941,118.9741210000002,62.56396500000028,88.20507799999996,90.0,92.94873000000007,87.82031300000017,62.69238299999961,68.7177729999994,86.15380900000036,-360.7692869999996,86.6665039999998
199,80.38476599999922,4.743652000000111,88.0771479999994,125.51269500000035,75.38476599999922,97.17968800000017,98.20507799999996,101.41015599999992,97.30761700000039,72.56396500000028,71.79492200000004,90.76904300000024,-350.1281740000004,87.69238299999961
200,90.64111300000059,11.794922000000042,96.15380900000036,135.38476599999922,82.94873000000007,106.2822270000006,107.56396500000028,113.58984400000008,106.41015599999992,87.43603499999972,82.94873000000007,101.79492200000004,-332.820557,88.0771479999994
201,97.30761700000039,13.846190999999635,103.20507799999996,141.41015599999992,79.48730499999965,107.94873000000007,112.30761700000039,121.6665039999998,110.12841800000024,101.6665039999998,95.89746099999957,112.05126999999993,-317.9487299999996,89.87158199999976
202,96.79492200000004,9.615234000000783,104.87158199999976,139.87158199999976,67.94873000000007,100.89746099999957,109.74365200000011,120.89746099999957,106.41015599999992,107.69238299999961,103.0771479999994,115.51269500000035,-312.6923829999996,90.89746099999957
203,91.0258789999998,3.846190999999635,101.2822270000006,133.20507799999996,58.0771479999994,90.64111300000059,102.69238299999961,112.94873000000007,97.69238299999961,102.69238299999961,101.9228520000006,111.53857400000015,-316.66674799999964,88.20507799999996
204,86.41015599999992,2.9487300000000687,96.9228520000006,128.20507799999996,58.974121000000196,85.12841800000024,97.17968800000017,104.23095699999976,90.64111300000059,91.79492200000004,96.6665039999998,105.89746099999957,-322.179443,84.23095699999976
205,88.0771479999994,10.128418000000238,96.6665039999998,130.12841800000024,72.43603499999972,89.10253900000043,98.0771479999994,101.9228520000006,90.76904300000024,84.10253900000043,93.9741210000002,105.38476599999922,-320.5129390000002,84.61523400000078
206,95.89746099999957,22.56396500000028,101.79492200000004,138.46142599999985,90.89746099999957,99.48730499999965,105.12841800000024,107.30761700000039,98.0771479999994,84.61523400000078,97.56396500000028,111.53857400000015,-309.61547900000005,89.10253900000043
207,105.0,32.94873000000007,108.0771479999994,146.9228520000006,102.82031300000017,107.82031300000017,113.7177729999994,115.38476599999922,106.6665039999998,89.74365200000011,104.35888699999941,119.35888699999941,-295.897461,92.17968800000017
208,108.46142599999985,34.35888699999941,109.10253900000043,147.6923829999996,100.12841800000024,106.79492200000004,117.05126999999993,118.84619099999964,109.23095699999976,92.30761700000039,107.30761700000039,121.53857400000015,-288.97436500000003,91.2822270000006
209,102.43603499999972,24.102539000000434,101.6665039999998,137.6923829999996,85.12841800000024,96.6665039999998,111.79492200000004,113.84619099999964,102.94873000000007,88.3334960000002,101.41015599999992,114.10253900000043,-293.58984399999963,89.48730499999965
210,89.10253900000043,6.922852000000603,88.58984400000008,121.53857400000015,68.46142599999985,84.87158199999976,101.0258789999998,102.94873000000007,91.41015599999992,79.23095699999976,88.46142599999985,100.12841800000024,-305.897461,88.46142599999985
211,76.41015599999992,-7.051270000000386,78.20507799999996,108.58984400000008,61.666503999999804,80.64111300000059,92.05126999999993,93.20507799999996,81.79492200000004,69.87158199999976,76.15380900000036,87.69238299999961,-316.02563499999997,86.2822270000006
212,72.69238299999961,-9.230713000000378,77.94873000000007,106.53857400000015,68.3334960000002,88.0771479999994,91.53857400000015,90.89746099999957,80.25634799999989,64.61523400000078,72.82031300000017,84.48730499999965,-315.897461,83.7177729999994
213,80.25634799999989,1.7949220000000423,87.69238299999961,115.89746099999957,81.6665039999998,102.56396500000028,99.48730499999965,97.30761700000039,87.17968800000017,64.87158199999976,80.38476599999922,91.9228520000006,-305.64111300000013,84.48730499999965
214,92.43603499999972,17.94873000000007,99.48730499999965,129.7436520000001,89.74365200000011,113.84619099999964,109.48730499999965,107.05126999999993,96.79492200000004,68.3334960000002,92.30761700000039,103.3334960000002,-293.20507799999996,89.23095699999976
215,98.84619099999964,27.05126999999993,104.10253900000043,138.20507799999996,85.38476599999922,113.84619099999964,113.20507799999996,112.94873000000007,101.53857400000015,71.15380900000036,98.84619099999964,108.9741210000002,-288.20507799999996,91.9228520000006
216,93.7177729999994,22.56396500000028,97.94873000000007,135.89746099999957,71.79492200000004,103.0771479999994,107.82031300000017,111.9228520000006,98.9741210000002,71.0258789999998,95.25634799999989,104.23095699999976,-293.58984399999963,88.84619099999964
217,80.76904300000024,7.692382999999609,86.53857400000015,124.48730499999965,59.35888699999941,90.0,98.46142599999985,107.05126999999993,93.0771479999994,69.48730499999965,85.64111300000059,93.58984400000008,-302.820557,84.23095699999976
218,69.61523400000078,-6.41015600000037,78.84619099999964,112.05126999999993,56.79492200000004,84.10253900000043,93.7177729999994,104.35888699999941,90.51269500000035,70.89746099999957,78.9741210000002,86.2822270000006,-306.66674799999964,83.84619099999964
219,68.0771479999994,-9.487060999999812,80.51269500000035,106.41015599999992,64.74365200000011,89.35888699999941,98.3334960000002,107.56396500000028,94.74365200000011,77.56396500000028,80.89746099999957,87.94873000000007,-300.897461,86.6665039999998
220,76.15380900000036,0.512695000000349,89.87158199999976,110.25634799999989,76.6665039999998,101.53857400000015,109.35888699999941,115.12841800000024,103.3334960000002,87.05126999999993,90.0,96.41015599999992,-290.0,87.94873000000007
221,87.69238299999961,16.794922000000042,100.12841800000024,120.25634799999989,85.12841800000024,112.05126999999993,118.58984400000008,122.56396500000028,111.0258789999998,95.12841800000024,99.87158199999976,105.25634799999989,-281.53857400000015,87.69238299999961
222,95.0,28.461425999999847,104.74365200000011,130.51269500000035,86.53857400000015,114.48730499999965,119.74365200000011,125.64111300000059,112.82031300000017,97.56396500000028,104.10253900000043,108.9741210000002,-280.5129390000002,88.84619099999964
223,92.94873000000007,27.05126999999993,100.76904300000024,135.38476599999922,80.38476599999922,107.94873000000007,111.79492200000004,121.9228520000006,106.6665039999998,91.9228520000006,99.48730499999965,105.38476599999922,-286.66674799999964,90.12841800000024
224,82.17968800000017,12.82031300000017,90.89746099999957,132.94873000000007,66.79492200000004,96.41015599999992,98.9741210000002,111.9228520000006,94.23095699999976,77.43603499999972,88.20507799999996,96.41015599999992,-296.53857400000015,88.20507799999996
225,69.10253900000043,-5.38452099999995,81.2822270000006,126.6665039999998,48.333496000000196,86.0258789999998,88.20507799999996,100.25634799999989,80.89746099999957,59.102539000000434,76.2822270000006,87.94873000000007,-305.0,84.23095699999976
226,62.69238299999961,-14.358886999999868,78.58984400000008,122.69238299999961,32.43603499999972,81.79492200000004,85.51269500000035,93.3334960000002,73.9741210000002,47.69238299999961,71.2822270000006,86.41015599999992,-307.179443,82.82031300000017
227,67.69238299999961,-7.435790999999426,85.25634799999989,125.51269500000035,29.102539000000434,85.0,91.9228520000006,95.64111300000059,77.56396500000028,51.53857400000015,76.41015599999992,94.87158199999976,-300.38452099999995,84.74365200000011
228,80.38476599999922,10.512695000000349,97.17968800000017,132.94873000000007,42.43603499999972,91.9228520000006,101.2822270000006,105.38476599999922,88.7177729999994,68.20507799999996,87.56396500000028,108.58984400000008,-287.4357909999994,86.15380900000036
229,91.41015599999992,25.384765999999217,106.41015599999992,137.56396500000028,66.6665039999998,96.41015599999992,105.12841800000024,115.38476599999922,98.84619099999964,84.74365200000011,97.05126999999993,118.58984400000008,-275.897461,85.76904300000024
230,93.46142599999985,27.17968800000017,106.9228520000006,135.0,88.3334960000002,94.87158199999976,100.12841800000024,118.20507799999996,101.53857400000015,89.23095699999976,99.74365200000011,118.84619099999964,-271.79492200000004,86.6665039999998
231,88.20507799999996,17.69238299999961,100.89746099999957,128.20507799999996,96.15380900000036,90.0,91.41015599999992,113.3334960000002,97.05126999999993,81.41015599999992,97.69238299999961,111.79492200000004,-274.35888699999987,89.87158199999976
232,84.35888699999941,8.846190999999635,96.2822270000006,125.64111300000059,89.10253900000043,88.58984400000008,88.9741210000002,107.30761700000039,92.43603499999972,72.69238299999961,97.05126999999993,106.2822270000006,-275.897461,91.9228520000006
233,88.9741210000002,11.282227000000603,100.38476599999922,132.56396500000028,75.89746099999957,95.51269500000035,98.0771479999994,107.56396500000028,94.87158199999976,76.2822270000006,101.9228520000006,109.10253900000043,-269.7436520000001,91.0258789999998
234,100.76904300000024,23.589844000000085,112.05126999999993,145.76904300000024,66.15380900000036,107.69238299999961,114.35888699999941,115.25634799999989,104.61523400000078,93.9741210000002,110.0,118.84619099999964,-257.820557,90.64111300000059
235,110.38476599999922,34.35888699999941,121.9228520000006,155.38476599999922,63.0771479999994,115.38476599999922,126.79492200000004,123.9741210000002,113.84619099999964,114.35888699999941,113.58984400000008,126.41015599999992,-249.4870609999998,93.0771479999994
236,109.10253900000043,32.56396500000028,120.38476599999922,152.43603499999972,63.7177729999994,111.53857400000015,126.53857400000015,125.12841800000024,113.7177729999994,120.76904300000024,107.43603499999972,123.20507799999996,-253.20507799999996,94.74365200000011
237,95.76904300000024,17.30761700000039,106.53857400000015,136.6665039999998,62.56396500000028,97.05126999999993,113.7177729999994,116.0258789999998,102.05126999999993,106.53857400000015,93.7177729999994,109.61523400000078,-268.46142599999985,92.17968800000017
238,78.3334960000002,-1.6665039999998044,88.7177729999994,116.6665039999998,57.30761700000039,80.76904300000024,96.79492200000004,102.17968800000017,86.0258789999998,80.76904300000024,80.76904300000024,94.23095699999976,-285.7692869999996,88.20507799999996
239,67.43603499999972,-11.794922000000042,78.0771479999994,103.46142599999985,50.25634799999989,72.56396500000028,86.41015599999992,92.69238299999961,75.51269500000035,61.2822270000006,76.15380900000036,87.30761700000039,-293.97436500000003,87.69238299999961
240,68.9741210000002,-7.179442999999992,80.0,103.20507799999996,47.94873000000007,77.05126999999993,88.3334960000002,94.10253900000043,76.41015599999992,59.61523400000078,81.0258789999998,92.69238299999961,-287.0512700000004,89.74365200000011
241,80.25634799999989,8.077147999999397,90.76904300000024,112.82031300000017,55.0,90.76904300000024,100.0,105.38476599999922,86.6665039999998,72.30761700000039,89.61523400000078,106.0258789999998,-268.20507799999996,90.12841800000024
242,92.30761700000039,22.56396500000028,101.0258789999998,123.7177729999994,67.82031300000017,104.35888699999941,112.30761700000039,118.84619099999964,98.46142599999985,85.38476599999922,94.35888699999941,118.0771479999994,-248.97436500000003,88.46142599999985
243,96.0258789999998,26.153809000000365,103.20507799999996,127.94873000000007,76.0258789999998,109.35888699999941,116.2822270000006,125.76904300000024,104.74365200000011,87.56396500000028,91.9228520000006,121.0258789999998,-241.15380900000036,87.82031300000017
244,89.61523400000078,17.05126999999993,96.41015599999992,123.46142599999985,71.9228520000006,103.7177729999994,109.61523400000078,122.56396500000028,102.82031300000017,78.58984400000008,85.38476599999922,113.9741210000002,-247.6923829999996,88.58984400000008
245,78.9741210000002,3.4614259999998467,86.79492200000004,114.61523400000078,58.46142599999985,92.82031300000017,97.82031300000017,113.58984400000008,96.0258789999998,68.0771479999994,81.2822270000006,103.0771479999994,-260.38452099999995,87.94873000000007
246,73.46142599999985,-3.717772999999397,82.82031300000017,109.35888699999941,48.7177729999994,85.0,90.76904300000024,106.79492200000004,90.76904300000024,65.64111300000059,84.23095699999976,97.82031300000017,-266.15380900000036,86.41015599999992
247,77.56396500000028,0.38476599999921746,88.7177729999994,112.56396500000028,53.20507799999996,86.15380900000036,94.48730499999965,107.69238299999961,91.6665039999998,73.46142599999985,93.9741210000002,103.0771479999994,-257.6923829999996,87.43603499999972
248,88.46142599999985,12.051269999999931,101.53857400000015,123.0771479999994,70.51269500000035,95.0,106.79492200000004,114.87158199999976,97.69238299999961,85.89746099999957,105.89746099999957,116.15380900000036,-239.23071300000038,90.89746099999957
249,98.20507799999996,22.43603499999972,112.94873000000007,134.23095699999976,87.56396500000028,105.12841800000024,120.0,122.82031300000017,103.46142599999985,94.87158199999976,113.9741210000002,128.58984400000008,-222.9487299999996,91.2822270000006
250,100.0,24.102539000000434,115.38476599999922,138.58984400000008,89.23095699999976,108.9741210000002,125.64111300000059,125.64111300000059,103.9741210000002,96.41015599999992,114.35888699999941,131.53857400000015,-218.46142599999985,87.17968800000017
251,91.9228520000006,15.384765999999217,107.17968800000017,132.43603499999972,70.51269500000035,103.0771479999994,120.12841800000024,120.64111300000059,97.69238299999961,90.25634799999989,107.30761700000039,122.30761700000039,-227.0512700000004,83.7177729999994
252,78.0771479999994,0.512695000000349,92.30761700000039,118.20507799999996,41.79492200000004,90.12841800000024,106.2822270000006,109.87158199999976,86.79492200000004,77.94873000000007,95.25634799999989,105.51269500000035,-242.3076170000004,84.74365200000011
253,65.38476599999922,-12.820557000000008,78.3334960000002,103.58984400000008,22.05126999999993,77.30761700000039,92.05126999999993,98.3334960000002,76.6665039999998,63.20507799999996,82.94873000000007,90.12841800000024,-254.8718259999996,87.43603499999972
254,60.12841800000024,-17.435790999999426,72.17968800000017,97.43603499999972,25.128418000000238,71.9228520000006,85.89746099999957,92.56396500000028,72.56396500000028,53.333496000000196,76.15380900000036,84.74365200000011,-258.076904,87.69238299999961
255,64.48730499999965,-11.153809000000365,76.9228520000006,103.46142599999985,49.102539000000434,77.94873000000007,91.79492200000004,96.6665039999998,77.56396500000028,55.12841800000024,79.23095699999976,92.69238299999961,-250.64111300000013,87.43603499999972
256,76.15380900000036,2.8203130000001693,90.25634799999989,118.3334960000002,79.61523400000078,92.94873000000007,106.79492200000004,109.48730499999965,90.51269500000035,69.61523400000078,92.56396500000028,109.74365200000011,-235.1281740000004,89.87158199999976
257,89.35888699999941,17.94873000000007,105.0,133.0771479999994,99.74365200000011,109.48730499999965,122.56396500000028,124.48730499999965,105.51269500000035,88.58984400000008,111.0258789999998,126.6665039999998,-216.66674799999964,93.20507799999996
258,97.69238299999961,27.30761700000039,113.84619099999964,139.7436520000001,101.9228520000006,118.9741210000002,130.51269500000035,132.94873000000007,114.48730499999965,100.25634799999989,125.0,134.61523400000078,-201.923096,93.46142599999985
259,96.9228520000006,26.922852000000603,112.56396500000028,135.89746099999957,89.61523400000078,115.76904300000024,127.05126999999993,130.0,112.56396500000028,97.17968800000017,126.53857400000015,130.38476599999922,-196.66674799999964,91.15380900000036
260,87.56396500000028,17.94873000000007,103.0771479999994,125.38476599999922,73.46142599999985,101.41015599999992,115.12841800000024,117.69238299999961,101.53857400000015,82.43603499999972,114.35888699999941,117.94873000000007,-201.923096,89.87158199999976
261,74.48730499999965,6.538574000000153,92.17968800000017,115.12841800000024,62.56396500000028,83.84619099999964,102.43603499999972,104.10253900000043,88.46142599999985,66.0258789999998,96.0258789999998,105.25634799999989,-213.20507799999996,89.61523400000078
262,64.48730499999965,-0.256347999999889,86.6665039999998,110.64111300000059,58.846190999999635,73.20507799999996,95.76904300000024,97.94873000000007,80.51269500000035,57.17968800000017,82.05126999999993,99.74365200000011,-223.20507799999996,87.43603499999972
263,62.05126999999993,0.8974609999995664,88.84619099999964,112.82031300000017,58.0771479999994,74.35888699999941,96.9228520000006,102.30761700000039,81.15380900000036,59.74365200000011,79.61523400000078,103.20507799999996,-226.15380900000036,84.35888699999941
264,67.17968800000017,7.43603499999972,96.41015599999992,118.3334960000002,56.025878999999804,84.35888699999941,103.0771479999994,113.0771479999994,88.46142599999985,70.0,87.94873000000007,112.43603499999972,-220.89746100000002,84.35888699999941
265,75.76904300000024,13.333496000000196,103.84619099999964,122.56396500000028,51.666503999999804,95.38476599999922,108.84619099999964,121.9228520000006,96.9228520000006,79.61523400000078,99.74365200000011,120.89746099999957,-211.41015600000037,87.69238299999961
266,81.79492200000004,13.846190999999635,106.53857400000015,122.43603499999972,47.82031300000017,100.12841800000024,110.25634799999989,122.05126999999993,100.51269500000035,81.15380900000036,106.2822270000006,122.82031300000017,-203.84619099999964,89.74365200000011
267,80.76904300000024,7.820313000000169,103.7177729999994,117.69238299999961,47.69238299999961,97.43603499999972,106.53857400000015,113.0771479999994,97.30761700000039,74.61523400000078,103.84619099999964,116.41015599999992,-202.179443,88.46142599999985
268,73.20507799999996,-1.0258789999998044,97.94873000000007,110.89746099999957,52.69238299999961,91.53857400000015,100.89746099999957,101.79492200000004,90.38476599999922,66.79492200000004,96.2822270000006,106.15380900000036,-204.8718259999996,87.30761700000039
269,64.74365200000011,-6.41015600000037,93.84619099999964,106.0258789999998,60.897460999999566,88.58984400000008,97.56396500000028,96.41015599999992,85.51269500000035,64.10253900000043,90.76904300000024,99.48730499999965,-205.5129390000002,88.7177729999994
270,61.666503999999804,-4.358886999999868,94.74365200000011,106.2822270000006,67.94873000000007,91.0258789999998,98.46142599999985,100.38476599999922,86.41015599999992,66.79492200000004,92.56396500000028,101.9228520000006,-198.71801800000003,89.48730499999965
271,66.15380900000036,3.846190999999635,100.89746099999957,112.30761700000039,69.61523400000078,96.0258789999998,102.05126999999993,110.12841800000024,92.05126999999993,70.25634799999989,101.0258789999998,112.56396500000028,-185.5129390000002,87.30761700000039
272,74.23095699999976,11.922852000000603,108.9741210000002,120.76904300000024,64.61523400000078,97.94873000000007,104.35888699999941,117.56396500000028,98.0771479999994,71.2822270000006,110.0,124.87158199999976,-173.33325200000036,85.38476599999922
273,78.7177729999994,13.846190999999635,113.58984400000008,126.0258789999998,55.64111300000059,94.10253900000043,103.46142599999985,117.43603499999972,100.51269500000035,70.0,112.69238299999961,131.15380900000036,-170.5129390000002,86.41015599999992
274,75.25634799999989,7.948730000000069,111.0258789999998,124.61523400000078,47.94873000000007,86.53857400000015,100.51269500000035,110.51269500000035,98.7177729999994,68.58984400000008,106.6665039999998,127.82031300000017,-179.10253899999998,88.0771479999994
275,65.25634799999989,-1.7949220000000423,102.17968800000017,117.43603499999972,45.38476599999922,80.76904300000024,98.58984400000008,102.17968800000017,94.87158199999976,68.84619099999964,95.51269500000035,117.82031300000017,-193.46142599999985,87.05126999999993
276,54.48730499999965,-9.61547900000005,91.9228520000006,109.10253900000043,47.30761700000039,80.64111300000059,99.48730499999965,97.94873000000007,92.43603499999972,71.9228520000006,86.0258789999998,107.82031300000017,-204.8718259999996,85.0
277,48.589844000000085,-11.538574000000153,85.64111300000059,103.58984400000008,49.74365200000011,85.51269500000035,102.05126999999993,99.74365200000011,93.3334960000002,77.43603499999972,83.0771479999994,103.3334960000002,-207.56420900000057,85.64111300000059
278,50.0,-7.692382999999609,85.38476599999922,102.69238299999961,48.7177729999994,91.41015599999992,103.3334960000002,105.64111300000059,96.2822270000006,83.58984400000008,87.43603499999972,105.51269500000035,-200.38452099999995,87.56396500000028
279,57.05126999999993,-0.38476599999921746,89.74365200000011,105.89746099999957,44.61523400000078,95.0,102.43603499999972,111.9228520000006,98.84619099999964,86.9228520000006,95.89746099999957,111.2822270000006,-186.28198199999997,87.43603499999972
280,66.2822270000006,7.692382999999609,95.76904300000024,111.53857400000015,42.69238299999961,96.6665039999998,101.53857400000015,116.0258789999998,100.12841800000024,86.0258789999998,105.38476599999922,117.30761700000039,-169.61547900000005,86.41015599999992
281,74.48730499999965,14.743652000000111,101.53857400000015,117.69238299999961,48.846190999999635,98.7177729999994,103.3334960000002,117.82031300000017,101.2822270000006,82.17968800000017,113.7177729999994,122.94873000000007,-154.7436520000001,88.20507799999996
282,79.61523400000078,19.615234000000783,105.89746099999957,122.69238299999961,63.0771479999994,103.0771479999994,108.58984400000008,118.3334960000002,103.46142599999985,78.3334960000002,118.9741210000002,128.20507799999996,-144.7436520000001,91.9228520000006
283,81.79492200000004,21.922852000000603,108.20507799999996,125.51269500000035,79.10253900000043,107.82031300000017,114.48730499999965,118.3334960000002,106.2822270000006,77.05126999999993,120.25634799999989,132.56396500000028,-141.15380900000036,92.82031300000017
284,82.17968800000017,22.17968800000017,108.0771479999994,125.76904300000024,89.23095699999976,108.9741210000002,117.43603499999972,117.05126999999993,107.82031300000017,78.84619099999964,117.82031300000017,134.3588869999994,-143.58984399999963,90.25634799999989
285,81.15380900000036,21.666503999999804,105.64111300000059,123.9741210000002,89.35888699999941,104.23095699999976,115.0,113.7177729999994,106.41015599999992,82.43603499999972,113.58984400000008,131.6665039999998,-150.2563479999999,88.46142599999985
286,77.56396500000028,20.897460999999566,101.53857400000015,120.76904300000024,81.41015599999992,94.74365200000011,107.94873000000007,108.84619099999964,102.43603499999972,84.61523400000078,109.48730499999965,124.61523400000078,-158.33325200000036,89.35888699999941
287,71.0258789999998,19.48730499999965,96.53857400000015,116.53857400000015,70.38476599999922,85.12841800000024,99.48730499999965,103.9741210000002,97.30761700000039,82.82031300000017,106.0258789999998,114.74365200000011,-164.7436520000001,89.48730499999965
288,62.30761700000039,16.025878999999804,91.2822270000006,111.41015599999992,60.38476599999922,79.23095699999976,93.58984400000008,100.64111300000059,93.58984400000008,77.17968800000017,102.30761700000039,105.12841800000024,-167.9487299999996,86.79492200000004
289,52.82031300000017,10.897460999999566,86.53857400000015,105.76904300000024,53.333496000000196,78.58984400000008,92.05126999999993,98.7177729999994,92.17968800000017,70.89746099999957,97.17968800000017,98.0771479999994,-168.97436500000003,84.87158199999976
290,44.87158199999976,5.3847659999992175,82.69238299999961,100.51269500000035,50.0,81.79492200000004,93.58984400000008,97.17968800000017,92.56396500000028,67.82031300000017,90.64111300000059,94.23095699999976,-169.8718259999996,86.2822270000006
291,41.025878999999804,2.6923829999996087,81.15380900000036,97.82031300000017,51.79492200000004,86.0258789999998,95.89746099999957,95.76904300000024,93.3334960000002,69.74365200000011,85.0,94.10253900000043,-170.89746100000002,88.0771479999994
292,43.333496000000196,5.128418000000238,83.3334960000002,100.25634799999989,59.61523400000078,88.84619099999964,97.69238299999961,95.89746099999957,93.0771479999994,75.38476599999922,83.46142599999985,97.94873000000007,-170.2563479999999,87.56396500000028
293,50.897460999999566,12.948730000000069,88.9741210000002,107.94873000000007,70.64111300000059,89.35888699999941,98.84619099999964,98.20507799999996,92.05126999999993,81.2822270000006,88.3334960000002,105.0,-165.64111300000013,87.05126999999993
294,59.87158199999976,22.69238299999961,95.76904300000024,117.30761700000039,78.84619099999964,87.94873000000007,100.0,101.2822270000006,90.89746099999957,84.10253900000043,97.17968800000017,112.17968800000017,-158.076904,89.87158199999976
295,65.0,28.846190999999635,99.87158199999976,122.30761700000039,78.20507799999996,85.51269500000035,100.89746099999957,102.69238299999961,89.74365200000011,82.30761700000039,104.10253900000043,115.12841800000024,-151.15380900000036,93.0771479999994
296,63.846190999999635,28.205077999999958,98.84619099999964,119.61523400000078,67.94873000000007,83.84619099999964,100.76904300000024,101.15380900000036,88.7177729999994,77.82031300000017,103.58984400000008,111.79492200000004,-148.076904,91.53857400000015
297,57.94873000000007,22.30761700000039,93.9741210000002,112.05126999999993,54.102539000000434,84.74365200000011,99.74365200000011,97.94873000000007,88.58984400000008,73.58984400000008,95.76904300000024,105.0,-149.4870609999998,86.9228520000006
298,51.666503999999804,15.384765999999217,89.10253900000043,105.89746099999957,45.64111300000059,88.58984400000008,98.84619099999964,95.64111300000059,89.61523400000078,71.2822270000006,86.2822270000006,100.0,-153.20507799999996,84.74365200000011
299,48.20507799999996,11.153809000000365,87.17968800000017,105.38476599999922,47.43603499999972,93.84619099999964,98.84619099999964,95.38476599999922,90.76904300000024,69.23095699999976,81.0258789999998,99.48730499999965,-156.53857400000015,86.15380900000036
300,48.0771479999994,11.025878999999804,88.84619099999964,108.9741210000002,57.17968800000017,97.82031300000017,99.35888699999941,96.9228520000006,89.74365200000011,64.74365200000011,82.69238299999961,102.94873000000007,-157.3076170000004,87.17968800000017
301,50.0,14.230956999999762,92.43603499999972,112.69238299999961,67.94873000000007,98.20507799999996,100.0,99.48730499999965,86.79492200000004,57.82031300000017,90.0,108.0771479999994,-153.97436500000003,86.6665039999998
302,53.974121000000196,19.74365200000011,96.2822270000006,114.48730499999965,73.7177729999994,95.76904300000024,101.53857400000015,102.56396500000028,84.87158199999976,52.82031300000017,100.25634799999989,114.10253900000043,-146.02563499999997,87.69238299999961
303,60.64111300000059,27.43603499999972,100.12841800000024,116.2822270000006,75.0,93.84619099999964,105.64111300000059,107.05126999999993,87.69238299999961,55.0,111.15380900000036,121.2822270000006,-135.2563479999999,90.25634799999989
304,69.61523400000078,36.410155999999915,104.35888699999941,120.76904300000024,76.53857400000015,95.64111300000059,112.56396500000028,112.69238299999961,95.76904300000024,64.74365200000011,120.0,128.84619099999964,-124.61547900000005,90.89746099999957
305,77.82031300000017,44.102539000000434,108.58984400000008,127.43603499999972,80.89746099999957,101.0258789999998,119.61523400000078,117.82031300000017,105.51269500000035,77.43603499999972,123.84619099999964,134.61523400000078,-117.43579099999943,88.3334960000002
306,80.25634799999989,46.025878999999804,110.51269500000035,131.15380900000036,85.12841800000024,105.25634799999989,122.69238299999961,119.74365200000011,110.76904300000024,86.79492200000004,120.38476599999922,135.38476599999922,-116.15380900000036,86.9228520000006
307,74.48730499999965,39.61523400000078,107.30761700000039,126.9228520000006,82.69238299999961,102.94873000000007,118.7177729999994,116.0258789999998,107.69238299999961,89.74365200000011,110.51269500000035,129.23095699999976,-121.28198199999997,88.46142599999985
308,61.9228520000006,26.538574000000153,98.3334960000002,114.35888699999941,70.89746099999957,93.0771479999994,108.46142599999985,107.30761700000039,96.9228520000006,87.05126999999993,97.43603499999972,116.6665039999998,-130.64111300000013,89.10253900000043
309,47.56396500000028,12.692382999999609,86.41015599999992,99.48730499999965,53.7177729999994,79.23095699999976,95.76904300000024,97.56396500000028,83.58984400000008,81.6665039999998,85.76904300000024,102.43603499999972,-140.1281740000004,86.15380900000036
310,38.20507799999996,5.0,77.56396500000028,90.76904300000024,39.35888699999941,68.58984400000008,85.89746099999957,91.53857400000015,74.74365200000011,77.05126999999993,80.38476599999922,93.7177729999994,-144.35888699999987,83.20507799999996
311,38.974121000000196,6.794922000000042,76.9228520000006,94.35888699999941,36.2822270000006,66.6665039999998,83.3334960000002,92.56396500000028,74.74365200000011,75.51269500000035,83.9741210000002,95.76904300000024,-140.1281740000004,84.61523400000078
312,50.51269500000035,17.69238299999961,85.38476599999922,108.7177729999994,47.82031300000017,75.38476599999922,89.61523400000078,100.51269500000035,82.56396500000028,77.17968800000017,95.89746099999957,107.69238299999961,-127.30761700000039,88.58984400000008
313,67.69238299999961,32.43603499999972,98.84619099999964,125.64111300000059,69.23095699999976,90.12841800000024,101.6665039999998,111.79492200000004,92.94873000000007,79.61523400000078,110.51269500000035,121.9228520000006,-110.64111300000013,90.76904300000024
314,80.76904300000024,43.0771479999994,109.23095699999976,134.48730499999965,87.82031300000017,101.79492200000004,112.56396500000028,119.74365200000011,99.87158199999976,78.9741210000002,119.87158199999976,129.3588869999994,-98.20507799999996,90.89746099999957
315,81.15380900000036,42.69238299999961,110.12841800000024,128.84619099999964,91.6665039999998,102.05126999999993,115.25634799999989,119.61523400000078,99.35888699999941,73.20507799999996,117.82031300000017,124.48730499999965,-96.41015600000037,91.9228520000006
316,67.69238299999961,31.538574000000153,100.76904300000024,112.56396500000028,79.10253900000043,90.38476599999922,107.82031300000017,110.89746099999957,91.6665039999998,64.35888699999941,104.87158199999976,109.61523400000078,-105.76928699999962,92.69238299999961
317,48.846190999999635,16.794922000000042,87.43603499999972,96.2822270000006,60.51269500000035,74.87158199999976,95.64111300000059,98.46142599999985,81.79492200000004,58.333496000000196,88.58984400000008,93.46142599999985,-119.23071300000038,90.12841800000024
318,36.025878999999804,8.717772999999397,78.0771479999994,89.87158199999976,49.48730499999965,66.2822270000006,86.6665039999998,89.61523400000078,76.15380900000036,59.87158199999976,78.7177729999994,85.89746099999957,-127.69238299999961,86.0258789999998
319,36.2822270000006,11.794922000000042,76.79492200000004,94.74365200000011,52.30761700000039,68.7177729999994,85.76904300000024,88.20507799999996,77.43603499999972,68.3334960000002,80.0,89.87158199999976,-126.66674799999964,84.87158199999976
320,46.9228520000006,22.30761700000039,81.2822270000006,104.48730499999965,65.38476599999922,78.0771479999994,91.15380900000036,92.94873000000007,83.20507799999996,76.9228520000006,89.48730499999965,100.12841800000024,-118.71801800000003,87.05126999999993
321,59.48730499999965,32.82031300000017,86.6665039999998,111.53857400000015,79.74365200000011,86.53857400000015,98.0771479999994,99.35888699999941,88.58984400000008,78.46142599999985,99.74365200000011,107.94873000000007,-110.38452099999995,88.20507799999996
322,66.15380900000036,37.56396500000028,89.35888699999941,112.94873000000007,87.05126999999993,90.12841800000024,103.20507799999996,103.7177729999994,90.89746099999957,71.6665039999998,104.74365200000011,108.7177729999994,-106.92309599999999,86.9228520000006
323,64.23095699999976,35.76904300000024,88.84619099999964,110.51269500000035,84.87158199999976,90.51269500000035,106.0258789999998,104.87158199999976,89.48730499999965,62.05126999999993,103.3334960000002,103.84619099999964,-108.33325200000036,86.79492200000004
324,57.56396500000028,31.025878999999804,87.30761700000039,107.94873000000007,77.43603499999972,91.79492200000004,107.56396500000028,103.9741210000002,85.89746099999957,56.410155999999915,98.9741210000002,98.7177729999994,-110.0,89.61523400000078
325,52.69238299999961,27.56396500000028,86.79492200000004,107.82031300000017,72.94873000000007,95.89746099999957,108.7177729999994,104.10253900000043,82.69238299999961,57.43603499999972,96.6665039999998,97.56396500000028,-106.66674799999964,91.41015599999992
326,53.589844000000085,27.56396500000028,88.20507799999996,109.48730499999965,76.15380900000036,100.64111300000059,110.12841800000024,106.79492200000004,82.43603499999972,62.69238299999961,99.10253900000043,100.89746099999957,-97.69238299999961,89.35888699999941
327,58.46142599999985,29.871581999999762,90.51269500000035,109.74365200000011,83.84619099999964,102.30761700000039,111.53857400000015,110.76904300000024,86.0258789999998,67.69238299999961,105.0,105.76904300000024,-88.20507799999996,86.2822270000006
328,61.79492200000004,31.538574000000153,91.41015599999992,107.17968800000017,87.05126999999993,99.10253900000043,111.79492200000004,112.30761700000039,91.41015599999992,69.35888699999941,109.61523400000078,108.46142599999985,-84.23071300000038,85.76904300000024
329,59.23095699999976,30.641113000000587,89.10253900000043,103.20507799999996,79.35888699999941,92.94873000000007,109.35888699999941,108.84619099999964,93.9741210000002,68.20507799999996,108.58984400000008,107.05126999999993,-88.07690400000001,86.79492200000004
330,51.9228520000006,28.205077999999958,84.35888699999941,101.0258789999998,63.846190999999635,87.82031300000017,104.35888699999941,101.9228520000006,91.2822270000006,68.7177729999994,102.17968800000017,102.69238299999961,-96.15380900000036,86.9228520000006
331,45.12841800000024,26.666503999999804,80.0,102.17968800000017,50.897460999999566,86.41015599999992,98.7177729999994,95.76904300000024,85.89746099999957,75.25634799999989,94.87158199999976,98.20507799999996,-101.79492200000004,88.0771479999994
332,43.0771479999994,26.538574000000153,77.69238299999961,104.48730499999965,49.48730499999965,87.94873000000007,93.9741210000002,93.58984400000008,81.9228520000006,85.76904300000024,90.89746099999957,95.64111300000059,-100.89746100000002,92.05126999999993
333,44.61523400000078,25.897460999999566,76.79492200000004,103.9741210000002,59.61523400000078,88.46142599999985,90.25634799999989,94.87158199999976,81.53857400000015,90.51269500000035,90.51269500000035,94.23095699999976,-95.1281740000004,95.64111300000059
334,46.410155999999915,23.589844000000085,76.15380900000036,99.35888699999941,73.58984400000008,85.38476599999922,87.56396500000028,96.53857400000015,83.0771479999994,82.05126999999993,91.6665039999998,92.43603499999972,-89.35888699999987,93.84619099999964
335,47.17968800000017,21.153809000000365,76.53857400000015,94.10253900000043,84.61523400000078,81.41015599999992,87.56396500000028,97.30761700000039,85.0,64.10253900000043,92.94873000000007,91.15380900000036,-86.02563499999997,88.84619099999964
336,49.74365200000011,22.82031300000017,80.38476599999922,94.23095699999976,90.64111300000059,81.9228520000006,93.0771479999994,98.84619099999964,87.43603499999972,50.38476599999922,96.0258789999998,93.84619099999964,-83.46142599999985,87.30761700000039
337,56.2822270000006,30.769043000000238,88.46142599999985,102.05126999999993,92.69238299999961,88.46142599999985,104.10253900000043,103.3334960000002,90.76904300000024,51.666503999999804,101.9228520000006,101.9228520000006,-78.97436500000003,90.64111300000059
338,64.87158199999976,41.9228520000006,97.69238299999961,113.3334960000002,90.12841800000024,96.0258789999998,115.25634799999989,110.12841800000024,94.35888699999941,66.79492200000004,108.58984400000008,112.17968800000017,-72.94872999999961,93.84619099999964
339,70.12841800000024,49.74365200000011,103.7177729999994,120.38476599999922,81.53857400000015,97.69238299999961,120.0,115.51269500000035,96.53857400000015,84.61523400000078,112.30761700000039,118.3334960000002,-68.84619099999964,94.10253900000043
340,68.20507799999996,48.846190999999635,103.20507799999996,118.3334960000002,67.82031300000017,91.15380900000036,115.89746099999957,116.15380900000036,96.0258789999998,92.56396500000028,110.38476599999922,116.6665039999998,-70.25634799999989,93.9741210000002
341,60.51269500000035,39.61523400000078,96.41015599999992,109.10253900000043,53.20507799999996,80.64111300000059,106.53857400000015,111.9228520000006,92.69238299999961,84.35888699999941,104.23095699999976,108.20507799999996,-77.17944299999999,94.61523400000078
342,52.05126999999993,28.077147999999397,87.05126999999993,99.35888699999941,42.94873000000007,73.20507799999996,98.3334960000002,105.76904300000024,87.69238299999961,64.61523400000078,97.17968800000017,97.69238299999961,-85.64111300000013,93.0771479999994
343,47.69238299999961,20.897460999999566,80.0,94.48730499999965,40.76904300000024,72.17968800000017,94.87158199999976,100.89746099999957,83.20507799999996,46.79492200000004,92.56396500000028,90.0,-91.02563499999997,88.9741210000002
344,48.846190999999635,21.410155999999915,79.35888699999941,95.76904300000024,48.0771479999994,76.41015599999992,95.89746099999957,99.61523400000078,82.30761700000039,45.0,92.43603499999972,88.0771479999994,-90.51293900000019,86.79492200000004
345,53.974121000000196,27.94873000000007,86.0258789999998,101.41015599999992,64.23095699999976,82.56396500000028,99.48730499999965,102.94873000000007,87.17968800000017,61.9228520000006,96.2822270000006,92.30761700000039,-85.0,89.48730499999965
346,60.12841800000024,35.64111300000059,96.6665039999998,107.56396500000028,84.23095699999976,89.10253900000043,103.3334960000002,109.61523400000078,96.79492200000004,86.2822270000006,102.05126999999993,100.38476599999922,-78.07690400000001,92.82031300000017
347,63.333496000000196,39.74365200000011,105.25634799999989,110.89746099999957,97.43603499999972,94.23095699999976,105.0,116.53857400000015,105.38476599999922,101.53857400000015,106.0258789999998,107.56396500000028,-73.84619099999964,92.69238299999961
348,61.153809000000365,37.56396500000028,106.2822270000006,108.84619099999964,95.0,95.89746099999957,103.46142599999985,119.74365200000011,107.17968800000017,98.9741210000002,105.51269500000035,109.74365200000011,-75.25634799999989,90.89746099999957
349,54.74365200000011,31.025878999999804,99.74365200000011,102.56396500000028,77.69238299999961,92.82031300000017,99.87158199999976,118.7177729999994,101.2822270000006,83.3334960000002,100.89746099999957,105.76904300000024,-81.41015600000037,91.0258789999998
350,48.7177729999994,25.641113000000587,91.53857400000015,96.53857400000015,58.20507799999996,86.41015599999992,97.17968800000017,116.0258789999998,92.82031300000017,67.82031300000017,96.2822270000006,99.35888699999941,-87.05127000000039,92.05126999999993
351,47.43603499999972,25.0,88.20507799999996,94.74365200000011,49.61523400000078,80.25634799999989,97.05126999999993,115.0,88.20507799999996,62.94873000000007,95.76904300000024,95.25634799999989,-87.43579099999943,90.89746099999957
352,50.25634799999989,27.69238299999961,91.2822270000006,97.43603499999972,55.25634799999989,77.05126999999993,97.69238299999961,115.64111300000059,89.23095699999976,68.46142599999985,99.23095699999976,95.51269500000035,-82.17944299999999,89.48730499999965
353,53.846190999999635,30.25634799999989,97.17968800000017,101.6665039999998,67.05126999999993,77.82031300000017,96.9228520000006,115.89746099999957,92.69238299999961,75.64111300000059,102.94873000000007,98.0771479999994,-75.38452099999995,91.2822270000006
354,57.17968800000017,32.43603499999972,101.41015599999992,105.51269500000035,76.2822270000006,82.82031300000017,96.2822270000006,115.0,94.74365200000011,77.56396500000028,103.9741210000002,100.0,-69.61547900000005,95.12841800000024
355,61.9228520000006,37.43603499999972,103.0771479999994,109.87158199999976,80.38476599999922,91.9228520000006,99.74365200000011,114.35888699999941,95.12841800000024,75.76904300000024,102.94873000000007,101.0258789999998,-64.35888699999987,96.41015599999992
356,68.84619099999964,46.410155999999915,103.3334960000002,114.87158199999976,82.43603499999972,102.56396500000028,108.7177729999994,116.0258789999998,96.0258789999998,78.0771479999994,102.69238299999961,102.43603499999972,-58.33325200000036,94.48730499999965
357,74.87158199999976,55.38476599999922,103.20507799999996,118.46142599999985,83.9741210000002,109.48730499999965,118.58984400000008,119.10253900000043,98.0771479999994,87.30761700000039,104.10253900000043,104.23095699999976,-53.20507799999996,93.58984400000008
358,74.35888699999941,57.30761700000039,101.79492200000004,117.94873000000007,83.0771479999994,108.46142599999985,122.30761700000039,120.64111300000059,98.84619099999964,96.41015599999992,104.35888699999941,103.46142599999985,-53.20507799999996,95.12841800000024
359,65.51269500000035,48.846190999999635,97.43603499999972,112.05126999999993,76.79492200000004,99.35888699999941,115.64111300000059,117.82031300000017,95.51269500000035,93.0771479999994,100.12841800000024,97.94873000000007,-60.0,95.51269500000035
360,51.79492200000004,33.46142599999985,90.51269500000035,102.94873000000007,65.89746099999957,86.15380900000036,101.2822270000006,110.25634799999989,87.69238299999961,71.6665039999998,91.0258789999998,88.9741210000002,-71.02563499999997,93.3334960000002
361,40.0,19.48730499999965,83.9741210000002,93.84619099999964,55.64111300000059,74.61523400000078,86.6665039999998,101.0258789999998,79.23095699999976,41.2822270000006,81.2822270000006,81.2822270000006,-79.8718259999996,92.43603499999972
362,36.666503999999804,15.384765999999217,81.41015599999992,88.9741210000002,51.79492200000004,70.0,79.61523400000078,95.51269500000035,75.89746099999957,20.641113000000587,77.17968800000017,79.87158199999976,-80.64111300000013,94.35888699999941
363,43.0771479999994,22.94873000000007,84.61523400000078,90.64111300000059,56.79492200000004,73.7177729999994,82.69238299999961,97.56396500000028,79.61523400000078,23.717772999999397,81.41015599999992,86.15380900000036,-72.05127000000039,96.0258789999998
364,53.333496000000196,35.25634799999989,90.89746099999957,97.69238299999961,67.43603499999972,81.6665039999998,91.2822270000006,106.0258789999998,86.9228520000006,48.20507799999996,90.64111300000059,95.51269500000035,-59.10253899999998,94.61523400000078
365,59.35888699999941,42.82031300000017,95.38476599999922,105.51269500000035,76.41015599999992,86.9228520000006,98.0771479999994,115.0,91.2822270000006,77.43603499999972,97.69238299999961,100.76904300000024,-49.48706099999981,92.94873000000007
366,58.333496000000196,42.56396500000028,95.89746099999957,110.25634799999989,78.9741210000002,86.41015599999992,99.35888699999941,118.84619099999964,90.25634799999989,94.74365200000011,99.10253900000043,99.48730499999965,-46.28198199999997,94.48730499999965
367,55.76904300000024,41.153809000000365,95.76904300000024,113.0771479999994,77.69238299999961,84.48730499999965,98.58984400000008,118.7177729999994,87.82031300000017,96.41015599999992,98.58984400000008,96.53857400000015,-45.0,97.56396500000028
368,59.74365200000011,47.56396500000028,100.25634799999989,117.69238299999961,79.23095699999976,88.7177729999994,102.69238299999961,121.15380900000036,90.76904300000024,91.15380900000036,102.56396500000028,99.74365200000011,-38.71801800000003,98.46142599999985
369,72.17968800000017,61.9228520000006,110.25634799999989,126.15380900000036,86.15380900000036,101.41015599999992,113.58984400000008,130.6411130000006,101.2822270000006,90.12841800000024,112.30761700000039,111.41015599999992,-26.794922000000042,98.20507799999996
370,85.12841800000024,75.0,119.87158199999976,134.61523400000078,93.20507799999996,116.15380900000036,125.76904300000024,143.58984400000008,114.10253900000043,95.76904300000024,122.05126999999993,125.64111300000059,-16.153809000000365,98.7177729999994
371,87.43603499999972,75.51269500000035,120.38476599999922,135.38476599999922,92.17968800000017,122.30761700000039,130.2563479999999,150.51269500000035,119.23095699999976,100.38476599999922,122.30761700000039,131.0258789999998,-15.641113000000132,98.58984400000008
372,73.20507799999996,59.74365200000011,107.30761700000039,123.7177729999994,81.0258789999998,113.9741210000002,122.43603499999972,143.84619099999964,110.51269500000035,93.3334960000002,108.46142599999985,120.51269500000035,-28.974365000000034,94.35888699999941
373,47.94873000000007,35.38476599999922,85.12841800000024,102.05126999999993,67.17968800000017,95.38476599999922,105.76904300000024,125.0,91.79492200000004,72.82031300000017,85.12841800000024,96.9228520000006,-50.25634799999989,88.3334960000002
374,25.51269500000035,16.922852000000603,64.87158199999976,80.51269500000035,60.897460999999566,78.20507799999996,89.48730499999965,104.23095699999976,73.9741210000002,49.35888699999941,64.87158199999976,73.0771479999994,-68.07690400000001,86.53857400000015
375,18.846190999999635,14.871581999999762,56.666503999999804,70.51269500000035,64.61523400000078,73.0771479999994,82.43603499999972,93.84619099999964,67.56396500000028,38.589844000000085,59.23095699999976,62.82031300000017,-72.56420900000057,90.0
376,31.025878999999804,29.48730499999965,63.589844000000085,77.05126999999993,70.89746099999957,82.30761700000039,87.82031300000017,100.12841800000024,74.48730499999965,48.589844000000085,70.38476599999922,71.15380900000036,-62.30761700000039,94.10253900000043
377,53.46142599999985,50.897460999999566,80.64111300000059,95.64111300000059,71.53857400000015,98.9741210000002,101.0258789999998,118.3334960000002,88.46142599999985,73.3334960000002,90.38476599999922,91.0258789999998,-43.58984399999963,95.51269500000035
378,72.82031300000017,66.79492200000004,97.69238299999961,115.38476599999922,66.6665039999998,112.05126999999993,113.46142599999985,136.6665039999998,100.25634799999989,97.69238299999961,107.30761700000039,109.48730499999965,-25.89746100000002,96.53857400000015
379,79.61523400000078,69.35888699999941,106.0258789999998,125.25634799999989,64.74365200000011,113.84619099999964,118.3334960000002,143.7177729999994,103.3334960000002,107.69238299999961,113.9741210000002,116.41015599999992,-16.025634999999966,98.20507799999996
380,72.94873000000007,59.35888699999941,102.56396500000028,121.0258789999998,72.56396500000028,104.10253900000043,114.35888699999941,136.2822270000006,97.05126999999993,99.23095699999976,110.12841800000024,110.0,-15.769286999999622,97.82031300000017
381,59.61523400000078,44.23095699999976,91.53857400000015,107.30761700000039,87.43603499999972,89.74365200000011,106.2822270000006,121.0258789999998,86.0258789999998,80.25634799999989,101.6665039999998,96.9228520000006,-21.923095999999987,94.61523400000078
382,49.102539000000434,33.846190999999635,81.9228520000006,94.61523400000078,99.87158199999976,80.76904300000024,100.89746099999957,109.35888699999941,78.46142599999985,64.35888699999941,94.87158199999976,86.9228520000006,-29.358886999999868,93.46142599999985
383,48.846190999999635,34.87158199999976,80.89746099999957,91.79492200000004,103.46142599999985,83.7177729999994,103.20507799999996,109.48730499999965,80.25634799999989,61.025878999999804,93.7177729999994,86.9228520000006,-32.30761700000039,97.43603499999972
