,EEG.AF3,EEG.F7,EEG.F3,EEG.FC5,EEG.T7,EEG.P7,EEG.O1,EEG.O2,EEG.P8,EEG.T8,EEG.FC6,EEG.F4,EEG.F8,EEG.AF4
0,43.0771479999994,13.846190999999635,53.589844000000085,97.05126999999993,65.38476599999922,91.79492200000004,68.84619099999964,80.89746099999957,96.15380900000036,99.10253900000043,89.61523400000078,111.6665039999998,-12.692382999999609,96.15380900000036
1,35.76904300000024,2.1796880000001693,51.410155999999915,90.38476599999922,47.30761700000039,88.7177729999994,69.74365200000011,79.87158199999976,95.25634799999989,85.38476599999922,89.23095699999976,107.56396500000028,-19.8718259999996,97.82031300000017
2,48.7177729999994,15.897460999999566,63.46142599999985,96.53857400000015,77.82031300000017,113.84619099999964,82.94873000000007,92.43603499999972,105.89746099999957,98.20507799999996,102.30761700000039,121.15380900000036,-7.179442999999992,101.79492200000004
3,71.2822270000006,43.7177729999994,79.48730499999965,109.61523400000078,125.38476599999922,144.61523400000078,97.30761700000039,107.43603499999972,118.20507799999996,124.87158199999976,119.23095699999976,141.41015599999992,16.282227000000603,101.2822270000006
4,86.15380900000036,62.69238299999961,86.41015599999992,118.46142599999985,145.12841800000024,155.0,101.41015599999992,111.6665039999998,122.17968800000017,146.15380900000036,128.7177729999994,152.94873000000007,35.38476599999922,98.20507799999996
5,83.58984400000008,57.30761700000039,79.48730499999965,116.53857400000015,118.0771479999994,137.6923829999996,93.20507799999996,101.9228520000006,115.0,148.46142599999985,126.79492200000004,148.46142599999985,40.51269500000035,98.58984400000008
6,69.35888699999941,31.922852000000603,65.76904300000024,106.79492200000004,68.9741210000002,110.51269500000035,82.05126999999993,87.56396500000028,103.20507799999996,131.0258789999998,118.7177729999994,134.87158199999976,33.846190999999635,101.15380900000036
7,58.333496000000196,5.641113000000587,57.69238299999961,97.69238299999961,42.94873000000007,98.46142599999985,79.23095699999976,82.30761700000039,95.89746099999957,106.6665039999998,113.46142599999985,124.61523400000078,26.025878999999804,100.0
8,58.974121000000196,-5.256347999999889,60.64111300000059,93.58984400000008,62.17968800000017,109.87158199999976,87.17968800000017,91.0258789999998,96.53857400000015,90.76904300000024,113.7177729999994,123.20507799999996,24.871581999999762,96.41015599999992
9,67.17968800000017,-0.38476599999921746,69.35888699999941,91.9228520000006,103.7177729999994,130.38476599999922,97.69238299999961,105.51269500000035,101.15380900000036,89.35888699999941,114.74365200000011,125.12841800000024,28.461425999999847,96.9228520000006
10,72.82031300000017,10.128418000000238,74.61523400000078,88.46142599999985,125.25634799999989,141.15380900000036,101.53857400000015,113.46142599999985,104.48730499999965,97.94873000000007,111.15380900000036,122.05126999999993,30.384765999999217,101.15380900000036
11,71.15380900000036,17.30761700000039,74.10253900000043,84.23095699999976,109.10253900000043,137.56396500000028,99.35888699999941,111.0258789999998,106.9228520000006,110.51269500000035,104.23095699999976,113.46142599999985,30.51269500000035,101.79492200000004
12,66.53857400000015,18.717772999999397,72.69238299999961,84.48730499999965,75.89746099999957,131.2822270000006,98.46142599999985,105.51269500000035,112.82031300000017,125.0,100.64111300000059,107.43603499999972,34.87158199999976,97.30761700000039
13,65.64111300000059,14.102539000000434,75.76904300000024,91.6665039999998,59.87158199999976,133.9741210000002,103.84619099999964,105.0,122.43603499999972,137.94873000000007,105.0,111.41015599999992,48.20507799999996,95.12841800000024
14,69.61523400000078,1.9228520000006029,82.43603499999972,100.25634799999989,73.7177729999994,145.6411130000006,111.41015599999992,109.61523400000078,128.46142599999985,139.23095699999976,114.74365200000011,123.58984400000008,67.82031300000017,98.58984400000008
15,74.10253900000043,-16.28198199999997,86.53857400000015,100.64111300000059,101.0258789999998,156.15380900000036,112.82031300000017,112.82031300000017,122.82031300000017,120.12841800000024,122.30761700000039,134.61523400000078,86.79492200000004,101.6665039999998
16,72.94873000000007,-33.46142599999985,82.94873000000007,87.05126999999993,113.9741210000002,156.41015599999992,103.46142599999985,107.94873000000007,106.15380900000036,85.0,122.05126999999993,135.89746099999957,100.51269500000035,99.87158199999976
17,63.7177729999994,-40.89746100000002,72.17968800000017,63.7177729999994,97.05126999999993,146.41015599999992,87.69238299999961,95.38476599999922,88.0771479999994,53.20507799999996,114.87158199999976,125.76904300000024,110.25634799999989,97.94873000000007
18,48.974121000000196,-35.64111300000013,59.74365200000011,41.666503999999804,56.410155999999915,132.94873000000007,75.25634799999989,81.9228520000006,80.25634799999989,43.974121000000196,106.15380900000036,110.38476599999922,121.53857400000015,100.25634799999989
19,35.12841800000024,-22.435790999999426,52.56396500000028,31.410155999999915,15.128418000000238,124.23095699999976,73.20507799999996,76.2822270000006,86.6665039999998,60.51269500000035,100.64111300000059,98.84619099999964,141.41015599999992,102.30761700000039
20,30.0,-7.435790999999426,55.0,36.410155999999915,-4.102538999999979,124.61523400000078,81.9228520000006,82.30761700000039,102.30761700000039,89.48730499999965,101.15380900000036,97.43603499999972,175.89746099999957,99.48730499999965
21,36.53857400000015,7.43603499999972,65.25634799999989,51.79492200000004,4.871581999999762,131.15380900000036,94.23095699999976,95.51269500000035,116.15380900000036,111.53857400000015,107.82031300000017,105.51269500000035,226.0258789999998,96.2822270000006
22,49.61523400000078,23.589844000000085,75.89746099999957,66.6665039999998,26.282227000000603,135.12841800000024,101.15380900000036,105.38476599999922,118.0771479999994,112.94873000000007,117.17968800000017,115.25634799999989,283.9741210000002,98.84619099999964
23,60.12841800000024,41.666503999999804,79.23095699999976,71.0258789999998,38.0771479999994,132.17968800000017,99.23095699999976,104.87158199999976,106.0258789999998,92.05126999999993,123.9741210000002,118.3334960000002,337.82031300000017,103.58984400000008
24,64.35888699999941,61.2822270000006,75.51269500000035,63.20507799999996,35.38476599999922,129.3588869999994,96.2822270000006,98.84619099999964,90.12841800000024,62.17968800000017,127.17968800000017,115.38476599999922,383.84619099999964,102.69238299999961
25,67.56396500000028,82.05126999999993,72.94873000000007,51.153809000000365,32.56396500000028,138.0771479999994,103.84619099999964,99.35888699999941,85.76904300000024,45.76904300000024,130.12841800000024,115.12841800000024,431.15380900000036,97.43603499999972
26,76.2822270000006,104.87158199999976,77.69238299999961,44.48730499999965,41.2822270000006,158.7177729999994,123.0771479999994,112.43603499999972,100.0,55.0,135.38476599999922,124.10253900000043,489.87158199999976,95.76904300000024
27,89.61523400000078,130.0,86.2822270000006,45.64111300000059,52.30761700000039,175.12841800000024,141.0258789999998,130.12841800000024,122.56396500000028,80.0,140.0,138.0771479999994,558.9741210000002,99.10253900000043
28,99.35888699999941,156.79492200000004,89.23095699999976,49.23095699999976,43.46142599999985,168.0771479999994,140.6411130000006,137.17968800000017,134.23095699999976,96.15380900000036,138.84619099999964,145.89746099999957,626.794922,100.89746099999957
29,99.35888699999941,183.84619099999964,81.6665039999998,48.589844000000085,5.128418000000238,135.2563479999999,118.46142599999985,126.79492200000004,124.87158199999976,88.7177729999994,131.79492200000004,141.2822270000006,681.794922,98.7177729999994
30,92.82031300000017,210.38476599999922,69.48730499999965,42.56396500000028,-43.07690400000001,97.43603499999972,89.35888699999941,107.69238299999961,103.3334960000002,66.53857400000015,125.51269500000035,129.23095699999976,723.0771479999994,97.69238299999961
31,89.61523400000078,236.2822270000006,64.23095699999976,35.25634799999989,-65.38452099999995,82.94873000000007,74.23095699999976,96.79492200000004,88.7177729999994,52.05126999999993,127.56396500000028,120.76904300000024,760.2563479999999,99.74365200000011
32,96.6665039999998,262.82031300000017,71.41015599999992,32.56396500000028,-40.38452099999995,103.7177729999994,82.82031300000017,103.46142599999985,92.94873000000007,57.69238299999961,138.46142599999985,123.20507799999996,803.5898440000001,99.87158199999976
33,113.20507799999996,291.9228520000006,87.17968800000017,36.666503999999804,19.615234000000783,146.15380900000036,107.05126999999993,122.43603499999972,112.05126999999993,75.51269500000035,150.76904300000024,134.61523400000078,854.7436520000001,96.53857400000015
34,131.6665039999998,323.46142599999985,101.15380900000036,43.974121000000196,74.35888699999941,181.53857400000015,128.3334960000002,138.9741210000002,131.6665039999998,89.61523400000078,155.76904300000024,146.79492200000004,906.794922,95.89746099999957
35,143.9741210000002,353.84619099999964,104.35888699999941,47.43603499999972,84.48730499999965,186.15380900000036,132.05126999999993,140.51269500000035,139.7436520000001,94.10253900000043,150.2563479999999,152.05126999999993,950.2563479999999,101.15380900000036
36,146.2822270000006,376.9228520000006,95.76904300000024,42.94873000000007,40.51269500000035,157.94873000000007,116.6665039999998,126.0258789999998,133.0771479999994,95.38476599999922,138.9741210000002,147.56396500000028,981.2822270000006,105.51269500000035
37,142.43603499999972,390.2563479999999,82.43603499999972,33.20507799999996,-28.461425999999847,118.20507799999996,94.48730499999965,105.89746099999957,118.20507799999996,99.87158199999976,131.0258789999998,138.20507799999996,1003.4614259999998,103.7177729999994
38,140.89746099999957,398.9741210000002,75.0,26.025878999999804,-74.61547900000005,95.0,81.53857400000015,94.35888699999941,104.87158199999976,104.61523400000078,133.0771479999994,132.94873000000007,1024.8715819999998,100.38476599999922
39,148.84619099999964,412.5639650000003,78.9741210000002,27.30761700000039,-68.71801800000003,102.30761700000039,85.0,98.3334960000002,99.35888699999941,100.0,143.46142599999985,137.17968800000017,1049.6152340000008,102.56396500000028
40,164.3588869999994,434.10253900000043,90.25634799999989,34.23095699999976,-23.205077999999958,129.23095699999976,97.69238299999961,111.53857400000015,100.12841800000024,81.2822270000006,151.9228520000006,146.79492200000004,1072.05127,107.17968800000017
41,178.0771479999994,453.5898440000001,98.20507799999996,37.56396500000028,20.641113000000587,150.76904300000024,105.89746099999957,120.89746099999957,101.2822270000006,55.51269500000035,147.05126999999993,151.9228520000006,1081.2822270000006,106.9228520000006
42,181.53857400000015,457.05126999999993,95.64111300000059,30.0,30.128418000000238,150.0,101.6665039999998,117.56396500000028,100.38476599999922,39.74365200000011,127.05126999999993,146.41015599999992,1072.3076170000004,103.20507799999996
43,175.12841800000024,442.05126999999993,85.0,14.230956999999762,6.922852000000603,131.6665039999998,90.51269500000035,105.89746099999957,101.2822270000006,48.20507799999996,102.82031300000017,134.3588869999994,1054.3588869999994,102.69238299999961
44,167.05126999999993,422.82031300000017,75.89746099999957,1.153809000000365,-22.051270000000386,113.84619099999964,83.3334960000002,97.43603499999972,108.0771479999994,78.7177729999994,90.0,125.25634799999989,1044.2309569999998,105.12841800000024
45,164.10253900000043,417.94873000000007,75.12841800000024,-0.769043000000238,-36.153809000000365,108.84619099999964,84.74365200000011,98.20507799999996,117.30761700000039,110.38476599999922,94.23095699999976,123.58984400000008,1048.8461909999996,104.48730499999965
46,165.6411130000006,432.82031300000017,80.89746099999957,6.025878999999804,-37.17944299999999,114.10253900000043,89.74365200000011,103.58984400000008,118.9741210000002,118.9741210000002,106.2822270000006,126.2822270000006,1059.1025390000004,100.0
47,169.10253900000043,457.4360349999997,87.69238299999961,12.82031300000017,-35.64111300000013,121.15380900000036,92.30761700000039,106.9228520000006,108.3334960000002,98.84619099999964,114.35888699999941,128.84619099999964,1063.589844,98.20507799999996
48,176.0258789999998,477.17968800000017,94.74365200000011,15.769043000000238,-29.358886999999868,127.94873000000007,94.61523400000078,108.7177729999994,94.61523400000078,69.48730499999965,117.43603499999972,133.58984400000008,1064.4873049999997,101.15380900000036
49,190.51269500000035,485.51269500000035,105.0,18.205077999999958,-6.794922000000042,138.58984400000008,103.46142599999985,115.12841800000024,93.46142599999985,58.974121000000196,123.9741210000002,146.0258789999998,1073.3334960000002,103.0771479999994
50,208.9741210000002,484.23095699999976,117.43603499999972,23.974121000000196,30.384765999999217,151.79492200000004,118.46142599999985,127.17968800000017,109.61523400000078,76.9228520000006,137.3076170000004,163.9741210000002,1091.2822270000006,102.30761700000039
51,217.05126999999993,477.4360349999997,123.20507799999996,29.871581999999762,57.43603499999972,156.53857400000015,127.94873000000007,135.51269500000035,128.9741210000002,105.89746099999957,147.17968800000017,174.10253900000043,1101.0258789999998,103.3334960000002
52,200.76904300000024,466.53857400000015,112.82031300000017,27.69238299999961,44.87158199999976,141.9228520000006,119.48730499999965,128.58984400000008,130.51269500000035,116.15380900000036,139.23095699999976,162.94873000000007,1081.794922,107.30761700000039
53,162.82031300000017,451.4101559999999,87.82031300000017,12.948730000000069,-10.641113000000132,111.15380900000036,93.3334960000002,105.51269500000035,106.41015599999992,92.94873000000007,111.9228520000006,131.53857400000015,1031.6665039999998,107.43603499999972
54,123.9741210000002,434.48730499999965,62.43603499999972,-8.333252000000357,-75.25634799999989,82.82031300000017,64.61523400000078,79.61523400000078,70.64111300000059,49.74365200000011,81.0258789999998,97.94873000000007,974.2309569999998,101.15380900000036
55,108.46142599999985,422.4360349999997,53.846190999999635,-22.30761700000039,-101.41015600000037,76.53857400000015,52.43603499999972,67.94873000000007,48.46142599999985,18.077147999999397,68.7177729999994,84.87158199999976,941.1538090000004,96.53857400000015
56,126.6665039999998,422.82031300000017,69.23095699999976,-17.435790999999426,-65.0,97.82031300000017,64.87158199999976,78.20507799999996,55.76904300000024,21.538574000000153,85.89746099999957,102.17968800000017,949.6152340000008,100.25634799999989
57,167.3076170000004,437.6923829999996,100.51269500000035,5.512695000000349,15.256347999999889,134.48730499999965,94.10253900000043,104.35888699999941,87.56396500000028,56.9228520000006,123.84619099999964,140.12841800000024,987.9487300000001,107.56396500000028
58,205.12841800000024,458.3334960000002,130.6411130000006,33.20507799999996,91.0258789999998,165.89746099999957,122.43603499999972,131.41015599999992,122.43603499999972,98.9741210000002,160.89746099999957,176.2822270000006,1025.1284180000002,110.0
59,218.84619099999964,470.89746099999957,144.87158199999976,48.7177729999994,120.0,177.43603499999972,134.61523400000078,145.12841800000024,139.61523400000078,120.89746099999957,176.79492200000004,191.2822270000006,1031.410156,108.46142599999985
60,203.84619099999964,466.2822270000006,139.10253900000043,44.61523400000078,94.35888699999941,167.56396500000028,127.30761700000039,140.38476599999922,132.82031300000017,115.12841800000024,166.0258789999998,180.89746099999957,998.3334960000002,108.3334960000002
61,173.46142599999985,447.5639650000003,120.89746099999957,27.69238299999961,42.69238299999961,147.6923829999996,109.87158199999976,123.3334960000002,112.30761700000039,93.7177729999994,139.7436520000001,157.17968800000017,942.8203130000002,108.58984400000008
62,147.3076170000004,425.89746099999957,103.0771479999994,12.307617000000391,4.102539000000434,132.3076170000004,95.64111300000059,106.2822270000006,95.25634799999989,75.89746099999957,116.6665039999998,137.43603499999972,892.5639650000003,103.9741210000002
63,137.43603499999972,411.15380900000036,95.64111300000059,8.077147999999397,-1.153809000000365,128.9741210000002,92.43603499999972,98.7177729999994,92.05126999999993,72.05126999999993,109.23095699999976,132.05126999999993,866.9228520000006,97.43603499999972
64,141.9228520000006,405.51269500000035,99.61523400000078,13.589844000000085,18.333496000000196,135.0,98.0771479999994,101.15380900000036,100.12841800000024,77.56396500000028,117.17968800000017,138.46142599999985,864.1025390000004,96.6665039999998
65,150.6411130000006,404.3588869999994,107.82031300000017,19.871581999999762,39.61523400000078,141.2822270000006,104.74365200000011,107.30761700000039,108.84619099999964,80.0,129.61523400000078,146.41015599999992,866.794922,101.79492200000004
66,153.9741210000002,402.05126999999993,112.43603499999972,20.641113000000587,45.897460999999566,141.41015599999992,105.76904300000024,110.25634799999989,109.23095699999976,71.79492200000004,135.51269500000035,147.6923829999996,857.0512699999999,105.0
67,150.6411130000006,395.3847659999992,111.15380900000036,17.17968800000017,36.79492200000004,135.76904300000024,100.64111300000059,108.20507799999996,102.17968800000017,58.7177729999994,132.3076170000004,141.41015599999992,830.0,103.46142599999985
68,144.87158199999976,383.3334960000002,107.56396500000028,15.256347999999889,22.82031300000017,129.7436520000001,94.10253900000043,104.48730499999965,95.25634799999989,52.82031300000017,124.61523400000078,133.46142599999985,793.0771479999994,102.94873000000007
69,140.76904300000024,366.0258789999998,105.64111300000059,18.077147999999397,13.846190999999635,127.17968800000017,91.41015599999992,103.0771479999994,94.10253900000043,60.897460999999566,118.7177729999994,128.9741210000002,755.8974609999996,105.76904300000024
70,138.20507799999996,344.87158199999976,105.51269500000035,22.05126999999993,12.17968800000017,127.30761700000039,93.84619099999964,105.0,97.56396500000028,76.9228520000006,115.89746099999957,127.94873000000007,722.3076170000004,106.53857400000015
71,134.48730499999965,322.82031300000017,105.38476599999922,22.17968800000017,15.0,126.9228520000006,98.20507799999996,107.69238299999961,100.38476599999922,88.3334960000002,114.48730499999965,127.30761700000039,691.9228520000006,102.56396500000028
72,130.12841800000024,303.3334960000002,103.9741210000002,17.43603499999972,20.897460999999566,124.23095699999976,101.0258789999998,108.58984400000008,99.61523400000078,86.15380900000036,113.20507799999996,126.53857400000015,664.2309569999998,100.51269500000035
73,129.48730499999965,288.3334960000002,103.20507799999996,13.589844000000085,30.897460999999566,122.05126999999993,101.53857400000015,107.82031300000017,97.17968800000017,72.56396500000028,114.23095699999976,129.23095699999976,640.5126950000003,104.74365200000011
74,137.05126999999993,277.6923829999996,105.51269500000035,16.794922000000042,45.38476599999922,124.10253900000043,100.76904300000024,108.20507799999996,97.94873000000007,59.23095699999976,120.0,139.7436520000001,621.0258789999998,108.84619099999964
75,150.89746099999957,269.6152340000008,111.53857400000015,27.94873000000007,61.2822270000006,131.41015599999992,100.76904300000024,111.9228520000006,104.35888699999941,57.30761700000039,130.12841800000024,157.56396500000028,602.4360349999997,106.2822270000006
76,163.58984400000008,262.05126999999993,118.7177729999994,41.2822270000006,73.0771479999994,140.38476599999922,101.6665039999998,118.0771479999994,113.9741210000002,66.6665039999998,139.87158199999976,176.41015599999992,577.9487300000001,100.89746099999957
77,166.0258789999998,253.9741210000002,122.30761700000039,48.846190999999635,76.9228520000006,145.38476599999922,102.82031300000017,123.0771479999994,120.51269500000035,74.48730499999965,143.20507799999996,187.6923829999996,541.794922,100.25634799999989
78,154.87158199999976,246.53857400000015,118.9741210000002,47.56396500000028,72.56396500000028,143.0771479999994,102.94873000000007,123.46142599999985,118.58984400000008,65.64111300000059,136.9228520000006,186.6665039999998,492.5639650000003,102.94873000000007
79,135.51269500000035,242.56396500000028,109.48730499999965,40.38476599999922,63.7177729999994,135.2563479999999,101.53857400000015,118.46142599999985,108.46142599999985,37.56396500000028,124.10253900000043,176.0258789999998,436.15380900000036,103.0771479999994
80,119.23095699999976,244.61523400000078,99.48730499999965,34.102539000000434,56.153809000000365,127.82031300000017,99.61523400000078,110.64111300000059,96.2822270000006,5.769043000000238,112.17968800000017,165.38476599999922,384.10253900000043,101.0258789999998
81,115.89746099999957,251.79492200000004,95.38476599999922,34.23095699999976,55.12841800000024,126.15380900000036,98.46142599999985,105.0,90.12841800000024,-8.461425999999847,109.48730499999965,164.10253900000043,346.9228520000006,102.17968800000017
82,126.6665039999998,259.48730499999965,100.25634799999989,41.153809000000365,61.79492200000004,131.79492200000004,99.23095699999976,105.51269500000035,94.23095699999976,5.3847659999992175,118.84619099999964,173.7177729999994,326.9228520000006,105.76904300000024
83,143.0771479999994,260.6411130000006,111.0258789999998,50.76904300000024,73.46142599999985,141.41015599999992,101.6665039999998,112.05126999999993,106.15380900000036,39.102539000000434,134.61523400000078,187.17968800000017,314.87158199999976,105.64111300000059
84,152.43603499999972,250.38476599999922,119.87158199999976,57.56396500000028,85.25634799999989,148.84619099999964,103.84619099999964,120.12841800000024,118.9741210000002,71.6665039999998,146.0258789999998,194.87158199999976,296.2822270000006,102.05126999999993
85,147.05126999999993,229.61523400000078,120.89746099999957,59.23095699999976,92.94873000000007,149.87158199999976,104.10253900000043,124.23095699999976,125.64111300000059,83.58984400000008,145.51269500000035,191.2822270000006,261.6665039999998,101.53857400000015
86,130.38476599999922,204.87158199999976,114.10253900000043,57.56396500000028,94.48730499999965,145.12841800000024,102.30761700000039,122.05126999999993,123.3334960000002,69.10253900000043,134.87158199999976,178.84619099999964,215.0,105.25634799999989
87,113.7177729999994,183.9741210000002,105.76904300000024,57.43603499999972,89.61523400000078,139.48730499999965,99.61523400000078,116.15380900000036,115.12841800000024,38.7177729999994,123.3334960000002,165.2563479999999,170.2563479999999,106.53857400000015
88,107.82031300000017,171.2822270000006,102.17968800000017,61.666503999999804,80.38476599999922,137.3076170000004,97.82031300000017,111.53857400000015,107.43603499999972,12.948730000000069,119.23095699999976,157.56396500000028,140.12841800000024,103.58984400000008
89,113.7177729999994,165.38476599999922,105.25634799999989,69.48730499999965,71.9228520000006,140.0,98.20507799999996,111.9228520000006,105.51269500000035,8.461425999999847,123.58984400000008,158.0771479999994,125.89746099999957,102.43603499999972
90,123.46142599999985,162.17968800000017,111.9228520000006,77.82031300000017,71.2822270000006,146.53857400000015,99.87158199999976,116.79492200000004,109.61523400000078,26.153809000000365,130.2563479999999,163.20507799999996,118.20507799999996,106.0258789999998
91,127.69238299999961,158.9741210000002,117.05126999999993,84.87158199999976,82.43603499999972,154.61523400000078,101.53857400000015,121.79492200000004,115.76904300000024,49.61523400000078,132.43603499999972,167.56396500000028,105.25634799999989,107.94873000000007
92,122.69238299999961,155.6411130000006,118.20507799999996,90.38476599999922,100.76904300000024,161.41015599999992,102.30761700000039,123.46142599999985,119.10253900000043,57.69238299999961,127.43603499999972,168.20507799999996,81.9228520000006,103.9741210000002
93,112.43603499999972,153.58984400000008,116.53857400000015,95.12841800000024,115.76904300000024,163.58984400000008,102.30761700000039,120.51269500000035,118.3334960000002,42.56396500000028,118.7177729999994,166.53857400000015,53.0771479999994,99.87158199999976
94,104.35888699999941,154.10253900000043,115.12841800000024,99.74365200000011,118.0771479999994,159.48730499999965,101.41015599999992,114.87158199999976,116.0258789999998,16.538574000000153,111.6665039999998,165.0,28.589844000000085,102.17968800000017
95,102.94873000000007,157.82031300000017,115.12841800000024,104.23095699999976,107.56396500000028,150.6411130000006,98.7177729999994,109.10253900000043,115.0,0.6411130000005869,109.48730499999965,164.48730499999965,15.512695000000349,107.43603499999972
96,106.0258789999998,162.56396500000028,115.25634799999989,108.0771479999994,93.0771479999994,141.6665039999998,94.10253900000043,105.12841800000024,115.38476599999922,5.897460999999566,110.76904300000024,163.0771479999994,11.282227000000603,108.3334960000002
97,107.56396500000028,165.0,113.58984400000008,110.64111300000059,85.0,136.79492200000004,89.23095699999976,103.7177729999994,114.87158199999976,24.871581999999762,110.89746099999957,159.61523400000078,6.538574000000153,106.41015599999992
98,103.3334960000002,163.7177729999994,110.25634799999989,112.17968800000017,88.3334960000002,137.56396500000028,86.0258789999998,104.35888699999941,111.79492200000004,41.410155999999915,107.56396500000028,154.48730499999965,-5.512939000000188,107.17968800000017
99,94.61523400000078,160.2563479999999,107.43603499999972,113.46142599999985,100.38476599999922,142.94873000000007,85.76904300000024,106.0258789999998,107.17968800000017,44.87158199999976,102.30761700000039,150.38476599999922,-23.58984399999963,109.10253900000043
100,86.2822270000006,156.53857400000015,107.17968800000017,115.0,112.56396500000028,150.12841800000024,87.94873000000007,107.56396500000028,104.35888699999941,38.589844000000085,98.58984400000008,148.9741210000002,-40.25634799999989,106.0258789999998
101,81.0258789999998,152.17968800000017,109.23095699999976,116.0258789999998,117.05126999999993,155.2563479999999,90.89746099999957,108.3334960000002,105.38476599999922,33.333496000000196,98.20507799999996,149.7436520000001,-50.76928699999962,99.87158199999976
102,78.58984400000008,145.51269500000035,111.0258789999998,115.89746099999957,111.9228520000006,156.79492200000004,93.46142599999985,107.82031300000017,109.87158199999976,34.87158199999976,99.87158199999976,150.76904300000024,-57.17944299999999,98.3334960000002
103,77.30761700000039,136.79492200000004,110.76904300000024,115.38476599999922,103.46142599999985,156.53857400000015,94.87158199999976,106.6665039999998,115.12841800000024,38.0771479999994,100.89746099999957,150.12841800000024,-65.0,102.69238299999961
104,77.69238299999961,129.48730499999965,109.23095699999976,117.17968800000017,100.64111300000059,157.82031300000017,96.0258789999998,107.05126999999993,117.94873000000007,34.35888699999941,100.64111300000059,148.7177729999994,-75.89746100000002,105.25634799999989
105,82.17968800000017,127.94873000000007,109.61523400000078,122.30761700000039,106.53857400000015,162.05126999999993,98.58984400000008,110.64111300000059,118.58984400000008,23.333496000000196,101.2822270000006,149.87158199999976,-85.1281740000004,103.3334960000002
106,91.53857400000015,132.3076170000004,113.84619099999964,129.48730499999965,115.89746099999957,167.43603499999972,102.82031300000017,117.05126999999993,120.0,16.538574000000153,105.89746099999957,155.51269500000035,-85.76928699999962,102.69238299999961
107,103.0771479999994,137.43603499999972,119.87158199999976,134.7436520000001,120.25634799999989,169.7436520000001,106.6665039999998,123.0771479999994,123.58984400000008,25.641113000000587,114.23095699999976,163.84619099999964,-75.51293900000019,106.2822270000006
108,110.51269500000035,137.43603499999972,122.82031300000017,134.87158199999976,115.25634799999989,165.51269500000035,107.05126999999993,123.9741210000002,127.17968800000017,50.38476599999922,121.0258789999998,169.48730499999965,-60.64111300000013,108.0771479999994
109,109.61523400000078,129.23095699999976,119.48730499999965,129.87158199999976,104.35888699999941,154.87158199999976,101.6665039999998,116.6665039999998,126.2822270000006,77.05126999999993,120.89746099999957,167.56396500000028,-52.82055700000001,104.23095699999976
110,101.41015599999992,116.0258789999998,110.76904300000024,123.0771479999994,94.48730499999965,141.6665039999998,91.9228520000006,103.46142599999985,119.10253900000043,90.64111300000059,113.20507799999996,158.20507799999996,-59.10253899999998,100.12841800000024
111,93.0771479999994,103.84619099999964,101.9228520000006,119.23095699999976,91.79492200000004,132.56396500000028,83.20507799999996,91.6665039999998,110.0,87.05126999999993,103.46142599999985,147.82031300000017,-75.89746100000002,101.53857400000015
112,92.56396500000028,97.30761700000039,98.58984400000008,120.64111300000059,98.46142599999985,133.20507799999996,81.79492200000004,89.35888699999941,105.76904300000024,76.41015599999992,99.61523400000078,143.84619099999964,-90.1281740000004,104.87158199999976
113,101.9228520000006,96.2822270000006,103.3334960000002,126.2822270000006,112.43603499999972,143.58984400000008,89.87158199999976,98.84619099999964,110.76904300000024,73.7177729999994,105.64111300000059,148.84619099999964,-90.76928699999962,104.74365200000011
114,115.76904300000024,97.43603499999972,113.0771479999994,132.56396500000028,128.9741210000002,157.94873000000007,102.94873000000007,114.23095699999976,121.9228520000006,86.2822270000006,118.20507799999996,158.58984400000008,-77.56420900000057,103.58984400000008
115,126.6665039999998,98.3334960000002,122.05126999999993,137.3076170000004,143.58984400000008,168.7177729999994,113.9741210000002,126.6665039999998,132.17968800000017,108.84619099999964,129.7436520000001,166.2822270000006,-60.51293900000019,106.6665039999998
116,130.89746099999957,98.9741210000002,125.76904300000024,141.79492200000004,154.61523400000078,172.6923829999996,118.46142599999985,131.53857400000015,136.15380900000036,128.84619099999964,134.48730499999965,168.58984400000008,-51.025634999999966,110.89746099999957
117,130.12841800000024,100.12841800000024,124.61523400000078,147.6923829999996,162.05126999999993,171.79492200000004,117.56396500000028,130.2563479999999,133.20507799999996,136.53857400000015,132.05126999999993,166.79492200000004,-53.974365000000034,109.48730499999965
118,127.30761700000039,100.64111300000059,121.15380900000036,154.23095699999976,164.87158199999976,169.7436520000001,114.74365200000011,126.2822270000006,126.79492200000004,130.0,125.76904300000024,163.7177729999994,-66.66674799999964,103.84619099999964
119,123.3334960000002,97.43603499999972,117.69238299999961,157.43603499999972,161.53857400000015,167.82031300000017,111.9228520000006,121.9228520000006,120.64111300000059,113.9741210000002,119.10253900000043,160.2563479999999,-82.56420900000057,101.6665039999998
120,117.82031300000017,89.74365200000011,115.0,154.61523400000078,152.43603499999972,165.51269500000035,109.61523400000078,117.94873000000007,116.6665039999998,95.38476599999922,113.7177729999994,155.6411130000006,-96.28198199999997,104.23095699999976
121,111.79492200000004,81.15380900000036,114.10253900000043,147.56396500000028,142.17968800000017,162.82031300000017,107.17968800000017,114.61523400000078,114.74365200000011,81.0258789999998,110.64111300000059,150.6411130000006,-104.48706099999981,105.64111300000059
122,107.56396500000028,76.6665039999998,115.25634799999989,140.89746099999957,137.6923829999996,161.41015599999992,105.51269500000035,112.69238299999961,114.87158199999976,76.0258789999998,110.0,148.0771479999994,-106.15380900000036,104.23095699999976
123,107.43603499999972,77.94873000000007,118.0771479999994,137.94873000000007,142.3076170000004,162.6923829999996,105.0,112.94873000000007,117.05126999999993,82.05126999999993,111.79492200000004,151.0258789999998,-103.33325200000036,105.38476599999922
124,110.25634799999989,82.05126999999993,120.89746099999957,138.84619099999964,152.82031300000017,166.41015599999992,106.79492200000004,115.51269500000035,120.76904300000024,95.38476599999922,115.0,160.0,-98.97436500000003,109.10253900000043
125,113.58984400000008,84.61523400000078,122.56396500000028,142.05126999999993,162.6923829999996,170.12841800000024,111.0258789999998,120.0,125.76904300000024,109.48730499999965,118.84619099999964,171.41015599999992,-96.02563499999997,108.84619099999964
126,114.23095699999976,82.69238299999961,123.20507799999996,145.38476599999922,165.2563479999999,171.79492200000004,115.89746099999957,124.35888699999941,130.6411130000006,119.48730499999965,122.05126999999993,179.61523400000078,-96.15380900000036,102.94873000000007
127,110.64111300000059,76.53857400000015,122.43603499999972,146.2822270000006,157.94873000000007,169.10253900000043,117.82031300000017,124.87158199999976,133.0771479999994,124.48730499999965,122.43603499999972,179.7436520000001,-100.25634799999989,98.9741210000002
128,102.82031300000017,68.0771479999994,119.35888699999941,142.6923829999996,143.20507799999996,161.79492200000004,113.84619099999964,118.9741210000002,130.6411130000006,126.15380900000036,118.58984400000008,170.76904300000024,-108.33325200000036,102.30761700000039
129,94.35888699999941,60.76904300000024,114.23095699999976,135.6411130000006,128.20507799999996,152.6923829999996,105.12841800000024,107.94873000000007,123.3334960000002,126.15380900000036,112.05126999999993,157.94873000000007,-117.69238299999961,106.9228520000006
130,90.12841800000024,57.43603499999972,110.0,130.6411130000006,121.53857400000015,147.56396500000028,96.9228520000006,97.43603499999972,115.25634799999989,125.64111300000059,107.30761700000039,149.10253900000043,-123.71801800000003,106.6665039999998
131,92.94873000000007,58.974121000000196,110.12841800000024,133.0771479999994,127.56396500000028,150.51269500000035,95.0,93.7177729999994,112.82031300000017,125.64111300000059,108.46142599999985,149.87158199999976,-122.82055700000001,104.61523400000078
132,101.53857400000015,63.846190999999635,115.64111300000059,143.7177729999994,142.17968800000017,160.12841800000024,100.51269500000035,98.84619099999964,118.7177729999994,127.17968800000017,115.51269500000035,159.10253900000043,-115.76928699999962,106.41015599999992
133,110.38476599999922,68.46142599999985,123.58984400000008,156.6665039999998,155.2563479999999,170.12841800000024,109.61523400000078,108.58984400000008,129.23095699999976,128.84619099999964,123.9741210000002,169.48730499999965,-107.56420900000057,108.9741210000002
134,114.48730499999965,70.64111300000059,129.10253900000043,163.20507799999996,158.84619099999964,174.48730499999965,117.05126999999993,115.64111300000059,136.79492200000004,127.69238299999961,128.3334960000002,173.46142599999985,-103.58984399999963,106.79492200000004
135,112.56396500000028,69.74365200000011,129.3588869999994,158.3334960000002,153.46142599999985,172.82031300000017,119.61523400000078,115.38476599999922,136.9228520000006,122.56396500000028,127.17968800000017,168.84619099999964,-106.28198199999997,102.69238299999961
136,107.17968800000017,66.79492200000004,125.0,144.7436520000001,147.56396500000028,169.48730499999965,118.3334960000002,108.58984400000008,130.76904300000024,114.61523400000078,122.43603499999972,159.3588869999994,-113.84619099999964,103.20507799999996
137,101.79492200000004,63.46142599999985,118.84619099999964,131.15380900000036,148.7177729999994,168.3334960000002,115.89746099999957,100.76904300000024,122.94873000000007,105.25634799999989,117.82031300000017,150.51269500000035,-122.56420900000057,106.6665039999998
138,97.94873000000007,60.25634799999989,113.7177729999994,125.38476599999922,156.53857400000015,169.61523400000078,113.7177729999994,96.79492200000004,118.0771479999994,96.79492200000004,114.48730499999965,145.51269500000035,-129.61547900000005,106.15380900000036
139,95.25634799999989,56.53857400000015,110.64111300000059,129.23095699999976,162.56396500000028,170.12841800000024,110.89746099999957,97.94873000000007,118.0771479999994,92.56396500000028,111.2822270000006,143.58984400000008,-135.38452099999995,101.9228520000006
140,93.20507799999996,51.666503999999804,109.10253900000043,136.79492200000004,158.7177729999994,167.6923829999996,106.41015599999992,101.0258789999998,120.89746099999957,95.51269500000035,107.05126999999993,141.79492200000004,-140.64111300000013,101.2822270000006
141,92.30761700000039,47.05126999999993,108.58984400000008,140.38476599999922,145.0,162.94873000000007,101.41015599999992,102.69238299999961,122.43603499999972,103.7177729999994,103.20507799999996,138.20507799999996,-144.7436520000001,105.38476599999922
142,93.20507799999996,45.64111300000059,108.9741210000002,136.53857400000015,129.87158199999976,158.9741210000002,98.20507799999996,101.9228520000006,120.38476599999922,109.48730499999965,102.69238299999961,134.10253900000043,-145.0,106.9228520000006
143,96.15380900000036,49.23095699999976,110.64111300000059,128.58984400000008,123.58984400000008,157.43603499999972,98.9741210000002,100.76904300000024,115.76904300000024,107.17968800000017,107.17968800000017,132.17968800000017,-140.1281740000004,103.20507799999996
144,100.0,56.2822270000006,113.3334960000002,123.9741210000002,129.48730499999965,158.3334960000002,103.58984400000008,101.79492200000004,112.56396500000028,99.10253900000043,114.23095699999976,134.3588869999994,-132.43579099999943,101.0258789999998
145,102.69238299999961,62.05126999999993,116.41015599999992,127.69238299999961,141.2822270000006,159.87158199999976,109.48730499999965,105.38476599999922,113.20507799999996,93.20507799999996,118.58984400000008,138.9741210000002,-127.17944299999999,104.74365200000011
146,102.56396500000028,62.43603499999972,118.0771479999994,137.94873000000007,148.20507799999996,160.12841800000024,113.58984400000008,108.9741210000002,116.6665039999998,94.35888699999941,116.0258789999998,141.79492200000004,-127.82055700000001,108.84619099999964
147,99.10253900000043,56.410155999999915,117.56396500000028,147.6923829999996,143.46142599999985,158.58984400000008,113.84619099999964,110.0,119.48730499999965,98.7177729999994,107.30761700000039,140.0,-133.58984399999963,107.94873000000007
148,93.58984400000008,47.17968800000017,115.38476599999922,149.48730499999965,131.53857400000015,157.3076170000004,111.0258789999998,108.0771479999994,119.74365200000011,100.38476599999922,98.20507799999996,135.12841800000024,-139.61547900000005,105.89746099999957
149,88.58984400000008,40.51269500000035,113.58984400000008,142.3076170000004,124.23095699999976,159.23095699999976,107.82031300000017,105.51269500000035,118.3334960000002,98.58984400000008,95.64111300000059,132.17968800000017,-140.89746100000002,108.20507799999996
150,86.41015599999992,40.0,114.23095699999976,130.51269500000035,130.2563479999999,165.89746099999957,106.53857400000015,104.87158199999976,117.56396500000028,98.20507799999996,101.2822270000006,134.10253900000043,-136.41015600000037,111.6665039999998
151,86.2822270000006,43.974121000000196,116.15380900000036,120.89746099999957,146.41015599999992,173.58984400000008,107.17968800000017,106.41015599999992,117.82031300000017,102.94873000000007,109.61523400000078,139.10253900000043,-130.76928699999962,110.64111300000059
152,85.38476599999922,47.17968800000017,117.05126999999993,116.6665039999998,160.89746099999957,176.9228520000006,107.69238299999961,108.0771479999994,117.94873000000007,110.89746099999957,112.56396500000028,142.17968800000017,-131.41015600000037,107.30761700000039
153,82.05126999999993,46.025878999999804,115.25634799999989,118.20507799999996,164.3588869999994,173.7177729999994,106.6665039999998,107.69238299999961,116.9228520000006,116.6665039999998,107.05126999999993,140.76904300000024,-140.89746100000002,107.56396500000028
154,78.3334960000002,41.9228520000006,112.94873000000007,122.94873000000007,157.82031300000017,168.3334960000002,105.12841800000024,106.15380900000036,115.89746099999957,117.43603499999972,97.94873000000007,137.3076170000004,-153.33325200000036,109.61523400000078
155,78.58984400000008,39.74365200000011,112.82031300000017,127.43603499999972,150.0,166.6665039999998,105.12841800000024,106.9228520000006,117.69238299999961,115.25634799999989,93.7177729999994,137.05126999999993,-158.46142599999985,107.56396500000028
156,84.23095699999976,41.153809000000365,115.64111300000059,128.84619099999964,147.94873000000007,169.61523400000078,107.17968800000017,111.79492200000004,123.20507799999996,113.7177729999994,98.46142599999985,141.53857400000015,-151.28198199999997,102.69238299999961
157,91.6665039999998,43.589844000000085,118.84619099999964,126.41015599999992,150.38476599999922,172.05126999999993,109.23095699999976,117.94873000000007,129.61523400000078,114.61523400000078,107.56396500000028,146.9228520000006,-137.179443,101.9228520000006
158,95.51269500000035,43.333496000000196,119.23095699999976,122.69238299999961,150.2563479999999,168.9741210000002,107.94873000000007,120.51269500000035,132.94873000000007,116.41015599999992,112.94873000000007,146.9228520000006,-127.30761700000039,105.89746099999957
159,93.84619099999964,39.48730499999965,116.2822270000006,122.05126999999993,143.58984400000008,160.6411130000006,103.3334960000002,116.9228520000006,131.15380900000036,116.0258789999998,110.51269500000035,139.23095699999976,-128.33325200000036,107.05126999999993
160,88.9741210000002,35.0,112.69238299999961,126.0258789999998,133.9741210000002,152.6923829999996,98.7177729999994,109.10253900000043,125.38476599999922,111.41015599999992,103.20507799999996,128.20507799999996,-137.820557,103.3334960000002
161,85.38476599999922,33.46142599999985,111.41015599999992,132.05126999999993,129.48730499999965,151.41015599999992,97.94873000000007,102.43603499999972,119.48730499999965,103.0771479999994,98.3334960000002,122.17968800000017,-146.923096,101.0258789999998
162,86.0258789999998,36.53857400000015,113.46142599999985,136.15380900000036,134.61523400000078,158.0771479999994,102.17968800000017,101.15380900000036,117.30761700000039,95.51269500000035,100.89746099999957,125.64111300000059,-148.33325200000036,103.46142599999985
163,90.0,41.9228520000006,116.41015599999992,135.6411130000006,143.84619099999964,168.0771479999994,107.82031300000017,105.38476599999922,118.7177729999994,92.56396500000028,109.10253900000043,134.7436520000001,-142.820557,105.89746099999957
164,93.46142599999985,45.38476599999922,117.05126999999993,131.0258789999998,146.15380900000036,173.3334960000002,109.61523400000078,110.12841800000024,120.64111300000059,94.35888699999941,115.51269500000035,140.12841800000024,-137.3076170000004,104.10253900000043
165,92.17968800000017,43.333496000000196,112.94873000000007,124.74365200000011,134.23095699999976,168.7177729999994,104.48730499999965,109.74365200000011,119.48730499999965,96.79492200000004,113.20507799999996,135.12841800000024,-139.23071300000038,102.69238299999961
166,86.6665039999998,36.666503999999804,106.15380900000036,120.0,113.46142599999985,156.79492200000004,95.25634799999989,103.46142599999985,115.64111300000059,95.64111300000059,102.69238299999961,122.43603499999972,-147.9487299999996,105.25634799999989
167,82.05126999999993,30.384765999999217,101.15380900000036,120.0,98.9741210000002,147.17968800000017,88.3334960000002,96.53857400000015,112.82031300000017,92.05126999999993,92.05126999999993,111.6665039999998,-155.5129390000002,107.05126999999993
168,83.9741210000002,29.74365200000011,102.94873000000007,125.76904300000024,103.9741210000002,148.9741210000002,89.10253900000043,95.51269500000035,115.38476599999922,91.6665039999998,90.51269500000035,111.41015599999992,-153.20507799999996,103.3334960000002
169,93.3334960000002,36.025878999999804,111.53857400000015,135.0,127.30761700000039,162.3076170000004,97.05126999999993,101.53857400000015,123.3334960000002,99.35888699999941,100.12841800000024,120.89746099999957,-139.8718259999996,99.23095699999976
170,104.10253900000043,45.12841800000024,121.41015599999992,142.56396500000028,154.10253900000043,177.43603499999972,106.2822270000006,109.48730499999965,132.05126999999993,112.82031300000017,113.84619099999964,130.6411130000006,-123.46142599999985,102.05126999999993
171,108.58984400000008,50.897460999999566,125.64111300000059,144.23095699999976,167.94873000000007,183.3334960000002,110.25634799999989,112.56396500000028,134.87158199999976,123.84619099999964,120.51269500000035,131.53857400000015,-115.25634799999989,108.9741210000002
172,103.7177729999994,49.23095699999976,121.0258789999998,138.84619099999964,163.9741210000002,176.79492200000004,106.41015599999992,108.9741210000002,129.10253900000043,125.89746099999957,115.12841800000024,121.79492200000004,-120.51293900000019,111.41015599999992
173,93.46142599999985,41.2822270000006,111.6665039999998,129.7436520000001,150.89746099999957,164.87158199999976,98.3334960000002,102.82031300000017,118.9741210000002,120.51269500000035,102.30761700000039,108.84619099999964,-134.7436520000001,109.23095699999976
174,85.12841800000024,32.82031300000017,104.61523400000078,122.82031300000017,142.43603499999972,157.6923829999996,92.43603499999972,100.89746099999957,112.43603499999972,115.0,92.56396500000028,102.05126999999993,-147.179443,108.58984400000008
175,84.10253900000043,28.717772999999397,104.35888699999941,122.43603499999972,144.61523400000078,159.61523400000078,93.0771479999994,105.89746099999957,114.23095699999976,115.25634799999989,93.0771479999994,104.87158199999976,-149.23071300000038,110.0
176,89.10253900000043,29.871581999999762,109.23095699999976,127.82031300000017,152.3076170000004,166.79492200000004,98.7177729999994,114.35888699999941,121.79492200000004,121.15380900000036,102.17968800000017,113.20507799999996,-140.5129390000002,108.20507799999996
177,95.12841800000024,33.0771479999994,114.35888699999941,134.48730499999965,155.38476599999922,171.2822270000006,104.35888699999941,120.12841800000024,128.58984400000008,128.20507799999996,112.05126999999993,119.74365200000011,-127.17944299999999,103.58984400000008
178,97.94873000000007,35.76904300000024,116.41015599999992,137.43603499999972,150.38476599999922,170.2563479999999,106.0258789999998,119.48730499999965,130.0,130.76904300000024,116.53857400000015,121.41015599999992,-116.53857400000015,102.56396500000028
179,97.69238299999961,38.20507799999996,115.64111300000059,135.2563479999999,143.20507799999996,166.79492200000004,104.35888699999941,115.0,126.41015599999992,125.76904300000024,114.87158199999976,120.12841800000024,-111.53857400000015,106.15380900000036
180,96.9228520000006,41.53857400000015,113.7177729999994,130.2563479999999,141.2822270000006,165.76904300000024,102.43603499999972,111.6665039999998,121.53857400000015,114.74365200000011,111.15380900000036,118.84619099999964,-111.53857400000015,107.30761700000039
181,96.53857400000015,44.74365200000011,112.17968800000017,125.0,144.48730499999965,167.6923829999996,101.6665039999998,111.6665039999998,119.23095699999976,104.61523400000078,108.7177729999994,117.69238299999961,-115.1281740000004,102.82031300000017
182,94.74365200000011,45.0,110.38476599999922,120.51269500000035,144.48730499999965,168.20507799999996,101.15380900000036,113.3334960000002,120.12841800000024,101.53857400000015,107.69238299999961,114.23095699999976,-120.89746100000002,99.74365200000011
183,90.12841800000024,41.025878999999804,107.94873000000007,116.53857400000015,136.53857400000015,164.10253900000043,99.35888699999941,112.94873000000007,122.05126999999993,106.41015599999992,105.76904300000024,107.05126999999993,-127.56420900000057,103.0771479999994
184,84.10253900000043,35.25634799999989,105.0,113.58984400000008,126.15380900000036,157.17968800000017,97.05126999999993,109.74365200000011,122.30761700000039,113.20507799999996,101.41015599999992,98.3334960000002,-132.3076170000004,107.43603499999972
185,80.38476599999922,32.43603499999972,103.0771479999994,113.58984400000008,124.48730499999965,153.20507799999996,96.41015599999992,106.2822270000006,121.0258789999998,117.30761700000039,96.2822270000006,93.0771479999994,-132.3076170000004,106.53857400000015
186,82.43603499999972,35.64111300000059,104.10253900000043,118.58984400000008,136.41015599999992,156.79492200000004,99.61523400000078,106.6665039999998,121.2822270000006,120.12841800000024,94.87158199999976,95.38476599999922,-126.02563499999997,103.46142599999985
187,90.0,43.846190999999635,109.10253900000043,128.84619099999964,155.76904300000024,167.3076170000004,106.2822270000006,111.9228520000006,125.64111300000059,127.30761700000039,99.87158199999976,105.0,-115.0,104.48730499999965
188,99.48730499999965,52.56396500000028,116.15380900000036,140.6411130000006,170.76904300000024,178.3334960000002,113.20507799999996,118.9741210000002,133.20507799999996,141.15380900000036,108.9741210000002,116.79492200000004,-103.20507799999996,107.69238299999961
189,106.0258789999998,56.9228520000006,121.15380900000036,147.94873000000007,173.9741210000002,182.82031300000017,115.64111300000059,122.05126999999993,139.10253900000043,157.3076170000004,116.53857400000015,124.74365200000011,-95.38452099999995,107.69238299999961
190,106.2822270000006,55.0,120.25634799999989,146.41015599999992,167.05126999999993,178.0771479999994,111.53857400000015,118.7177729999994,138.9741210000002,168.46142599999985,117.69238299999961,125.51269500000035,-93.84619099999964,106.0258789999998
191,101.2822270000006,49.35888699999941,113.46142599999985,137.56396500000028,157.82031300000017,168.46142599999985,103.0771479999994,111.6665039999998,133.46142599999985,169.23095699999976,112.69238299999961,120.25634799999989,-97.56420900000057,107.56396500000028
192,95.25634799999989,44.48730499999965,104.87158199999976,128.46142599999985,153.58984400000008,161.79492200000004,96.15380900000036,107.43603499999972,127.43603499999972,159.7436520000001,105.89746099999957,112.82031300000017,-102.17944299999999,110.25634799999989
193,92.30761700000039,44.35888699999941,99.74365200000011,126.2822270000006,156.41015599999992,162.82031300000017,95.0,110.12841800000024,126.6665039999998,146.0258789999998,102.05126999999993,107.05126999999993,-103.84619099999964,107.69238299999961
194,93.0771479999994,47.82031300000017,100.12841800000024,131.6665039999998,161.9228520000006,169.48730499999965,99.35888699999941,117.43603499999972,132.56396500000028,136.0258789999998,102.30761700000039,103.46142599999985,-101.79492200000004,101.79492200000004
195,94.74365200000011,50.38476599999922,103.46142599999985,138.20507799999996,162.82031300000017,175.12841800000024,104.61523400000078,122.82031300000017,140.2563479999999,133.46142599999985,104.48730499999965,100.51269500000035,-98.97436500000003,100.64111300000059
196,94.23095699999976,48.0771479999994,104.74365200000011,138.0771479999994,156.53857400000015,175.51269500000035,105.76904300000024,121.2822270000006,142.94873000000007,134.7436520000001,105.38476599999922,97.43603499999972,-98.07690400000001,105.12841800000024
197,91.2822270000006,42.30761700000039,102.43603499999972,130.38476599999922,147.3076170000004,172.17968800000017,101.79492200000004,113.20507799999996,137.3076170000004,132.43603499999972,103.9741210000002,95.25634799999989,-99.74365200000011,107.30761700000039
198,88.3334960000002,37.94873000000007,98.7177729999994,122.17968800000017,142.56396500000028,169.48730499999965,95.89746099999957,103.7177729999994,126.15380900000036,124.35888699999941,101.79492200000004,96.9228520000006,-101.79492200000004,104.35888699999941
199,88.58984400000008,38.46142599999985,98.0771479999994,121.79492200000004,145.38476599999922,170.51269500000035,92.94873000000007,98.58984400000008,116.15380900000036,117.43603499999972,100.76904300000024,103.58984400000008,-101.92309599999999,102.94873000000007
200,92.56396500000028,43.589844000000085,102.43603499999972,130.6411130000006,152.43603499999972,174.87158199999976,94.87158199999976,100.38476599999922,112.30761700000039,120.25634799999989,101.53857400000015,112.43603499999972,-99.8718259999996,107.30761700000039
201,97.69238299999961,49.23095699999976,109.87158199999976,142.05126999999993,157.6923829999996,178.9741210000002,99.74365200000011,106.41015599999992,114.48730499999965,131.79492200000004,102.82031300000017,118.7177729999994,-96.79492200000004,111.41015599999992
202,99.74365200000011,51.410155999999915,115.64111300000059,146.41015599999992,157.94873000000007,179.10253900000043,102.82031300000017,111.41015599999992,118.20507799999996,141.53857400000015,102.05126999999993,117.94873000000007,-95.0,109.61523400000078
203,96.41015599999992,47.69238299999961,115.89746099999957,140.0,154.3588869999994,174.23095699999976,100.76904300000024,111.2822270000006,119.48730499999965,139.61523400000078,98.46142599999985,109.87158199999976,-95.25634799999989,105.76904300000024
204,88.7177729999994,39.35888699999941,110.0,127.05126999999993,150.38476599999922,166.6665039999998,94.74365200000011,106.15380900000036,117.43603499999972,127.05126999999993,93.9741210000002,98.46142599999985,-97.30761700000039,105.51269500000035
205,81.2822270000006,30.0,102.05126999999993,116.41015599999992,148.3334960000002,160.76904300000024,89.61523400000078,100.51269500000035,115.38476599999922,114.23095699999976,91.2822270000006,89.61523400000078,-99.10253899999998,106.6665039999998
206,78.3334960000002,24.871581999999762,97.17968800000017,114.10253900000043,147.94873000000007,159.61523400000078,89.74365200000011,98.3334960000002,116.2822270000006,111.79492200000004,92.56396500000028,87.82031300000017,-99.48706099999981,104.87158199999976
207,81.0258789999998,25.51269500000035,97.94873000000007,119.23095699999976,147.3076170000004,162.3076170000004,94.48730499999965,100.38476599999922,120.38476599999922,122.17968800000017,96.79492200000004,93.20507799999996,-98.71801800000003,103.0771479999994
208,86.15380900000036,29.358886999999413,102.17968800000017,125.38476599999922,142.94873000000007,165.38476599999922,99.35888699999941,102.94873000000007,124.10253900000043,138.46142599999985,100.64111300000059,100.76904300000024,-97.94872999999961,106.41015599999992
209,89.61523400000078,32.56396500000028,105.76904300000024,125.64111300000059,133.84619099999964,165.12841800000024,99.35888699999941,102.56396500000028,123.58984400000008,149.87158199999976,101.6665039999998,104.87158199999976,-97.17944299999999,111.0258789999998
210,90.0,33.46142599999985,106.79492200000004,119.74365200000011,123.46142599999985,162.17968800000017,94.35888699999941,99.74365200000011,118.0771479999994,149.10253900000043,100.12841800000024,103.84619099999964,-95.1281740000004,109.48730499999965
211,89.23095699999976,33.7177729999994,106.41015599999992,113.84619099999964,119.10253900000043,159.3588869999994,88.46142599999985,98.0771479999994,111.0258789999998,137.94873000000007,98.84619099999964,100.0,-90.76928699999962,103.20507799999996
212,90.0,35.76904300000024,107.17968800000017,114.48730499999965,126.41015599999992,159.3588869999994,86.6665039999998,100.25634799999989,107.69238299999961,125.51269500000035,100.51269500000035,97.69238299999961,-84.8718259999996,100.51269500000035
213,93.20507799999996,39.23095699999976,110.12841800000024,122.43603499999972,144.10253900000043,162.17968800000017,90.12841800000024,104.61523400000078,110.64111300000059,121.15380900000036,104.87158199999976,98.0771479999994,-79.74365200000011,103.58984400000008
214,97.43603499999972,42.05126999999993,114.10253900000043,132.17968800000017,163.20507799999996,165.51269500000035,95.64111300000059,107.69238299999961,117.30761700000039,126.15380900000036,110.12841800000024,99.10253900000043,-77.69238299999961,106.53857400000015
215,100.38476599999922,41.666503999999804,117.17968800000017,137.17968800000017,173.58984400000008,167.6923829999996,99.74365200000011,107.82031300000017,123.46142599999985,133.7177729999994,114.10253900000043,98.9741210000002,-78.33325200000036,106.79492200000004
216,100.89746099999957,38.333496000000196,118.9741210000002,135.12841800000024,171.6665039999998,170.12841800000024,101.6665039999998,106.41015599999992,126.79492200000004,136.53857400000015,115.89746099999957,98.7177729999994,-78.97436500000003,108.84619099999964
217,99.61523400000078,34.74365200000011,119.48730499999965,128.46142599999985,162.17968800000017,174.61523400000078,102.17968800000017,106.9228520000006,128.0771479999994,133.7177729999994,116.15380900000036,100.38476599999922,-77.05127000000039,113.58984400000008
218,97.43603499999972,33.20507799999996,118.58984400000008,122.17968800000017,152.94873000000007,181.41015599999992,102.43603499999972,109.87158199999976,127.94873000000007,129.23095699999976,115.38476599999922,104.10253900000043,-73.84619099999964,114.48730499999965
219,94.10253900000043,33.20507799999996,115.0,118.7177729999994,147.43603499999972,187.43603499999972,101.53857400000015,112.30761700000039,125.0,125.38476599999922,112.94873000000007,106.6665039999998,-73.46142599999985,108.7177729999994
220,88.46142599999985,32.30761700000039,107.82031300000017,116.79492200000004,143.0771479999994,188.3334960000002,97.43603499999972,109.74365200000011,117.69238299999961,121.15380900000036,107.43603499999972,104.61523400000078,-79.74365200000011,103.84619099999964
221,81.0258789999998,28.974121000000196,98.84619099999964,113.7177729999994,136.15380900000036,183.3334960000002,89.23095699999976,101.0258789999998,107.43603499999972,115.51269500000035,98.7177729999994,97.94873000000007,-90.51293900000019,105.76904300000024
222,75.0,25.51269500000035,91.9228520000006,109.48730499999965,128.84619099999964,177.56396500000028,80.12841800000024,91.41015599999992,99.48730499999965,111.9228520000006,90.25634799999989,91.41015599999992,-97.69238299999961,110.12841800000024
223,74.74365200000011,25.769043000000238,90.64111300000059,106.6665039999998,127.43603499999972,178.84619099999964,75.64111300000059,88.3334960000002,99.48730499999965,116.15380900000036,87.43603499999972,90.76904300000024,-93.71801800000003,110.51269500000035
224,81.9228520000006,31.538574000000153,95.89746099999957,107.69238299999961,135.89746099999957,190.0,78.9741210000002,95.38476599999922,109.35888699999941,130.12841800000024,92.94873000000007,98.46142599999985,-78.97436500000003,108.9741210000002
225,92.56396500000028,39.61523400000078,103.7177729999994,112.05126999999993,148.3334960000002,205.76904300000024,87.43603499999972,107.94873000000007,123.0771479999994,147.94873000000007,103.7177729999994,110.0,-62.051270000000386,110.38476599999922
226,99.87158199999976,43.7177729999994,108.0771479999994,116.9228520000006,153.3334960000002,216.41015599999992,95.0,116.9228520000006,131.6665039999998,159.87158199999976,112.30761700000039,116.79492200000004,-53.71801800000003,112.17968800000017
227,99.48730499999965,40.25634799999989,106.41015599999992,119.48730499999965,143.7177729999994,216.41015599999992,96.9228520000006,116.2822270000006,129.3588869999994,159.87158199999976,113.20507799999996,112.94873000000007,-57.948729999999614,108.84619099999964
228,92.94873000000007,31.922852000000603,101.0258789999998,118.20507799999996,125.12841800000024,208.84619099999964,93.7177729999994,107.82031300000017,119.48730499999965,148.9741210000002,106.9228520000006,99.87158199999976,-69.35888699999987,103.7177729999994
229,86.0258789999998,26.025878999999804,96.9228520000006,114.74365200000011,111.41015599999992,201.9228520000006,90.38476599999922,99.48730499999965,111.15380900000036,133.3334960000002,99.48730499999965,86.0258789999998,-77.94872999999961,104.35888699999941
230,84.10253900000043,28.717772999999397,97.56396500000028,112.94873000000007,114.35888699999941,203.46142599999985,91.2822270000006,98.7177729999994,111.15380900000036,119.35888699999941,97.56396500000028,79.61523400000078,-76.28198199999997,110.12841800000024
231,88.9741210000002,38.974121000000196,102.30761700000039,116.15380900000036,133.3334960000002,216.15380900000036,96.79492200000004,106.79492200000004,119.23095699999976,111.6665039999998,102.69238299999961,82.43603499999972,-64.8718259999996,112.69238299999961
232,96.41015599999992,49.48730499999965,107.56396500000028,123.20507799999996,155.12841800000024,235.51269500000035,103.20507799999996,118.0771479999994,128.9741210000002,112.82031300000017,110.25634799999989,88.9741210000002,-51.41015600000037,109.61523400000078
233,100.76904300000024,52.94873000000007,109.74365200000011,128.58984400000008,165.0,253.0771479999994,106.6665039999998,125.0,133.84619099999964,122.94873000000007,113.9741210000002,91.2822270000006,-44.61547900000005,106.79492200000004
234,98.7177729999994,47.69238299999961,107.30761700000039,127.30761700000039,157.94873000000007,260.2563479999999,105.38476599999922,123.84619099999964,131.79492200000004,137.6923829999996,110.76904300000024,85.89746099999957,-47.82055700000001,107.56396500000028
235,92.43603499999972,39.23095699999976,102.43603499999972,118.7177729999994,142.3076170000004,255.2563479999999,100.89746099999957,116.53857400000015,125.51269500000035,150.38476599999922,103.84619099999964,75.89746099999957,-56.153809000000365,107.56396500000028
236,87.30761700000039,34.61523400000078,98.3334960000002,107.82031300000017,131.41015599999992,247.3076170000004,96.0258789999998,107.94873000000007,119.48730499999965,154.7436520000001,98.58984400000008,67.82031300000017,-62.051270000000386,104.48730499999965
237,87.30761700000039,37.17968800000017,97.05126999999993,101.9228520000006,133.3334960000002,253.58984400000008,92.69238299999961,101.6665039999998,116.15380900000036,149.61523400000078,98.7177729999994,66.41015599999992,-61.66674799999964,103.7177729999994
238,91.53857400000015,43.974121000000196,97.56396500000028,104.35888699999941,143.9741210000002,290.0,91.0258789999998,97.94873000000007,113.9741210000002,137.17968800000017,102.82031300000017,70.38476599999922,-57.435790999999426,107.43603499999972
239,94.87158199999976,48.7177729999994,96.2822270000006,111.9228520000006,151.53857400000015,360.0,89.10253900000043,95.0,108.9741210000002,122.17968800000017,105.76904300000024,74.23095699999976,-55.1281740000004,109.61523400000078
240,92.05126999999993,46.2822270000006,91.6665039999998,117.30761700000039,146.79492200000004,451.0258789999998,85.76904300000024,90.64111300000059,100.25634799999989,110.38476599999922,102.69238299999961,73.0771479999994,-58.846190999999635,105.89746099999957
241,83.0771479999994,37.05126999999993,85.38476599999922,116.0258789999998,131.6665039999998,540.3847659999992,81.9228520000006,85.76904300000024,91.53857400000015,107.30761700000039,93.20507799999996,66.53857400000015,-67.30761700000039,102.05126999999993
242,73.7177729999994,26.153809000000365,82.17968800000017,110.38476599999922,117.30761700000039,607.3076170000004,80.89746099999957,84.10253900000043,88.7177729999994,113.58984400000008,82.94873000000007,59.74365200000011,-75.25634799999989,104.48730499999965
243,71.15380900000036,21.153809000000365,85.0,106.2822270000006,113.58984400000008,642.4360349999997,84.74365200000011,88.20507799999996,93.9741210000002,124.23095699999976,77.94873000000007,58.974121000000196,-77.43579099999943,109.35888699999941
244,76.79492200000004,25.128418000000238,93.0771479999994,107.56396500000028,120.51269500000035,650.2563479999999,92.05126999999993,96.53857400000015,103.7177729999994,130.89746099999957,80.12841800000024,66.41015599999992,-72.94872999999961,109.48730499999965
245,85.64111300000059,34.23095699999976,101.41015599999992,112.05126999999993,130.12841800000024,643.8461909999996,98.20507799999996,103.7177729999994,110.89746099999957,128.58984400000008,85.89746099999957,78.3334960000002,-66.02563499999997,106.15380900000036
246,89.48730499999965,40.897460999999566,103.9741210000002,114.61523400000078,133.7177729999994,635.1284180000002,98.9741210000002,104.23095699999976,110.25634799999989,117.69238299999961,89.87158199999976,87.69238299999961,-62.435790999999426,106.15380900000036
247,84.10253900000043,39.35888699999941,98.0771479999994,110.76904300000024,128.3334960000002,628.4614259999998,93.20507799999996,96.9228520000006,101.2822270000006,101.79492200000004,88.7177729999994,89.61523400000078,-65.38452099999995,109.10253900000043
248,72.17968800000017,30.641113000000587,86.15380900000036,100.89746099999957,115.89746099999957,621.794922,83.46142599999985,85.76904300000024,88.84619099999964,85.64111300000059,82.94873000000007,84.74365200000011,-72.56420900000057,108.7177729999994
249,61.666503999999804,21.666503999999804,75.51269500000035,90.64111300000059,101.6665039999998,612.3076170000004,75.64111300000059,77.17968800000017,80.0,74.61523400000078,76.53857400000015,78.46142599999985,-78.07690400000001,105.0
250,60.76904300000024,20.769043000000238,73.9741210000002,88.46142599999985,94.23095699999976,601.5385740000002,75.64111300000059,76.6665039999998,80.64111300000059,74.35888699999941,74.61523400000078,77.69238299999961,-75.64111300000013,104.10253900000043
251,71.9228520000006,31.282227000000603,84.35888699999941,99.48730499999965,100.76904300000024,595.2563479999999,85.38476599999922,85.25634799999989,91.2822270000006,87.05126999999993,80.51269500000035,85.89746099999957,-63.33325200000036,106.79492200000004
252,90.0,48.46142599999985,101.9228520000006,120.12841800000024,122.17968800000017,596.2822270000006,100.38476599999922,98.46142599999985,106.41015599999992,107.56396500000028,91.79492200000004,99.61523400000078,-46.41015600000037,107.17968800000017
253,103.84619099999964,61.53857400000015,116.0258789999998,138.3334960000002,149.23095699999976,599.6152340000008,111.79492200000004,108.84619099999964,117.05126999999993,126.15380900000036,101.2822270000006,111.0258789999998,-35.1281740000004,104.48730499999965
254,104.48730499999965,61.025878999999804,117.05126999999993,141.9228520000006,166.79492200000004,595.8974609999996,111.9228520000006,110.76904300000024,117.17968800000017,133.9741210000002,101.2822270000006,112.05126999999993,-36.79492200000004,104.87158199999976
255,92.05126999999993,46.9228520000006,103.7177729999994,128.20507799999996,164.7436520000001,580.7690430000002,100.64111300000059,104.23095699999976,107.56396500000028,129.48730499999965,90.12841800000024,101.2822270000006,-50.64111300000013,110.12841800000024
256,76.2822270000006,29.871581999999762,84.87158199999976,107.05126999999993,146.53857400000015,560.2563479999999,86.15380900000036,95.12841800000024,95.12841800000024,118.7177729999994,74.23095699999976,85.76904300000024,-66.28198199999997,112.94873000000007
257,68.84619099999964,22.56396500000028,73.58984400000008,92.82031300000017,127.05126999999993,545.0,78.84619099999964,90.38476599999922,88.3334960000002,111.2822270000006,64.10253900000043,75.51269500000035,-71.92309599999999,108.46142599999985
258,74.48730499999965,30.0,76.9228520000006,92.82031300000017,120.76904300000024,540.3847659999992,82.69238299999961,92.94873000000007,91.2822270000006,112.30761700000039,65.64111300000059,76.41015599999992,-63.07690400000001,103.0771479999994
259,88.46142599999985,45.51269500000035,90.76904300000024,102.94873000000007,130.38476599999922,542.8203130000002,93.3334960000002,99.87158199999976,100.51269500000035,118.46142599999985,76.6665039999998,84.87158199999976,-46.025634999999966,103.58984400000008
260,100.25634799999989,57.17968800000017,104.10253900000043,113.84619099999964,144.87158199999976,543.4614259999998,102.30761700000039,105.12841800000024,107.94873000000007,121.15380900000036,88.46142599999985,91.53857400000015,-33.33325200000036,106.6665039999998
261,101.79492200000004,56.53857400000015,107.69238299999961,118.20507799999996,148.9741210000002,535.1284180000002,102.94873000000007,104.61523400000078,107.30761700000039,115.38476599999922,92.94873000000007,89.48730499999965,-34.10253899999998,106.41015599999992
262,91.79492200000004,44.61523400000078,99.74365200000011,115.89746099999957,136.0258789999998,516.9228520000006,94.35888699999941,97.82031300000017,99.23095699999976,104.48730499999965,87.94873000000007,80.0,-47.30761700000039,104.61523400000078
263,76.79492200000004,30.641113000000587,87.43603499999972,111.0258789999998,113.3334960000002,495.3847659999992,82.05126999999993,88.84619099999964,90.12841800000024,97.30761700000039,78.20507799999996,71.6665039999998,-62.82055700000001,106.79492200000004
264,66.6665039999998,25.51269500000035,80.38476599999922,109.10253900000043,96.9228520000006,480.6411130000006,74.10253900000043,82.82031300000017,86.2822270000006,100.38476599999922,71.2822270000006,72.82031300000017,-67.94872999999961,110.64111300000059
265,68.3334960000002,33.46142599999985,84.10253900000043,111.41015599999992,98.3334960000002,478.5898440000001,75.12841800000024,82.94873000000007,90.0,111.6665039999998,72.43603499999972,84.48730499999965,-57.30761700000039,110.0
266,80.0,48.7177729999994,95.38476599999922,114.74365200000011,114.61523400000078,485.3847659999992,83.3334960000002,87.82031300000017,97.30761700000039,123.58984400000008,80.25634799999989,99.74365200000011,-36.41015600000037,105.76904300000024
267,93.20507799999996,60.897460999999566,106.0258789999998,115.25634799999989,131.2822270000006,491.0258789999998,91.9228520000006,93.0771479999994,102.05126999999993,128.3334960000002,88.46142599999985,109.74365200000011,-17.69238299999961,104.87158199999976
268,100.25634799999989,62.94873000000007,109.23095699999976,112.82031300000017,136.2822270000006,488.5898440000001,96.53857400000015,95.38476599999922,101.41015599999992,124.23095699999976,91.9228520000006,110.76904300000024,-10.256347999999889,107.82031300000017
269,99.61523400000078,56.79492200000004,105.51269500000035,111.6665039999998,129.87158199999976,480.0,97.82031300000017,95.64111300000059,97.69238299999961,117.43603499999972,90.76904300000024,106.9228520000006,-13.71801800000003,108.20507799999996
270,95.51269500000035,49.74365200000011,100.64111300000059,114.35888699999941,122.82031300000017,472.94873000000007,99.48730499999965,97.05126999999993,96.41015599999992,117.43603499999972,88.9741210000002,104.74365200000011,-20.512939000000188,104.74365200000011
271,92.82031300000017,47.17968800000017,99.74365200000011,119.61523400000078,124.87158199999976,471.2822270000006,102.94873000000007,101.2822270000006,100.51269500000035,128.9741210000002,88.7177729999994,107.05126999999993,-24.10253899999998,104.23095699999976
272,92.82031300000017,48.46142599999985,102.43603499999972,123.20507799999996,135.6411130000006,471.6665039999998,105.25634799999989,105.38476599999922,108.0771479999994,146.53857400000015,88.84619099999964,110.0,-23.71801800000003,108.7177729999994
273,93.46142599999985,48.846190999999635,104.35888699999941,122.30761700000039,146.53857400000015,467.5639650000003,102.69238299999961,105.25634799999989,113.84619099999964,158.20507799999996,87.05126999999993,107.82031300000017,-22.69238299999961,111.6665039999998
274,92.17968800000017,44.102539000000434,102.17968800000017,118.46142599999985,147.6923829999996,455.51269500000035,94.74365200000011,99.23095699999976,113.20507799999996,155.38476599999922,82.69238299999961,98.46142599999985,-24.74365200000011,108.3334960000002
275,88.46142599999985,35.897460999999566,96.2822270000006,115.51269500000035,137.17968800000017,438.9741210000002,85.89746099999957,89.87158199999976,105.51269500000035,138.58984400000008,77.69238299999961,86.41015599999992,-30.641113000000132,104.61523400000078
276,85.38476599999922,31.153809000000365,91.15380900000036,116.0258789999998,122.94873000000007,425.76904300000024,82.05126999999993,82.94873000000007,94.35888699999941,116.6665039999998,75.38476599999922,78.9741210000002,-36.79492200000004,106.0258789999998
277,87.17968800000017,35.64111300000059,90.89746099999957,119.23095699999976,116.15380900000036,422.5639650000003,86.0258789999998,83.0771479999994,85.25634799999989,99.74365200000011,78.0771479999994,80.25634799999989,-37.948729999999614,108.7177729999994
278,93.7177729999994,47.30761700000039,96.0258789999998,120.76904300000024,120.51269500000035,428.9741210000002,95.51269500000035,90.89746099999957,82.30761700000039,93.0771479999994,84.61523400000078,87.69238299999961,-31.794922000000042,106.79492200000004
279,99.48730499999965,55.38476599999922,102.69238299999961,116.0258789999998,128.7177729999994,437.17968800000017,104.61523400000078,101.41015599999992,85.89746099999957,96.41015599999992,91.15380900000036,94.61523400000078,-22.820557000000008,103.7177729999994
280,97.69238299999961,49.23095699999976,105.38476599999922,105.51269500000035,130.6411130000006,438.7177729999994,108.58984400000008,107.43603499999972,92.82031300000017,105.76904300000024,93.20507799999996,95.51269500000035,-17.948729999999614,105.25634799999989
281,87.30761700000039,30.0,102.43603499999972,95.12841800000024,123.7177729999994,431.6665039999998,106.41015599999992,105.51269500000035,99.23095699999976,116.6665039999998,90.0,90.38476599999922,-20.512939000000188,108.58984400000008
282,75.25634799999989,11.794922000000042,96.9228520000006,91.41015599999992,115.38476599999922,421.4101559999999,101.79492200000004,98.7177729999994,102.30761700000039,124.74365200000011,85.12841800000024,84.35888699999941,-26.794922000000042,107.43603499999972
283,70.76904300000024,10.641113000000587,94.23095699999976,97.30761700000039,114.87158199999976,414.87158199999976,99.23095699999976,92.56396500000028,101.6665039999998,126.6665039999998,82.43603499999972,81.79492200000004,-31.153809000000365,103.20507799999996
284,77.30761700000039,30.25634799999989,96.0258789999998,110.12841800000024,124.10253900000043,413.46142599999985,100.25634799999989,90.89746099999957,97.94873000000007,121.41015599999992,82.56396500000028,82.94873000000007,-31.153809000000365,102.30761700000039
285,89.61523400000078,59.61523400000078,98.9741210000002,123.7177729999994,136.79492200000004,412.94873000000007,102.17968800000017,92.82031300000017,92.69238299999961,111.9228520000006,82.82031300000017,83.3334960000002,-29.8718259999996,104.87158199999976
286,98.58984400000008,81.53857400000015,97.82031300000017,131.79492200000004,143.84619099999964,408.84619099999964,101.2822270000006,94.87158199999976,87.82031300000017,103.58984400000008,79.87158199999976,79.35888699999941,-32.435790999999426,104.87158199999976
287,97.94873000000007,86.15380900000036,90.89746099999957,131.9228520000006,140.2563479999999,400.76904300000024,96.2822270000006,93.9741210000002,84.74365200000011,100.51269500000035,72.69238299999961,71.0258789999998,-42.051270000000386,101.79492200000004
288,88.58984400000008,77.17968800000017,81.0258789999998,125.64111300000059,128.58984400000008,391.6665039999998,89.35888699999941,89.48730499999965,83.46142599999985,102.43603499999972,62.94873000000007,62.05126999999993,-58.33325200000036,102.05126999999993
289,77.17968800000017,67.05126999999993,73.3334960000002,117.17968800000017,117.69238299999961,385.3847659999992,83.9741210000002,83.46142599999985,82.56396500000028,104.61523400000078,53.46142599999985,55.76904300000024,-77.05127000000039,106.0258789999998
290,70.76904300000024,66.9228520000006,70.89746099999957,110.76904300000024,116.53857400000015,383.7177729999994,82.30761700000039,78.9741210000002,80.64111300000059,102.17968800000017,46.153809000000365,53.20507799999996,-92.82055700000001,106.79492200000004
291,71.79492200000004,77.56396500000028,73.3334960000002,108.9741210000002,126.79492200000004,385.2563479999999,83.46142599999985,78.3334960000002,78.3334960000002,95.0,41.666503999999804,53.333496000000196,-102.17944299999999,101.79492200000004
292,77.43603499999972,91.41015599999992,77.30761700000039,110.76904300000024,140.6411130000006,386.9228520000006,85.38476599999922,81.15380900000036,77.82031300000017,87.94873000000007,40.0,54.102539000000434,-104.61547900000005,98.0771479999994
293,82.30761700000039,99.48730499999965,80.25634799999989,113.7177729999994,146.6665039999998,386.2822270000006,86.0258789999998,84.48730499999965,80.25634799999989,87.17968800000017,41.53857400000015,53.974121000000196,-102.82055700000001,100.64111300000059
294,83.0771479999994,99.74365200000011,81.53857400000015,116.79492200000004,139.7436520000001,383.0771479999994,85.51269500000035,85.76904300000024,84.74365200000011,93.46142599999985,45.64111300000059,52.30761700000039,-100.38452099999995,104.23095699999976
295,80.76904300000024,96.79492200000004,81.9228520000006,120.89746099999957,125.0,378.20507799999996,84.87158199999976,83.9741210000002,87.69238299999961,101.15380900000036,50.38476599999922,49.87158199999976,-98.71801800000003,103.20507799999996
296,78.7177729999994,95.51269500000035,82.82031300000017,126.2822270000006,113.3334960000002,373.7177729999994,86.0258789999998,80.38476599999922,86.79492200000004,103.20507799999996,53.0771479999994,48.20507799999996,-97.56420900000057,100.89746099999957
297,78.9741210000002,97.05126999999993,84.23095699999976,130.76904300000024,113.9741210000002,371.2822270000006,90.0,77.69238299999961,82.82031300000017,97.30761700000039,52.56396500000028,48.846190999999635,-95.38452099999995,102.30761700000039
298,80.76904300000024,98.46142599999985,85.76904300000024,131.53857400000015,128.9741210000002,371.9228520000006,96.53857400000015,78.3334960000002,79.35888699999941,88.0771479999994,51.153809000000365,52.30761700000039,-90.89746100000002,104.74365200000011
299,82.30761700000039,97.56396500000028,86.6665039999998,127.94873000000007,151.41015599999992,373.9741210000002,103.7177729999994,83.46142599999985,79.87158199999976,82.17968800000017,51.9228520000006,56.79492200000004,-84.74365200000011,103.46142599999985
300,82.69238299999961,95.25634799999989,86.79492200000004,122.94873000000007,169.48730499999965,374.6152340000008,108.58984400000008,91.15380900000036,85.38476599999922,84.23095699999976,56.9228520000006,59.35888699999941,-78.46142599999985,101.2822270000006
301,81.6665039999998,94.48730499999965,86.53857400000015,120.12841800000024,172.3076170000004,371.4101559999999,109.35888699999941,97.43603499999972,93.0771479999994,92.43603499999972,64.10253900000043,57.43603499999972,-74.48706099999981,104.10253900000043
302,79.74365200000011,95.25634799999989,85.89746099999957,120.38476599999922,157.94873000000007,364.10253900000043,106.0258789999998,99.10253900000043,98.0771479999994,100.64111300000059,68.3334960000002,50.897460999999566,-74.8718259999996,108.9741210000002
303,76.79492200000004,95.38476599999922,84.48730499999965,121.79492200000004,135.38476599999922,355.12841800000024,101.15380900000036,95.25634799999989,97.30761700000039,102.82031300000017,65.64111300000059,42.56396500000028,-79.35888699999987,107.94873000000007
304,74.10253900000043,92.56396500000028,83.20507799999996,122.05126999999993,119.23095699999976,347.82031300000017,98.46142599999985,88.7177729999994,92.05126999999993,99.10253900000043,57.82031300000017,37.43603499999972,-84.48706099999981,101.9228520000006
305,73.58984400000008,88.7177729999994,83.20507799999996,120.89746099999957,119.74365200000011,344.7436520000001,99.61523400000078,84.35888699999941,87.30761700000039,96.0258789999998,51.666503999999804,39.61523400000078,-84.8718259999996,99.35888699999941
306,76.41015599999992,88.0771479999994,85.0,119.48730499999965,133.9741210000002,344.87158199999976,103.3334960000002,85.38476599999922,86.9228520000006,99.35888699999941,53.20507799999996,48.0771479999994,-78.33325200000036,102.30761700000039
307,80.64111300000059,92.30761700000039,87.56396500000028,118.7177729999994,148.58984400000008,344.3588869999994,105.76904300000024,90.51269500000035,90.25634799999989,107.69238299999961,61.9228520000006,56.410155999999915,-68.20507799999996,104.35888699999941
308,82.17968800000017,98.3334960000002,88.3334960000002,117.69238299999961,150.76904300000024,338.9741210000002,102.82031300000017,94.10253900000043,92.05126999999993,112.82031300000017,70.76904300000024,57.94873000000007,-61.41015600000037,102.05126999999993
309,78.9741210000002,100.51269500000035,86.0258789999998,115.89746099999957,138.58984400000008,328.46142599999985,94.87158199999976,91.53857400000015,88.0771479999994,107.82031300000017,72.56396500000028,50.76904300000024,-62.69238299999961,100.89746099999957
310,73.20507799999996,97.05126999999993,82.82031300000017,114.48730499999965,123.20507799999996,317.5639650000003,86.9228520000006,83.20507799999996,79.10253900000043,94.10253900000043,66.15380900000036,40.0,-70.0,103.58984400000008
311,70.51269500000035,92.05126999999993,82.94873000000007,116.9228520000006,119.74365200000011,312.82031300000017,85.12841800000024,75.76904300000024,71.6665039999998,81.53857400000015,58.0771479999994,33.7177729999994,-75.89746100000002,105.0
312,75.76904300000024,92.17968800000017,89.10253900000043,124.61523400000078,133.58984400000008,316.0258789999998,91.79492200000004,76.0258789999998,72.43603499999972,81.53857400000015,56.2822270000006,37.30761700000039,-73.97436500000003,102.30761700000039
313,87.56396500000028,100.51269500000035,99.23095699999976,134.7436520000001,155.6411130000006,322.94873000000007,103.0771479999994,85.25634799999989,83.20507799999996,97.82031300000017,63.7177729999994,48.589844000000085,-63.58984399999963,100.51269500000035
314,99.35888699999941,112.30761700000039,107.05126999999993,140.89746099999957,169.10253900000043,326.0258789999998,111.15380900000036,97.94873000000007,98.20507799999996,121.9228520000006,74.74365200000011,59.74365200000011,-51.025634999999966,103.9741210000002
315,103.58984400000008,118.84619099999964,106.79492200000004,138.20507799999996,162.43603499999972,320.76904300000024,110.25634799999989,105.89746099999957,107.69238299999961,138.9741210000002,80.89746099999957,62.94873000000007,-44.23071300000038,107.30761700000039
316,97.69238299999961,114.48730499999965,97.94873000000007,127.17968800000017,138.20507799999996,308.0771479999994,101.6665039999998,104.74365200000011,105.51269500000035,138.3334960000002,77.56396500000028,55.38476599999922,-47.69238299999961,104.61523400000078
317,85.51269500000035,102.05126999999993,86.41015599999992,114.74365200000011,111.9228520000006,294.23095699999976,92.05126999999993,96.6665039999998,94.74365200000011,121.9228520000006,67.69238299999961,42.30761700000039,-58.71801800000003,100.0
318,75.64111300000059,90.25634799999989,80.12841800000024,108.9741210000002,100.12841800000024,285.89746099999957,87.82031300000017,88.9741210000002,84.10253900000043,102.30761700000039,59.61523400000078,32.17968800000017,-69.35888699999987,100.76904300000024
319,74.74365200000011,87.82031300000017,82.56396500000028,113.0771479999994,109.10253900000043,286.15380900000036,90.64111300000059,87.05126999999993,81.2822270000006,92.82031300000017,59.74365200000011,30.769043000000238,-70.76928699999962,105.38476599999922
320,83.3334960000002,96.6665039999998,91.15380900000036,123.3334960000002,131.53857400000015,292.05126999999993,96.79492200000004,91.2822270000006,87.43603499999972,97.43603499999972,69.23095699999976,37.94873000000007,-60.0,106.53857400000015
321,95.0,110.12841800000024,99.35888699999941,132.6923829999996,153.3334960000002,297.94873000000007,101.9228520000006,97.30761700000039,97.94873000000007,109.48730499999965,82.56396500000028,48.589844000000085,-42.69238299999961,103.84619099999964
322,102.05126999999993,118.58984400000008,102.05126999999993,135.76904300000024,163.58984400000008,298.9741210000002,103.3334960000002,100.64111300000059,105.51269500000035,117.69238299999961,92.69238299999961,56.410155999999915,-28.58984399999963,102.94873000000007
323,100.51269500000035,116.9228520000006,97.94873000000007,132.17968800000017,159.61523400000078,293.84619099999964,101.41015599999992,99.74365200000011,104.74365200000011,115.51269500000035,94.23095699999976,56.9228520000006,-24.61547900000005,104.23095699999976
324,92.30761700000039,107.30761700000039,89.74365200000011,125.51269500000035,145.38476599999922,285.2563479999999,97.94873000000007,96.53857400000015,95.51269500000035,105.64111300000059,87.82031300000017,49.87158199999976,-30.641113000000132,102.43603499999972
325,83.20507799999996,96.9228520000006,82.30761700000039,119.74365200000011,128.3334960000002,276.9228520000006,95.12841800000024,94.10253900000043,83.0771479999994,96.6665039999998,78.20507799999996,39.23095699999976,-40.38452099999995,98.0771479999994
326,79.10253900000043,91.9228520000006,80.0,117.69238299999961,116.79492200000004,272.05126999999993,94.48730499999965,93.84619099999964,75.0,95.0,71.79492200000004,31.410155999999915,-46.53857400000015,98.3334960000002
327,82.56396500000028,94.74365200000011,83.9741210000002,120.0,118.3334960000002,272.05126999999993,97.17968800000017,95.51269500000035,76.0258789999998,99.87158199999976,72.17968800000017,31.794922000000042,-44.74365200000011,103.9741210000002
328,91.79492200000004,103.20507799999996,92.17968800000017,125.0,133.0771479999994,275.76904300000024,102.69238299999961,97.69238299999961,84.48730499999965,105.12841800000024,78.20507799999996,41.025878999999804,-35.76928699999962,106.79492200000004
329,101.15380900000036,112.17968800000017,100.25634799999989,129.48730499999965,151.15380900000036,280.0,108.3334960000002,99.35888699999941,93.46142599999985,106.79492200000004,85.25634799999989,52.94873000000007,-25.641113000000132,102.43603499999972
330,104.48730499999965,115.89746099999957,104.23095699999976,130.2563479999999,157.43603499999972,280.76904300000024,111.2822270000006,99.48730499999965,96.6665039999998,105.76904300000024,87.82031300000017,60.0,-21.41015600000037,97.05126999999993
331,99.10253900000043,111.9228520000006,102.69238299999961,126.9228520000006,144.10253900000043,276.4101559999999,110.12841800000024,98.3334960000002,92.82031300000017,104.10253900000043,83.84619099999964,57.82031300000017,-26.28198199999997,97.56396500000028
332,87.69238299999961,102.56396500000028,96.6665039999998,121.9228520000006,119.23095699999976,268.3334960000002,105.64111300000059,96.41015599999992,85.25634799999989,102.05126999999993,75.51269500000035,47.94873000000007,-37.051270000000386,100.51269500000035
333,76.79492200000004,93.9741210000002,89.61523400000078,118.7177729999994,101.15380900000036,260.6411130000006,100.38476599999922,94.87158199999976,78.9741210000002,98.84619099999964,67.43603499999972,35.51269500000035,-46.92309599999999,100.64111300000059
334,71.9228520000006,90.64111300000059,84.48730499999965,118.58984400000008,103.46142599999985,256.53857400000015,97.17968800000017,93.9741210000002,77.43603499999972,95.38476599999922,63.0771479999994,25.769043000000238,-51.153809000000365,100.0
335,74.48730499999965,93.84619099999964,83.7177729999994,119.74365200000011,123.20507799999996,256.53857400000015,97.69238299999961,94.10253900000043,81.41015599999992,94.35888699999941,62.82031300000017,21.666503999999804,-48.974365000000034,103.0771479999994
336,82.17968800000017,100.64111300000059,87.30761700000039,119.61523400000078,143.58984400000008,257.6923829999996,100.89746099999957,95.12841800000024,88.0771479999994,97.30761700000039,65.12841800000024,22.94873000000007,-42.948729999999614,106.79492200000004
337,90.12841800000024,106.6665039999998,93.0771479999994,117.56396500000028,147.94873000000007,256.9228520000006,104.10253900000043,96.53857400000015,93.3334960000002,102.43603499999972,67.94873000000007,27.43603499999972,-35.64111300000013,105.25634799999989
338,94.35888699999941,108.7177729999994,97.94873000000007,115.64111300000059,134.23095699999976,252.94873000000007,105.12841800000024,97.82031300000017,94.35888699999941,107.30761700000039,70.25634799999989,32.56396500000028,-29.10253899999998,100.76904300000024
339,94.74365200000011,107.56396500000028,100.51269500000035,117.30761700000039,116.15380900000036,247.3076170000004,103.84619099999964,98.20507799999996,92.43603499999972,110.89746099999957,72.30761700000039,36.666503999999804,-24.230713000000378,100.25634799999989
340,94.10253900000043,107.05126999999993,101.53857400000015,124.23095699999976,111.53857400000015,243.3334960000002,102.30761700000039,97.82031300000017,91.0258789999998,113.3334960000002,75.12841800000024,39.61523400000078,-20.769286999999622,103.20507799999996
341,95.0,110.25634799999989,102.56396500000028,134.10253900000043,126.0258789999998,243.20507799999996,101.53857400000015,97.82031300000017,91.79492200000004,113.84619099999964,78.0771479999994,41.666503999999804,-18.58984399999963,102.69238299999961
342,96.53857400000015,115.76904300000024,103.7177729999994,140.89746099999957,147.82031300000017,244.87158199999976,101.41015599999992,98.0771479999994,93.3334960000002,111.41015599999992,79.10253900000043,42.82031300000017,-17.820557000000008,98.3334960000002
343,95.51269500000035,117.43603499999972,102.56396500000028,139.10253900000043,157.17968800000017,243.7177729999994,100.25634799999989,97.56396500000028,92.05126999999993,106.53857400000015,76.2822270000006,42.17968800000017,-19.74365200000011,97.30761700000039
344,90.0,111.15380900000036,97.82031300000017,128.46142599999985,145.12841800000024,236.6665039999998,97.43603499999972,95.89746099999957,86.53857400000015,99.61523400000078,70.25634799999989,39.23095699999976,-24.487060999999812,101.2822270000006
345,82.43603499999972,99.48730499999965,90.76904300000024,115.25634799999989,122.05126999999993,227.17968800000017,95.12841800000024,93.84619099999964,79.10253900000043,90.38476599999922,64.74365200000011,35.38476599999922,-30.512939000000188,103.58984400000008
346,78.0771479999994,90.76904300000024,85.51269500000035,106.79492200000004,109.35888699999941,222.17968800000017,96.2822270000006,93.58984400000008,74.61523400000078,81.0258789999998,63.7177729999994,33.974121000000196,-34.10253899999998,100.64111300000059
347,80.38476599999922,91.6665039999998,84.74365200000011,106.2822270000006,118.20507799999996,225.89746099999957,101.15380900000036,95.51269500000035,76.41015599999992,76.0258789999998,67.69238299999961,36.53857400000015,-33.20507799999996,97.82031300000017
348,87.17968800000017,100.76904300000024,87.05126999999993,110.64111300000059,139.61523400000078,234.61523400000078,105.76904300000024,97.69238299999961,82.82031300000017,78.46142599999985,72.82031300000017,40.64111300000059,-29.358886999999868,99.23095699999976
349,92.43603499999972,110.0,88.0771479999994,113.9741210000002,153.46142599999985,239.48730499999965,105.76904300000024,96.9228520000006,87.69238299999961,86.15380900000036,73.58984400000008,41.79492200000004,-26.923095999999987,100.51269500000035
350,91.9228520000006,111.6665039999998,86.0258789999998,114.35888699999941,147.43603499999972,234.48730499999965,100.12841800000024,92.30761700000039,86.15380900000036,93.58984400000008,68.20507799999996,38.20507799999996,-28.58984399999963,98.3334960000002
351,86.9228520000006,106.41015599999992,83.46142599999985,114.10253900000043,127.69238299999961,221.0258789999998,92.69238299999961,86.79492200000004,78.58984400000008,97.30761700000039,60.64111300000059,32.82031300000017,-32.17944299999999,97.17968800000017
352,83.7177729999994,101.79492200000004,84.48730499999965,117.05126999999993,111.0258789999998,206.9228520000006,89.10253900000043,84.35888699999941,70.51269500000035,98.0771479999994,57.43603499999972,30.25634799999989,-32.435790999999426,101.53857400000015
353,87.43603499999972,103.84619099999964,90.0,123.20507799999996,107.56396500000028,200.2563479999999,91.6665039999998,87.30761700000039,67.94873000000007,97.82031300000017,61.53857400000015,32.56396500000028,-26.538574000000153,105.76904300000024
354,96.15380900000036,111.53857400000015,96.0258789999998,128.46142599999985,113.7177729999994,202.56396500000028,98.0771479999994,93.58984400000008,72.82031300000017,96.9228520000006,69.10253900000043,37.94873000000007,-17.564209000000574,103.20507799999996
355,101.9228520000006,116.41015599999992,96.79492200000004,127.43603499999972,118.3334960000002,208.46142599999985,102.43603499999972,98.20507799999996,81.15380900000036,95.12841800000024,72.82031300000017,41.79492200000004,-12.051270000000386,97.30761700000039
356,97.94873000000007,111.2822270000006,90.0,118.58984400000008,114.87158199999976,210.12841800000024,100.0,96.9228520000006,85.76904300000024,92.56396500000028,68.0771479999994,39.61523400000078,-15.38452099999995,96.53857400000015
357,84.48730499999965,96.53857400000015,78.84619099999964,105.89746099999957,107.43603499999972,204.10253900000043,90.76904300000024,89.87158199999976,81.79492200000004,88.7177729999994,57.56396500000028,31.538574000000153,-26.923095999999987,100.25634799999989
358,69.48730499999965,80.89746099999957,69.61523400000078,96.2822270000006,105.38476599999922,192.82031300000017,80.12841800000024,80.76904300000024,71.53857400000015,82.30761700000039,48.0771479999994,21.794922000000042,-39.61547900000005,101.53857400000015
359,62.56396500000028,74.10253900000043,67.43603499999972,94.10253900000043,114.10253900000043,182.17968800000017,75.76904300000024,74.87158199999976,62.69238299999961,73.58984400000008,45.51269500000035,15.897460999999566,-45.64111300000013,99.35888699999941
360,66.6665039999998,79.23095699999976,71.9228520000006,98.84619099999964,129.87158199999976,176.15380900000036,81.0258789999998,75.25634799999989,61.2822270000006,65.12841800000024,50.38476599999922,16.410155999999915,-42.17944299999999,98.9741210000002
361,76.6665039999998,90.89746099999957,78.0771479999994,105.51269500000035,142.17968800000017,175.38476599999922,92.17968800000017,80.25634799999989,67.05126999999993,59.74365200000011,57.69238299999961,21.410155999999915,-33.20507799999996,100.76904300000024
362,83.3334960000002,99.48730499999965,80.0,108.20507799999996,142.05126999999993,175.76904300000024,101.2822270000006,85.51269500000035,73.7177729999994,58.974121000000196,61.025878999999804,26.025878999999804,-26.41015600000037,99.10253900000043
363,80.89746099999957,98.84619099999964,76.15380900000036,104.74365200000011,127.56396500000028,172.56396500000028,102.30761700000039,86.9228520000006,76.0258789999998,62.43603499999972,58.0771479999994,26.666503999999804,-26.41015600000037,93.7177729999994
364,71.2822270000006,90.12841800000024,69.87158199999976,97.43603499999972,106.15380900000036,163.3334960000002,96.15380900000036,84.10253900000043,73.46142599999985,68.84619099999964,51.410155999999915,23.589844000000085,-31.538574000000153,91.9228520000006
365,61.9228520000006,81.0258789999998,66.41015599999992,91.53857400000015,88.84619099999964,150.6411130000006,88.84619099999964,79.74365200000011,70.0,76.9228520000006,46.025878999999804,19.871581999999762,-35.38452099999995,96.15380900000036
366,59.74365200000011,77.82031300000017,68.20507799999996,90.64111300000059,82.56396500000028,139.23095699999976,85.89746099999957,77.69238299999961,69.10253900000043,85.0,45.12841800000024,17.94873000000007,-31.923095999999987,99.48730499999965
367,66.15380900000036,81.2822270000006,73.0771479999994,93.84619099999964,87.05126999999993,132.6923829999996,88.84619099999964,78.84619099999964,71.79492200000004,92.05126999999993,48.589844000000085,18.333496000000196,-21.153809000000365,97.05126999999993
368,76.79492200000004,87.56396500000028,78.3334960000002,98.3334960000002,97.69238299999961,131.9228520000006,95.0,82.82031300000017,76.41015599999992,96.79492200000004,54.48730499999965,21.282227000000603,-8.58984399999963,93.84619099999964
369,86.9228520000006,94.23095699999976,82.82031300000017,103.0771479999994,111.79492200000004,135.89746099999957,101.53857400000015,88.9741210000002,81.9228520000006,98.3334960000002,62.17968800000017,27.56396500000028,0.38476599999921746,95.0
370,94.35888699999941,101.53857400000015,87.43603499999972,108.7177729999994,128.7177729999994,142.56396500000028,107.30761700000039,96.41015599999992,87.94873000000007,97.56396500000028,71.53857400000015,37.82031300000017,4.743652000000111,96.9228520000006
371,98.9741210000002,109.61523400000078,91.9228520000006,114.74365200000011,145.0,148.0771479999994,110.76904300000024,103.0771479999994,93.7177729999994,96.79492200000004,80.64111300000059,48.333496000000196,6.025878999999804,94.87158199999976
372,100.0,115.25634799999989,92.56396500000028,117.82031300000017,153.84619099999964,148.46142599999985,109.74365200000011,105.12841800000024,96.9228520000006,96.79492200000004,85.12841800000024,52.82031300000017,5.0,92.43603499999972
373,96.6665039999998,114.23095699999976,86.41015599999992,114.23095699999976,149.7436520000001,141.79492200000004,103.0771479999994,100.25634799999989,95.12841800000024,95.89746099999957,82.05126999999993,46.79492200000004,2.1796880000001693,95.12841800000024
374,89.35888699999941,106.53857400000015,75.12841800000024,104.23095699999976,134.7436520000001,131.2822270000006,92.56396500000028,91.2822270000006,88.0771479999994,92.30761700000039,74.23095699999976,32.30761700000039,-1.153809000000365,99.87158199999976
375,81.0258789999998,96.0258789999998,64.48730499999965,92.17968800000017,117.05126999999993,121.79492200000004,82.56396500000028,83.3334960000002,78.9741210000002,85.89746099999957,67.56396500000028,17.05126999999993,-3.2050779999999577,99.48730499999965
376,74.48730499999965,87.05126999999993,59.87158199999976,83.7177729999994,104.35888699999941,117.05126999999993,77.82031300000017,80.25634799999989,72.69238299999961,78.46142599999985,65.76904300000024,8.846190999999635,-3.3334960000001956,95.12841800000024
377,71.41015599999992,81.0258789999998,61.9228520000006,81.15380900000036,99.74365200000011,117.56396500000028,79.87158199999976,81.9228520000006,71.9228520000006,72.94873000000007,67.43603499999972,10.641113000000587,-2.5639650000002803,93.58984400000008
378,71.2822270000006,78.58984400000008,67.05126999999993,82.69238299999961,101.6665039999998,120.89746099999957,86.6665039999998,85.0,75.76904300000024,72.05126999999993,68.7177729999994,18.589844000000085,-2.5639650000002803,95.64111300000059
379,72.56396500000028,79.23095699999976,70.76904300000024,85.12841800000024,105.0,124.10253900000043,93.46142599999985,86.53857400000015,80.12841800000024,76.9228520000006,67.30761700000039,26.025878999999804,-3.9741210000001956,95.64111300000059
380,73.20507799999996,81.41015599999992,70.89746099999957,86.15380900000036,103.84619099999964,124.23095699999976,95.12841800000024,84.87158199999976,81.15380900000036,85.0,63.974121000000196,27.82031300000017,-6.41015600000037,92.82031300000017
381,72.05126999999993,82.43603499999972,68.20507799999996,85.76904300000024,95.0,119.74365200000011,90.38476599999922,81.2822270000006,78.7177729999994,90.76904300000024,60.76904300000024,24.230956999999762,-8.58984399999963,92.94873000000007
382,70.0,80.25634799999989,65.38476599999922,85.76904300000024,82.43603499999972,112.94873000000007,83.3334960000002,78.84619099999964,75.64111300000059,88.7177729999994,58.846190999999635,19.615234000000783,-8.58984399999963,96.41015599999992
383,69.23095699999976,76.41015599999992,65.38476599999922,88.0771479999994,76.9228520000006,108.84619099999964,80.51269500000035,80.0,74.87158199999976,78.20507799999996,58.7177729999994,18.333496000000196,-4.743652000000111,96.41015599999992
