,EEG.AF3,EEG.F7,EEG.F3,EEG.FC5,EEG.T7,EEG.P7,EEG.O1,EEG.O2,EEG.P8,EEG.T8,EEG.FC6,EEG.F4,EEG.F8,EEG.AF4
0,110.12841800000024,104.61523400000078,111.15380900000036,112.82031300000017,93.58984400000008,115.25634799999989,110.64111300000059,119.35888699999941,120.12841800000024,119.87158199999976,104.35888699999941,116.6665039999998,106.41015599999992,115.12841800000024
1,112.05126999999993,105.25634799999989,110.51269500000035,112.56396500000028,96.41015599999992,114.10253900000043,108.9741210000002,117.56396500000028,116.41015599999992,119.35888699999941,103.9741210000002,115.89746099999957,107.05126999999993,110.76904300000024
2,110.0,106.79492200000004,109.74365200000011,111.2822270000006,100.25634799999989,115.0,108.0771479999994,115.64111300000059,112.30761700000039,113.20507799999996,100.89746099999957,112.56396500000028,106.9228520000006,107.56396500000028
3,100.64111300000059,104.35888699999941,108.9741210000002,109.10253900000043,101.9228520000006,118.0771479999994,108.0771479999994,115.0,110.89746099999957,106.9228520000006,94.35888699999941,106.2822270000006,100.64111300000059,111.9228520000006
4,86.41015599999992,95.76904300000024,105.38476599999922,104.87158199999976,101.0258789999998,122.30761700000039,108.7177729999994,115.64111300000059,113.46142599999985,105.51269500000035,86.2822270000006,97.56396500000028,86.79492200000004,116.0258789999998
5,76.0258789999998,85.38476599999922,99.87158199999976,100.25634799999989,100.76904300000024,126.41015599999992,109.61523400000078,117.30761700000039,118.3334960000002,108.7177729999994,81.6665039999998,90.64111300000059,72.82031300000017,112.30761700000039
6,77.56396500000028,80.38476599999922,98.0771479999994,99.48730499999965,102.69238299999961,127.05126999999993,109.35888699999941,118.9741210000002,122.05126999999993,110.51269500000035,84.87158199999976,90.64111300000059,70.0,107.17968800000017
7,92.43603499999972,86.0258789999998,104.10253900000043,104.48730499999965,103.58984400000008,121.53857400000015,106.41015599999992,119.23095699999976,121.0258789999998,104.48730499999965,96.41015599999992,99.23095699999976,85.76904300000024,109.10253900000043
8,115.76904300000024,102.05126999999993,114.23095699999976,111.9228520000006,99.74365200000011,110.25634799999989,100.64111300000059,117.56396500000028,115.89746099999957,91.53857400000015,112.94873000000007,113.3334960000002,118.58984400000008,113.3334960000002
9,140.12841800000024,123.20507799999996,121.79492200000004,117.17968800000017,92.69238299999961,98.58984400000008,94.23095699999976,114.74365200000011,110.51269500000035,80.64111300000059,129.3588869999994,127.30761700000039,158.7177729999994,110.76904300000024
10,158.0771479999994,140.51269500000035,125.0,118.46142599999985,90.25634799999989,92.17968800000017,90.0,113.20507799999996,108.84619099999964,80.0,140.6411130000006,136.79492200000004,191.6665039999998,105.51269500000035
11,166.79492200000004,147.6923829999996,125.12841800000024,117.43603499999972,101.41015599999992,92.30761700000039,88.9741210000002,113.84619099999964,111.0258789999998,90.76904300000024,144.3588869999994,140.51269500000035,207.6923829999996,107.69238299999961
12,170.76904300000024,147.43603499999972,123.46142599999985,115.89746099999957,130.38476599999922,96.41015599999992,90.38476599999922,115.25634799999989,113.58984400000008,106.53857400000015,143.58984400000008,141.0258789999998,210.6411130000006,114.74365200000011
13,180.12841800000024,151.2822270000006,121.2822270000006,116.15380900000036,172.3076170000004,100.51269500000035,92.17968800000017,115.25634799999989,113.20507799999996,119.87158199999976,145.2563479999999,143.46142599999985,215.51269500000035,115.76904300000024
14,201.15380900000036,167.82031300000017,122.17968800000017,120.25634799999989,213.9741210000002,100.64111300000059,91.41015599999992,113.3334960000002,109.61523400000078,127.05126999999993,155.0,151.6665039999998,235.51269500000035,110.12841800000024
15,229.23095699999976,193.3334960000002,127.69238299999961,127.82031300000017,241.6665039999998,93.9741210000002,85.38476599999922,110.64111300000059,104.61523400000078,128.7177729999994,170.38476599999922,163.7177729999994,269.3588869999994,107.69238299999961
16,252.82031300000017,215.2563479999999,133.20507799999996,133.9741210000002,251.15380900000036,82.05126999999993,75.25634799999989,107.69238299999961,100.76904300000024,130.2563479999999,183.84619099999964,172.94873000000007,302.6923829999996,110.64111300000059
17,263.0771479999994,223.0771479999994,132.17968800000017,133.46142599999985,251.15380900000036,71.6665039999998,65.25634799999989,104.61523400000078,99.35888699999941,138.3334960000002,188.58984400000008,173.58984400000008,320.89746099999957,110.38476599999922
18,260.12841800000024,216.79492200000004,124.48730499999965,126.9228520000006,255.76904300000024,70.0,60.76904300000024,102.17968800000017,100.25634799999989,156.0258789999998,184.87158199999976,166.0258789999998,319.10253900000043,104.87158199999976
19,251.15380900000036,204.10253900000043,117.05126999999993,120.12841800000024,271.53857400000015,77.82031300000017,63.7177729999994,101.6665039999998,102.30761700000039,180.6411130000006,177.43603499999972,155.6411130000006,303.5898440000001,104.10253900000043
20,245.0,195.51269500000035,115.51269500000035,117.56396500000028,293.3334960000002,90.0,71.9228520000006,103.46142599999985,104.87158199999976,206.0258789999998,173.46142599999985,148.58984400000008,287.3076170000004,111.6665039999998
21,249.61523400000078,198.46142599999985,119.10253900000043,119.48730499999965,311.15380900000036,99.48730499999965,80.64111300000059,106.15380900000036,107.94873000000007,229.10253900000043,177.82031300000017,149.3588869999994,283.5898440000001,117.17968800000017
22,266.79492200000004,214.48730499999965,125.25634799999989,123.46142599999985,317.94873000000007,102.56396500000028,85.89746099999957,108.46142599999985,111.2822270000006,249.10253900000043,190.89746099999957,158.58984400000008,298.5898440000001,113.7177729999994
23,290.2563479999999,237.6923829999996,132.56396500000028,128.46142599999985,313.20507799999996,97.94873000000007,84.87158199999976,109.48730499999965,113.7177729999994,263.7177729999994,207.05126999999993,172.56396500000028,326.79492200000004,109.10253900000043
24,310.3847659999992,259.87158199999976,138.58984400000008,133.0771479999994,302.4360349999997,87.82031300000017,77.82031300000017,108.58984400000008,113.3334960000002,270.0,218.20507799999996,185.0,355.76904300000024,111.53857400000015
25,321.53857400000015,277.17968800000017,139.87158199999976,135.6411130000006,293.9741210000002,77.17968800000017,68.84619099999964,106.0258789999998,109.61523400000078,269.6152340000008,220.0,191.0258789999998,375.51269500000035,114.87158199999976
26,325.89746099999957,290.76904300000024,136.53857400000015,135.6411130000006,293.3334960000002,71.9228520000006,63.20507799999996,103.20507799999996,105.0,269.7436520000001,215.76904300000024,190.76904300000024,384.87158199999976,111.15380900000036
27,328.20507799999996,301.79492200000004,133.9741210000002,134.87158199999976,299.6152340000008,73.58984400000008,63.333496000000196,102.56396500000028,103.0771479999994,276.9228520000006,211.6665039999998,188.7177729999994,388.0771479999994,105.64111300000059
28,330.76904300000024,308.0771479999994,135.76904300000024,135.2563479999999,306.2822270000006,78.58984400000008,67.43603499999972,104.74365200000011,104.87158199999976,291.2822270000006,211.53857400000015,188.58984400000008,389.6152340000008,108.3334960000002
29,332.6923829999996,307.82031300000017,139.61523400000078,135.38476599999922,308.20507799999996,82.56396500000028,71.9228520000006,107.56396500000028,109.23095699999976,306.6665039999998,214.48730499999965,191.0258789999998,392.4360349999997,115.0
30,333.3334960000002,303.7177729999994,141.53857400000015,133.84619099999964,307.5639650000003,84.23095699999976,73.9741210000002,108.58984400000008,113.58984400000008,316.79492200000004,218.0771479999994,193.9741210000002,397.4360349999997,115.0
31,332.17968800000017,300.51269500000035,141.15380900000036,131.6665039999998,309.7436520000001,84.74365200000011,73.3334960000002,107.69238299999961,116.0258789999998,317.94873000000007,220.12841800000024,195.12841800000024,402.4360349999997,108.9741210000002
32,328.84619099999964,300.3847659999992,141.41015599999992,131.79492200000004,317.6923829999996,84.74365200000011,70.89746099999957,106.2822270000006,115.64111300000059,310.76904300000024,220.12841800000024,193.46142599999985,402.6923829999996,107.56396500000028
33,324.10253900000043,303.0771479999994,142.3076170000004,134.10253900000043,330.12841800000024,84.48730499999965,68.58984400000008,105.38476599999922,112.82031300000017,300.76904300000024,219.61523400000078,190.2563479999999,396.2822270000006,111.2822270000006
34,320.76904300000024,307.6923829999996,142.56396500000028,136.0258789999998,345.51269500000035,85.38476599999922,69.48730499999965,105.25634799999989,109.35888699999941,296.0258789999998,221.0258789999998,188.3334960000002,386.0258789999998,110.64111300000059
35,320.0,312.3076170000004,142.56396500000028,136.0258789999998,361.6665039999998,89.10253900000043,74.61523400000078,106.0258789999998,107.30761700000039,300.3847659999992,225.76904300000024,190.76904300000024,376.4101559999999,104.87158199999976
36,318.84619099999964,313.46142599999985,143.9741210000002,134.48730499999965,374.6152340000008,94.87158199999976,82.05126999999993,107.69238299999961,107.30761700000039,309.3588869999994,231.53857400000015,195.76904300000024,368.46142599999985,104.35888699999941
37,313.20507799999996,308.20507799999996,145.0,131.53857400000015,379.23095699999976,99.74365200000011,87.69238299999961,108.84619099999964,107.82031300000017,313.3334960000002,234.48730499999965,198.20507799999996,359.23095699999976,112.05126999999993
38,301.9228520000006,297.82031300000017,142.43603499999972,126.9228520000006,374.23095699999976,101.53857400000015,89.10253900000043,108.58984400000008,107.30761700000039,306.4101559999999,233.0771479999994,193.0771479999994,346.4101559999999,116.9228520000006
39,287.05126999999993,285.0,136.53857400000015,121.9228520000006,363.84619099999964,100.51269500000035,86.6665039999998,107.17968800000017,105.89746099999957,290.6411130000006,229.48730499999965,181.79492200000004,329.87158199999976,112.82031300000017
40,271.4101559999999,271.53857400000015,132.17968800000017,119.35888699999941,353.84619099999964,97.56396500000028,82.56396500000028,105.89746099999957,104.35888699999941,273.46142599999985,226.2822270000006,169.7436520000001,310.89746099999957,108.58984400000008
41,256.53857400000015,257.6923829999996,131.79492200000004,119.61523400000078,348.0771479999994,93.9741210000002,78.84619099999964,105.0,103.7177729999994,262.05126999999993,223.7177729999994,162.3076170000004,291.53857400000015,111.6665039999998
42,244.10253900000043,245.2563479999999,132.17968800000017,120.38476599999922,347.6923829999996,91.79492200000004,77.56396500000028,104.35888699999941,104.87158199999976,260.6411130000006,220.76904300000024,160.38476599999922,274.3588869999994,114.87158199999976
43,235.6411130000006,236.0258789999998,130.2563479999999,119.10253900000043,351.2822270000006,92.82031300000017,78.9741210000002,104.23095699999976,108.0771479999994,268.5898440000001,216.9228520000006,161.15380900000036,261.9228520000006,110.25634799999989
44,229.7436520000001,229.7436520000001,127.43603499999972,117.43603499999972,355.0,95.64111300000059,81.79492200000004,105.51269500000035,111.79492200000004,280.0,212.94873000000007,161.41015599999992,254.10253900000043,103.84619099999964
45,223.9741210000002,224.23095699999976,126.0258789999998,117.69238299999961,354.6152340000008,96.2822270000006,82.56396500000028,107.94873000000007,113.58984400000008,287.5639650000003,209.87158199999976,159.3588869999994,248.7177729999994,105.51269500000035
46,217.82031300000017,218.9741210000002,125.64111300000059,119.48730499999965,349.7436520000001,92.30761700000039,79.87158199999976,109.35888699999941,111.53857400000015,287.5639650000003,208.84619099999964,156.2822270000006,244.48730499999965,111.0258789999998
47,213.58984400000008,216.0258789999998,124.74365200000011,121.15380900000036,345.12841800000024,87.43603499999972,76.53857400000015,108.58984400000008,107.30761700000039,282.05126999999993,210.0,154.3588869999994,242.3076170000004,110.25634799999989
48,212.43603499999972,215.76904300000024,124.87158199999976,121.79492200000004,346.15380900000036,87.17968800000017,76.79492200000004,106.9228520000006,104.35888699999941,275.51269500000035,212.17968800000017,155.51269500000035,242.17968800000017,105.76904300000024
49,211.41015599999992,215.12841800000024,127.30761700000039,121.53857400000015,352.82031300000017,93.3334960000002,82.43603499999972,107.05126999999993,105.38476599999922,270.3847659999992,212.56396500000028,158.20507799999996,241.15380900000036,107.56396500000028
50,207.43603499999972,211.0258789999998,129.7436520000001,120.0,361.2822270000006,102.56396500000028,91.15380900000036,109.61523400000078,109.61523400000078,267.05126999999993,209.23095699999976,159.23095699999976,236.2822270000006,114.35888699999941
51,200.89746099999957,204.87158199999976,128.58984400000008,117.56396500000028,367.4360349999997,110.25634799999989,99.10253900000043,113.20507799999996,114.74365200000011,266.4101559999999,204.7436520000001,156.79492200000004,228.58984400000008,115.12841800000024
52,195.0,200.2563479999999,125.38476599999922,116.53857400000015,368.5898440000001,113.58984400000008,102.82031300000017,115.25634799999989,118.20507799999996,268.46142599999985,202.6923829999996,153.46142599999985,222.05126999999993,109.10253900000043
53,191.2822270000006,198.58984400000008,124.23095699999976,118.84619099999964,363.84619099999964,112.43603499999972,100.76904300000024,114.61523400000078,118.9741210000002,271.4101559999999,204.7436520000001,152.43603499999972,218.7177729999994,106.6665039999998
54,188.58984400000008,198.58984400000008,125.51269500000035,122.56396500000028,354.6152340000008,108.46142599999985,94.35888699999941,111.2822270000006,117.56396500000028,271.4101559999999,207.94873000000007,153.3334960000002,217.56396500000028,111.2822270000006
55,185.2563479999999,198.20507799999996,125.38476599999922,123.58984400000008,345.3847659999992,104.48730499999965,87.56396500000028,106.79492200000004,115.0,265.89746099999957,208.84619099999964,153.0771479999994,216.41015599999992,113.46142599999985
56,180.6411130000006,196.15380900000036,122.94873000000007,121.0258789999998,340.2563479999999,102.30761700000039,83.20507799999996,103.9741210000002,112.56396500000028,255.51269500000035,206.41015599999992,149.48730499999965,213.7177729999994,109.23095699999976
57,174.61523400000078,190.51269500000035,120.64111300000059,117.69238299999961,339.10253900000043,100.0,81.15380900000036,103.84619099999964,110.51269500000035,243.58984400000008,202.17968800000017,142.94873000000007,207.05126999999993,107.30761700000039
58,166.6665039999998,180.38476599999922,119.48730499999965,116.2822270000006,337.17968800000017,94.61523400000078,78.0771479999994,105.12841800000024,108.0771479999994,233.84619099999964,197.94873000000007,135.89746099999957,195.38476599999922,112.56396500000028
59,158.7177729999994,168.7177729999994,117.43603499999972,116.2822270000006,331.15380900000036,87.05126999999993,73.0771479999994,105.38476599999922,105.38476599999922,229.48730499999965,195.76904300000024,130.76904300000024,182.3076170000004,115.89746099999957
60,154.87158199999976,161.2822270000006,114.61523400000078,116.2822270000006,322.94873000000007,82.56396500000028,69.10253900000043,104.10253900000043,103.9741210000002,232.05126999999993,196.41015599999992,129.7436520000001,174.48730499999965,110.12841800000024
61,156.2822270000006,161.15380900000036,114.23095699999976,115.64111300000059,317.6923829999996,85.64111300000059,69.87158199999976,103.3334960000002,105.51269500000035,238.84619099999964,198.84619099999964,132.94873000000007,175.2563479999999,103.7177729999994
62,159.87158199999976,166.0258789999998,118.0771479999994,114.74365200000011,319.48730499999965,95.0,75.64111300000059,103.9741210000002,109.35888699999941,243.9741210000002,200.0,137.3076170000004,181.2822270000006,106.6665039999998
63,161.53857400000015,171.6665039999998,122.43603499999972,113.20507799999996,328.5898440000001,105.51269500000035,83.0771479999994,105.76904300000024,112.94873000000007,243.58984400000008,198.3334960000002,139.10253900000043,186.53857400000015,113.3334960000002
64,160.89746099999957,175.38476599999922,123.58984400000008,111.6665039999998,340.51269500000035,111.79492200000004,87.17968800000017,107.17968800000017,113.84619099999964,238.84619099999964,195.38476599999922,137.6923829999996,186.9228520000006,113.3334960000002
65,158.58984400000008,175.89746099999957,122.43603499999972,111.53857400000015,347.6923829999996,111.15380900000036,85.0,107.56396500000028,111.79492200000004,232.94873000000007,193.20507799999996,135.0,181.41015599999992,108.7177729999994
66,155.0,172.56396500000028,121.79492200000004,112.94873000000007,344.3588869999994,104.10253900000043,77.30761700000039,106.79492200000004,108.46142599999985,228.3334960000002,191.9228520000006,133.0771479999994,171.2822270000006,108.84619099999964
67,150.76904300000024,166.6665039999998,121.2822270000006,114.10253900000043,333.46142599999985,95.25634799999989,69.48730499999965,105.12841800000024,106.15380900000036,226.79492200000004,189.48730499999965,132.43603499999972,161.41015599999992,112.69238299999961
68,148.46142599999985,162.05126999999993,120.38476599999922,114.10253900000043,324.3588869999994,91.53857400000015,67.69238299999961,103.9741210000002,107.17968800000017,230.12841800000024,186.53857400000015,133.3334960000002,158.3334960000002,111.9228520000006
69,150.12841800000024,160.89746099999957,121.53857400000015,115.51269500000035,323.84619099999964,96.6665039999998,73.84619099999964,104.61523400000078,111.53857400000015,237.05126999999993,185.51269500000035,136.9228520000006,163.9741210000002,107.56396500000028
70,152.94873000000007,160.6411130000006,126.9228520000006,120.64111300000059,328.5898440000001,106.41015599999992,82.82031300000017,106.15380900000036,116.15380900000036,241.15380900000036,187.43603499999972,142.05126999999993,170.89746099999957,108.84619099999964
71,151.6665039999998,156.41015599999992,132.43603499999972,126.41015599999992,329.10253900000043,112.30761700000039,86.6665039999998,106.15380900000036,116.6665039999998,235.51269500000035,190.12841800000024,145.12841800000024,168.84619099999964,115.25634799999989
72,144.10253900000043,146.9228520000006,132.05126999999993,126.41015599999992,320.2563479999999,109.74365200000011,82.30761700000039,103.7177729999994,111.79492200000004,220.6411130000006,190.38476599999922,142.82031300000017,154.7436520000001,115.89746099999957
73,133.20507799999996,136.15380900000036,125.0,118.0771479999994,306.53857400000015,101.79492200000004,73.9741210000002,101.0258789999998,104.87158199999976,204.87158199999976,186.0258789999998,136.2822270000006,135.6411130000006,109.23095699999976
74,123.3334960000002,128.9741210000002,117.30761700000039,106.2822270000006,297.05126999999993,95.0,69.48730499999965,100.89746099999957,101.15380900000036,197.17968800000017,177.56396500000028,128.9741210000002,121.0258789999998,106.41015599999992
75,117.43603499999972,127.17968800000017,113.3334960000002,97.94873000000007,297.6923829999996,94.35888699999941,72.69238299999961,103.3334960000002,102.69238299999961,199.61523400000078,168.3334960000002,123.46142599999985,115.76904300000024,112.17968800000017
76,116.6665039999998,129.61523400000078,112.56396500000028,96.6665039999998,307.05126999999993,100.25634799999989,81.2822270000006,106.0258789999998,107.69238299999961,208.46142599999985,163.3334960000002,120.76904300000024,119.23095699999976,116.41015599999992
77,119.87158199999976,132.94873000000007,113.0771479999994,102.05126999999993,317.6923829999996,109.23095699999976,89.48730499999965,107.43603499999972,112.69238299999961,217.3076170000004,165.38476599999922,120.89746099999957,126.41015599999992,112.05126999999993
78,123.3334960000002,133.20507799999996,115.12841800000024,110.76904300000024,320.89746099999957,115.64111300000059,92.94873000000007,107.43603499999972,114.87158199999976,220.51269500000035,171.6665039999998,122.82031300000017,130.38476599999922,107.17968800000017
79,123.20507799999996,128.58984400000008,117.69238299999961,117.30761700000039,312.6923829999996,115.25634799999989,91.9228520000006,107.17968800000017,113.58984400000008,215.38476599999922,175.89746099999957,124.23095699999976,127.43603499999972,110.12841800000024
80,120.38476599999922,122.05126999999993,118.0771479999994,117.05126999999993,297.82031300000017,109.35888699999941,90.25634799999989,107.30761700000039,110.0,205.12841800000024,174.61523400000078,123.7177729999994,120.89746099999957,115.12841800000024
81,118.7177729999994,118.46142599999985,115.89746099999957,111.9228520000006,285.3847659999992,103.0771479999994,91.15380900000036,108.0771479999994,107.05126999999993,196.15380900000036,170.38476599999922,122.30761700000039,118.0771479999994,113.3334960000002
82,119.74365200000011,118.0771479999994,115.0,108.84619099999964,279.6152340000008,99.35888699999941,93.0771479999994,109.23095699999976,106.41015599999992,191.9228520000006,168.46142599999985,122.30761700000039,121.6665039999998,109.10253900000043
83,120.64111300000059,115.51269500000035,117.43603499999972,112.17968800000017,276.2822270000006,96.79492200000004,91.79492200000004,109.10253900000043,107.17968800000017,190.51269500000035,170.38476599999922,124.10253900000043,126.2822270000006,110.64111300000059
84,118.0771479999994,107.56396500000028,120.12841800000024,118.20507799999996,269.3588869999994,93.3334960000002,84.87158199999976,106.79492200000004,106.79492200000004,188.0771479999994,173.7177729999994,125.38476599999922,125.0,114.61523400000078
85,112.69238299999961,97.56396500000028,119.35888699999941,119.87158199999976,258.84619099999964,90.25634799999989,75.89746099999957,103.0771479999994,104.48730499999965,183.58984400000008,175.0,123.9741210000002,116.2822270000006,112.17968800000017
86,108.3334960000002,93.58984400000008,116.6665039999998,115.25634799999989,251.53857400000015,90.51269500000035,71.41015599999992,101.0258789999998,101.9228520000006,178.9741210000002,172.3076170000004,120.64111300000059,105.12841800000024,106.53857400000015
87,107.05126999999993,99.10253900000043,115.89746099999957,108.58984400000008,253.46142599999985,94.48730499999965,74.61523400000078,102.69238299999961,100.89746099999957,175.89746099999957,165.38476599999922,117.43603499999972,97.30761700000039,108.20507799999996
88,108.58984400000008,110.12841800000024,117.17968800000017,104.74365200000011,263.46142599999985,99.35888699999941,82.69238299999961,106.41015599999992,101.79492200000004,174.3588869999994,156.53857400000015,115.0,94.74365200000011,115.89746099999957
89,110.76904300000024,119.10253900000043,117.30761700000039,105.0,273.7177729999994,101.6665039999998,89.10253900000043,108.9741210000002,103.84619099999964,173.0771479999994,150.2563479999999,112.69238299999961,95.89746099999957,118.0771479999994
90,111.15380900000036,120.38476599999922,115.51269500000035,108.0771479999994,274.87158199999976,101.15380900000036,88.9741210000002,108.7177729999994,105.64111300000059,171.15380900000036,150.38476599999922,110.38476599999922,97.56396500000028,112.69238299999961
91,108.0771479999994,113.3334960000002,114.10253900000043,111.41015599999992,262.82031300000017,98.84619099999964,82.56396500000028,106.6665039999998,105.89746099999957,168.20507799999996,156.41015599999992,108.9741210000002,97.17968800000017,109.87158199999976
92,102.82031300000017,103.0771479999994,113.20507799999996,112.05126999999993,242.05126999999993,96.9228520000006,74.87158199999976,104.48730499999965,104.87158199999976,164.7436520000001,163.58984400000008,108.46142599999985,94.61523400000078,113.3334960000002
93,99.74365200000011,97.43603499999972,111.41015599999992,108.84619099999964,225.12841800000024,97.43603499999972,71.9228520000006,103.46142599999985,103.84619099999964,162.56396500000028,167.6923829999996,108.3334960000002,93.58984400000008,114.10253900000043
94,102.43603499999972,100.12841800000024,109.61523400000078,105.0,223.0771479999994,100.25634799999989,76.0258789999998,104.23095699999976,104.35888699999941,163.0771479999994,167.82031300000017,108.3334960000002,96.79492200000004,108.0771479999994
95,108.9741210000002,106.2822270000006,110.12841800000024,105.12841800000024,236.0258789999998,102.82031300000017,83.84619099999964,106.41015599999992,106.6665039999998,165.38476599999922,164.48730499999965,108.58984400000008,102.56396500000028,104.35888699999941
96,113.3334960000002,107.56396500000028,112.43603499999972,108.84619099999964,252.6923829999996,102.43603499999972,89.87158199999976,108.46142599999985,109.48730499999965,167.17968800000017,158.84619099999964,108.46142599999985,105.76904300000024,108.9741210000002
97,111.9228520000006,102.82031300000017,112.30761700000039,111.6665039999998,261.2822270000006,100.0,90.89746099999957,108.46142599999985,111.79492200000004,166.79492200000004,153.0771479999994,107.43603499999972,103.84619099999964,113.84619099999964
98,107.69238299999961,100.0,109.10253900000043,110.76904300000024,257.6923829999996,99.23095699999976,88.46142599999985,106.79492200000004,112.94873000000007,165.12841800000024,151.15380900000036,106.9228520000006,100.38476599999922,111.0258789999998
99,106.15380900000036,106.53857400000015,107.56396500000028,109.23095699999976,246.9228520000006,101.79492200000004,86.2822270000006,105.25634799999989,113.20507799999996,163.0771479999994,155.2563479999999,109.35888699999941,100.25634799999989,106.6665039999998
100,109.23095699999976,120.12841800000024,111.0258789999998,110.38476599999922,236.2822270000006,105.12841800000024,86.2822270000006,105.12841800000024,112.94873000000007,160.38476599999922,162.56396500000028,114.48730499999965,105.51269500000035,109.87158199999976
101,114.87158199999976,130.2563479999999,116.0258789999998,113.46142599999985,230.76904300000024,105.89746099999957,88.20507799999996,105.64111300000059,111.79492200000004,156.9228520000006,167.82031300000017,118.84619099999964,113.46142599999985,115.38476599999922
102,119.61523400000078,128.58984400000008,117.82031300000017,114.87158199999976,229.87158199999976,104.10253900000043,90.89746099999957,105.64111300000059,110.12841800000024,153.58984400000008,167.6923829999996,119.23095699999976,119.87158199999976,113.3334960000002
103,120.51269500000035,115.38476599999922,116.9228520000006,113.3334960000002,229.10253900000043,102.82031300000017,93.46142599999985,105.25634799999989,108.20507799999996,151.0258789999998,163.9741210000002,115.89746099999957,121.15380900000036,107.17968800000017
104,117.30761700000039,99.48730499999965,116.9228520000006,110.89746099999957,224.10253900000043,104.23095699999976,95.38476599999922,105.0,106.9228520000006,148.7177729999994,160.0,112.17968800000017,115.89746099999957,108.0771479999994
105,113.0771479999994,91.6665039999998,118.20507799999996,110.38476599999922,215.6411130000006,108.20507799999996,96.9228520000006,105.12841800000024,106.79492200000004,145.6411130000006,158.84619099999964,111.15380900000036,107.17968800000017,114.87158199999976
106,112.69238299999961,98.3334960000002,118.46142599999985,112.69238299999961,208.7177729999994,112.82031300000017,98.20507799999996,105.51269500000035,108.0771479999994,142.17968800000017,161.15380900000036,114.35888699999941,101.53857400000015,116.2822270000006
107,117.30761700000039,115.38476599999922,117.30761700000039,116.53857400000015,206.15380900000036,115.89746099999957,99.35888699999941,106.79492200000004,110.76904300000024,138.9741210000002,164.61523400000078,119.61523400000078,103.20507799999996,110.64111300000059
108,122.17968800000017,130.76904300000024,115.76904300000024,118.84619099999964,203.46142599999985,115.38476599999922,99.48730499999965,109.10253900000043,113.3334960000002,135.51269500000035,164.87158199999976,122.30761700000039,109.87158199999976,108.20507799999996
109,121.2822270000006,134.48730499999965,113.3334960000002,116.53857400000015,193.7177729999994,111.79492200000004,97.94873000000007,111.15380900000036,114.61523400000078,130.38476599999922,160.6411130000006,118.84619099999964,115.12841800000024,112.30761700000039
110,114.35888699999941,126.53857400000015,108.3334960000002,110.12841800000024,175.51269500000035,108.0771479999994,95.76904300000024,111.6665039999998,113.84619099999964,124.10253900000043,154.7436520000001,110.76904300000024,115.25634799999989,114.48730499999965
111,106.53857400000015,114.48730499999965,103.7177729999994,105.25634799999989,154.87158199999976,107.05126999999993,94.61523400000078,110.38476599999922,112.17968800000017,118.46142599999985,152.17968800000017,103.7177729999994,110.12841800000024,110.64111300000059
112,102.56396500000028,105.12841800000024,104.35888699999941,107.56396500000028,138.84619099999964,107.82031300000017,95.12841800000024,108.46142599999985,110.51269500000035,113.84619099999964,153.20507799999996,102.30761700000039,101.53857400000015,109.23095699999976
113,102.30761700000039,100.0,110.12841800000024,115.38476599999922,129.7436520000001,107.56396500000028,96.2822270000006,106.6665039999998,108.84619099999964,109.61523400000078,153.9741210000002,105.51269500000035,91.9228520000006,114.10253900000043
114,103.20507799999996,98.20507799999996,114.48730499999965,120.64111300000059,125.89746099999957,105.51269500000035,97.56396500000028,105.64111300000059,107.05126999999993,105.76904300000024,150.89746099999957,109.10253900000043,84.74365200000011,116.53857400000015
115,103.0771479999994,98.58984400000008,113.0771479999994,117.94873000000007,123.9741210000002,103.84619099999964,99.23095699999976,106.2822270000006,106.15380900000036,103.7177729999994,145.2563479999999,109.61523400000078,82.56396500000028,110.38476599999922
116,101.0258789999998,99.35888699999941,108.20507799999996,110.25634799999989,119.87158199999976,104.61523400000078,101.15380900000036,109.10253900000043,107.69238299999961,104.10253900000043,141.15380900000036,107.56396500000028,85.0,104.74365200000011
117,97.30761700000039,98.84619099999964,105.0,103.9741210000002,111.41015599999992,107.05126999999993,103.3334960000002,113.20507799999996,111.41015599999992,106.41015599999992,140.89746099999957,104.74365200000011,88.58984400000008,108.84619099999964
118,93.84619099999964,97.17968800000017,104.48730499999965,102.82031300000017,99.61523400000078,109.10253900000043,105.25634799999989,116.0258789999998,115.89746099999957,109.74365200000011,143.84619099999964,102.94873000000007,91.53857400000015,116.53857400000015
119,93.20507799999996,95.89746099999957,105.51269500000035,105.76904300000024,88.7177729999994,110.0,106.9228520000006,116.41015599999992,119.35888699999941,113.0771479999994,147.94873000000007,103.20507799999996,93.3334960000002,116.6665039999998
120,93.84619099999964,94.48730499999965,107.05126999999993,110.25634799999989,80.89746099999957,108.20507799999996,106.41015599999992,114.87158199999976,120.38476599999922,113.20507799999996,150.51269500000035,104.35888699999941,92.30761700000039,111.41015599999992
121,92.17968800000017,90.64111300000059,108.46142599999985,113.84619099999964,74.74365200000011,102.43603499999972,102.05126999999993,112.69238299999961,117.94873000000007,106.41015599999992,148.7177729999994,103.58984400000008,85.0,110.51269500000035
122,86.53857400000015,84.48730499999965,107.69238299999961,114.74365200000011,68.84619099999964,93.9741210000002,95.12841800000024,110.51269500000035,113.20507799999996,93.9741210000002,142.6923829999996,99.74365200000011,71.2822270000006,113.46142599999985
123,81.15380900000036,79.10253900000043,104.10253900000043,112.69238299999961,64.48730499999965,88.3334960000002,90.25634799999989,108.9741210000002,109.23095699999976,82.94873000000007,136.15380900000036,95.51269500000035,57.56396500000028,111.9228520000006
124,80.64111300000059,77.43603499999972,101.9228520000006,110.25634799999989,63.20507799999996,89.74365200000011,91.6665039999998,108.9741210000002,108.58984400000008,80.38476599999922,132.17968800000017,95.38476599999922,51.9228520000006,107.05126999999993
125,84.61523400000078,78.20507799999996,105.12841800000024,109.87158199999976,63.589844000000085,96.9228520000006,98.46142599999985,110.64111300000059,111.15380900000036,87.05126999999993,130.2563479999999,100.0,56.53857400000015,107.94873000000007
126,88.0771479999994,78.46142599999985,111.0258789999998,110.51269500000035,63.0771479999994,104.23095699999976,105.0,112.05126999999993,113.58984400000008,96.6665039999998,126.6665039999998,105.38476599999922,65.89746099999957,114.10253900000043
127,87.05126999999993,77.17968800000017,113.20507799999996,109.61523400000078,61.2822270000006,107.56396500000028,106.6665039999998,111.79492200000004,113.58984400000008,102.30761700000039,119.74365200000011,105.76904300000024,72.56396500000028,115.12841800000024
128,81.41015599999992,75.25634799999989,109.35888699999941,107.30761700000039,59.74365200000011,106.79492200000004,103.0771479999994,110.64111300000059,111.6665039999998,100.51269500000035,112.43603499999972,100.38476599999922,72.30761700000039,108.84619099999964
129,73.58984400000008,72.56396500000028,103.7177729999994,106.15380900000036,59.35888699999941,103.0771479999994,97.30761700000039,110.12841800000024,109.48730499999965,91.41015599999992,108.46142599999985,92.56396500000028,64.87158199999976,106.41015599999992
130,66.6665039999998,68.58984400000008,100.25634799999989,108.20507799999996,58.7177729999994,98.0771479999994,92.94873000000007,110.38476599999922,108.20507799999996,78.7177729999994,109.35888699999941,87.05126999999993,54.48730499999965,112.05126999999993
131,63.974121000000196,63.974121000000196,98.9741210000002,111.53857400000015,56.666503999999804,94.23095699999976,92.17968800000017,110.51269500000035,108.3334960000002,67.43603499999972,113.20507799999996,86.0258789999998,46.666503999999804,115.89746099999957
132,66.2822270000006,60.897460999999566,99.10253900000043,114.10253900000043,52.94873000000007,93.58984400000008,94.10253900000043,109.74365200000011,108.7177729999994,60.897460999999566,117.30761700000039,88.9741210000002,44.102539000000434,111.41015599999992
133,70.64111300000059,59.61523400000078,101.79492200000004,115.51269500000035,47.69238299999961,95.12841800000024,95.64111300000059,108.46142599999985,108.20507799999996,58.20507799999996,119.48730499999965,93.3334960000002,43.846190999999635,106.79492200000004
134,72.30761700000039,58.846190999999635,105.89746099999957,114.87158199999976,41.9228520000006,96.15380900000036,94.48730499999965,106.9228520000006,106.0258789999998,55.51269500000035,117.94873000000007,96.0258789999998,41.79492200000004,110.25634799999989
135,70.0,58.333496000000196,107.43603499999972,110.38476599999922,38.974121000000196,95.38476599999922,91.53857400000015,105.38476599999922,103.20507799999996,52.17968800000017,111.53857400000015,94.74365200000011,38.333496000000196,115.25634799999989
136,67.17968800000017,60.51269500000035,104.87158199999976,102.94873000000007,42.30761700000039,94.23095699999976,90.64111300000059,104.48730499999965,101.9228520000006,51.410155999999915,101.6665039999998,91.15380900000036,38.7177729999994,113.0771479999994
137,66.9228520000006,66.9228520000006,102.05126999999993,96.6665039999998,51.025878999999804,94.74365200000011,93.84619099999964,105.0,103.84619099999964,55.64111300000059,91.79492200000004,88.46142599999985,45.51269500000035,108.3334960000002
138,68.20507799999996,74.74365200000011,103.0771479999994,95.38476599999922,59.23095699999976,96.41015599999992,99.35888699999941,106.79492200000004,108.0771479999994,62.43603499999972,86.2822270000006,88.7177729999994,54.23095699999976,110.51269500000035
139,68.58984400000008,79.48730499999965,105.64111300000059,98.58984400000008,62.05126999999993,98.58984400000008,103.46142599999985,108.58984400000008,111.79492200000004,66.2822270000006,88.3334960000002,91.0258789999998,57.30761700000039,115.76904300000024
140,67.30761700000039,78.3334960000002,105.38476599999922,102.94873000000007,59.61523400000078,101.6665039999998,104.48730499999965,109.61523400000078,113.0771479999994,65.0,96.79492200000004,93.0771479999994,52.30761700000039,113.9741210000002
141,64.48730499999965,70.76904300000024,102.82031300000017,106.41015599999992,55.38476599999922,105.25634799999989,103.0771479999994,110.38476599999922,112.17968800000017,59.61523400000078,105.51269500000035,93.7177729999994,42.56396500000028,107.43603499999972
142,60.25634799999989,58.589844000000085,100.76904300000024,109.10253900000043,51.53857400000015,106.9228520000006,99.87158199999976,110.38476599999922,110.0,51.9228520000006,106.9228520000006,92.05126999999993,32.82031300000017,107.17968800000017
143,54.35888699999941,46.410155999999915,99.23095699999976,110.12841800000024,48.333496000000196,105.38476599999922,95.89746099999957,108.58984400000008,107.30761700000039,43.20507799999996,96.6665039999998,87.05126999999993,25.769043000000238,113.46142599999985
144,48.974121000000196,40.25634799999989,95.89746099999957,108.84619099999964,46.666503999999804,101.9228520000006,92.69238299999961,105.12841800000024,104.74365200000011,35.897460999999566,76.9228520000006,79.35888699999941,22.69238299999961,115.25634799999989
145,46.025878999999804,42.82031300000017,92.30761700000039,105.76904300000024,47.43603499999972,99.10253900000043,92.05126999999993,102.05126999999993,103.20507799999996,32.69238299999961,53.7177729999994,71.6665039999998,23.077147999999397,109.87158199999976
146,45.897460999999566,49.35888699999941,91.9228520000006,102.94873000000007,48.974121000000196,97.94873000000007,94.23095699999976,101.41015599999992,102.43603499999972,33.846190999999635,35.38476599999922,67.05126999999993,24.74365200000011,106.9228520000006
147,47.69238299999961,52.94873000000007,94.87158199999976,100.89746099999957,47.69238299999961,97.17968800000017,97.82031300000017,103.0771479999994,102.05126999999993,36.79492200000004,29.230956999999762,67.17968800000017,25.769043000000238,110.89746099999957
148,51.53857400000015,50.76904300000024,97.82031300000017,99.48730499999965,42.05126999999993,96.79492200000004,100.51269500000035,105.38476599999922,101.6665039999998,38.846190999999635,39.23095699999976,71.53857400000015,27.05126999999993,113.3334960000002
149,57.69238299999961,46.153809000000365,99.10253900000043,100.0,34.48730499999965,97.17968800000017,100.51269500000035,106.6665039999998,101.79492200000004,38.7177729999994,60.38476599999922,78.46142599999985,30.128418000000238,110.0
150,63.974121000000196,43.846190999999635,100.64111300000059,104.10253900000043,28.846190999999635,98.7177729999994,97.69238299999961,106.79492200000004,103.0771479999994,36.79492200000004,79.48730499999965,85.12841800000024,33.846190999999635,108.3334960000002
151,67.05126999999993,46.410155999999915,102.94873000000007,109.48730499999965,27.30761700000039,100.38476599999922,94.35888699999941,106.53857400000015,105.0,34.35888699999941,82.82031300000017,87.82031300000017,35.38476599999922,113.3334960000002
152,66.41015599999992,53.589844000000085,102.82031300000017,111.15380900000036,30.897460999999566,102.69238299999961,93.9741210000002,106.6665039999998,106.79492200000004,33.589844000000085,67.43603499999972,85.25634799999989,34.35888699999941,116.2822270000006
153,64.48730499999965,62.17968800000017,99.61523400000078,107.43603499999972,38.589844000000085,106.0258789999998,97.82031300000017,108.20507799999996,107.82031300000017,35.897460999999566,43.7177729999994,79.74365200000011,33.7177729999994,110.25634799999989
154,62.94873000000007,66.53857400000015,97.05126999999993,102.56396500000028,46.025878999999804,109.10253900000043,103.46142599999985,110.64111300000059,107.69238299999961,39.35888699999941,26.282227000000603,76.0258789999998,35.25634799999989,103.3334960000002
155,61.025878999999804,62.56396500000028,97.56396500000028,101.41015599999992,46.53857400000015,109.35888699999941,106.41015599999992,111.79492200000004,106.0258789999998,39.48730499999965,22.56396500000028,76.2822270000006,37.30761700000039,106.2822270000006
156,58.846190999999635,53.46142599999985,99.61523400000078,104.35888699999941,38.333496000000196,107.17968800000017,105.0,109.61523400000078,103.46142599999985,35.12841800000024,30.51269500000035,78.84619099999964,38.333496000000196,114.10253900000043
157,58.589844000000085,48.333496000000196,100.25634799999989,107.94873000000007,27.05126999999993,106.53857400000015,101.79492200000004,105.25634799999989,101.6665039999998,30.128418000000238,42.82031300000017,81.41015599999992,39.102539000000434,115.64111300000059
158,61.410155999999915,51.79492200000004,100.38476599999922,109.87158199999976,19.48730499999965,109.48730499999965,100.64111300000059,102.05126999999993,102.05126999999993,28.589844000000085,52.94873000000007,83.3334960000002,40.76904300000024,111.9228520000006
159,64.48730499999965,59.102539000000434,101.9228520000006,110.0,17.43603499999972,113.20507799999996,102.30761700000039,102.30761700000039,103.84619099999964,29.74365200000011,57.69238299999961,84.10253900000043,41.79492200000004,112.05126999999993
160,64.74365200000011,61.9228520000006,103.58984400000008,109.23095699999976,17.94873000000007,112.94873000000007,104.87158199999976,105.51269500000035,105.38476599999922,29.358886999999413,57.82031300000017,83.46142599999985,40.12841800000024,115.0
161,62.82031300000017,57.43603499999972,103.20507799999996,108.84619099999964,18.461425999999847,108.46142599999985,105.89746099999957,108.84619099999964,105.38476599999922,25.769043000000238,56.410155999999915,81.9228520000006,36.9228520000006,111.9228520000006
162,61.79492200000004,50.38476599999922,101.6665039999998,109.87158199999976,18.846190999999635,103.7177729999994,105.12841800000024,110.51269500000035,103.9741210000002,21.153809000000365,54.35888699999941,81.15380900000036,35.51269500000035,103.9741210000002
163,63.46142599999985,47.30761700000039,101.6665039999998,112.05126999999993,19.48730499999965,102.17968800000017,103.7177729999994,110.38476599999922,102.43603499999972,18.974121000000196,50.0,82.43603499999972,38.46142599999985,101.79492200000004
164,66.79492200000004,51.53857400000015,102.56396500000028,112.69238299999961,20.51269500000035,104.87158199999976,103.46142599999985,109.23095699999976,102.05126999999993,21.282227000000603,42.30761700000039,84.61523400000078,45.25634799999989,107.69238299999961
165,70.89746099999957,62.05126999999993,101.9228520000006,109.61523400000078,22.43603499999972,110.0,105.12841800000024,108.20507799999996,103.46142599999985,27.43603499999972,34.35888699999941,85.89746099999957,53.333496000000196,111.6665039999998
166,74.74365200000011,74.23095699999976,100.64111300000059,104.23095699999976,24.48730499999965,114.61523400000078,107.69238299999961,107.94873000000007,106.2822270000006,34.102539000000434,32.05126999999993,85.51269500000035,58.7177729999994,108.9741210000002
167,76.15380900000036,81.9228520000006,101.53857400000015,100.64111300000059,24.48730499999965,115.76904300000024,108.9741210000002,109.10253900000043,109.10253900000043,36.666503999999804,37.56396500000028,84.10253900000043,58.46142599999985,107.17968800000017
168,73.9741210000002,81.9228520000006,104.23095699999976,100.12841800000024,20.128418000000238,111.79492200000004,107.82031300000017,110.38476599999922,110.25634799999989,33.333496000000196,46.666503999999804,82.30761700000039,52.94873000000007,111.15380900000036
169,69.61523400000078,76.53857400000015,104.87158199999976,100.89746099999957,12.82031300000017,104.87158199999976,105.64111300000059,110.76904300000024,109.23095699999976,27.69238299999961,53.0771479999994,80.51269500000035,47.05126999999993,112.82031300000017
170,66.9228520000006,71.79492200000004,102.82031300000017,101.9228520000006,5.769043000000238,99.61523400000078,104.48730499999965,110.38476599999922,107.69238299999961,25.51269500000035,54.102539000000434,80.12841800000024,46.53857400000015,106.79492200000004
171,67.30761700000039,70.25634799999989,101.9228520000006,104.23095699999976,0.8974609999995664,98.58984400000008,104.74365200000011,110.38476599999922,107.56396500000028,27.43603499999972,51.666503999999804,81.9228520000006,51.025878999999804,101.79492200000004
172,68.46142599999985,70.0,104.48730499999965,107.82031300000017,-1.9228520000006029,100.25634799999989,105.12841800000024,111.41015599999992,109.48730499999965,29.230956999999762,48.974121000000196,85.0,55.12841800000024,106.41015599999992
173,68.7177729999994,69.35888699999941,107.43603499999972,109.61523400000078,-2.4360349999997197,102.05126999999993,104.61523400000078,112.56396500000028,112.05126999999993,27.30761700000039,48.0771479999994,87.69238299999961,55.0,113.9741210000002
174,68.9741210000002,68.84619099999964,107.69238299999961,107.69238299999961,0.256347999999889,103.7177729999994,104.23095699999976,113.20507799999996,113.58984400000008,22.30761700000039,49.102539000000434,89.23095699999976,52.05126999999993,113.7177729999994
175,70.38476599999922,69.74365200000011,106.15380900000036,104.10253900000043,3.9741210000001956,104.74365200000011,104.74365200000011,113.84619099999964,112.94873000000007,16.922852000000603,50.25634799999989,90.0,49.61523400000078,108.58984400000008
176,71.41015599999992,70.25634799999989,105.12841800000024,102.30761700000039,2.9487300000000687,103.3334960000002,105.38476599999922,114.23095699999976,110.25634799999989,13.461425999999847,49.61523400000078,90.0,48.333496000000196,108.3334960000002
177,70.12841800000024,68.46142599999985,103.7177729999994,102.82031300000017,-5.512939000000188,98.7177729999994,104.61523400000078,113.46142599999985,107.17968800000017,13.077147999999397,47.30761700000039,88.84619099999964,47.43603499999972,111.9228520000006
178,67.94873000000007,65.64111300000059,101.2822270000006,104.35888699999941,-17.179442999999992,94.10253900000043,102.94873000000007,111.79492200000004,105.76904300000024,16.922852000000603,45.897460999999566,87.56396500000028,48.589844000000085,110.64111300000059
179,67.69238299999961,64.35888699999941,100.76904300000024,106.41015599999992,-23.71801800000003,93.3334960000002,102.30761700000039,111.0258789999998,107.69238299999961,25.0,46.666503999999804,88.3334960000002,53.46142599999985,106.0258789999998
180,70.64111300000059,65.38476599999922,104.87158199999976,108.84619099999964,-20.89746100000002,96.9228520000006,102.82031300000017,112.30761700000039,111.2822270000006,33.46142599999985,48.846190999999635,91.79492200000004,60.51269500000035,107.69238299999961
181,74.35888699999941,66.6665039999998,110.38476599999922,110.38476599999922,-12.564209000000574,100.89746099999957,102.82031300000017,113.9741210000002,113.84619099999964,37.05126999999993,49.61523400000078,95.89746099999957,65.12841800000024,114.48730499999965
182,76.15380900000036,66.15380900000036,111.6665039999998,108.7177729999994,-6.025634999999966,101.53857400000015,101.15380900000036,114.23095699999976,113.3334960000002,33.20507799999996,47.43603499999972,97.17968800000017,63.974121000000196,115.51269500000035
183,74.61523400000078,63.846190999999635,107.82031300000017,105.0,-6.153809000000365,97.94873000000007,98.0771479999994,112.69238299999961,110.12841800000024,24.230956999999762,42.30761700000039,95.0,57.82031300000017,108.46142599999985
184,70.51269500000035,61.410155999999915,103.9741210000002,102.94873000000007,-12.307617000000391,92.43603499999972,95.64111300000059,110.89746099999957,106.0258789999998,14.871581999999762,36.025878999999804,91.79492200000004,50.0,104.35888699999941
185,67.05126999999993,60.897460999999566,103.9741210000002,104.74365200000011,-19.61547900000005,87.56396500000028,95.0,110.25634799999989,102.94873000000007,9.358886999999413,31.922852000000603,90.51269500000035,44.48730499999965,108.3334960000002
186,68.20507799999996,64.35888699999941,106.6665039999998,108.46142599999985,-22.948729999999614,86.15380900000036,97.17968800000017,110.89746099999957,102.17968800000017,9.615234000000783,34.61523400000078,93.20507799999996,44.35888699999941,111.53857400000015
187,75.12841800000024,71.53857400000015,110.0,111.41015599999992,-20.641113000000132,89.74365200000011,101.79492200000004,112.30761700000039,103.84619099999964,14.102539000000434,46.153809000000365,99.61523400000078,50.0,107.82031300000017
188,83.9741210000002,78.0771479999994,113.58984400000008,113.3334960000002,-16.538574000000153,96.15380900000036,106.79492200000004,114.10253900000043,106.9228520000006,19.230956999999762,61.410155999999915,106.9228520000006,56.79492200000004,105.12841800000024
189,87.82031300000017,78.46142599999985,116.6665039999998,113.9741210000002,-15.256347999999889,101.15380900000036,109.10253900000043,115.38476599999922,109.74365200000011,20.897460999999566,70.51269500000035,110.64111300000059,59.35888699999941,110.0
190,84.10253900000043,72.17968800000017,115.51269500000035,111.79492200000004,-17.435790999999426,101.9228520000006,107.82031300000017,115.12841800000024,110.76904300000024,19.48730499999965,67.05126999999993,107.94873000000007,56.2822270000006,115.12841800000024
191,76.79492200000004,64.87158199999976,109.61523400000078,107.17968800000017,-19.358886999999868,99.87158199999976,104.74365200000011,113.84619099999964,110.89746099999957,18.461425999999847,54.23095699999976,100.89746099999957,52.17968800000017,111.79492200000004
192,71.6665039999998,62.17968800000017,103.7177729999994,103.20507799999996,-18.461425999999847,97.82031300000017,103.0771479999994,113.0771479999994,111.0258789999998,20.384765999999217,40.76904300000024,94.74365200000011,51.79492200000004,105.64111300000059
193,71.0258789999998,65.0,102.43603499999972,103.20507799999996,-16.794922000000042,96.9228520000006,103.84619099999964,113.46142599999985,111.6665039999998,23.461425999999847,33.846190999999635,93.0771479999994,54.35888699999941,107.05126999999993
194,72.82031300000017,69.23095699999976,104.48730499999965,106.15380900000036,-18.461425999999847,96.2822270000006,106.41015599999992,113.9741210000002,111.9228520000006,25.0,34.23095699999976,94.61523400000078,55.76904300000024,112.56396500000028
195,74.48730499999965,71.41015599999992,105.64111300000059,108.46142599999985,-23.974365000000034,95.76904300000024,108.9741210000002,113.46142599999985,111.0258789999998,23.589844000000085,39.102539000000434,97.05126999999993,53.589844000000085,112.05126999999993
196,73.9741210000002,69.61523400000078,105.38476599999922,108.0771479999994,-29.74365200000011,95.51269500000035,109.48730499999965,112.17968800000017,108.7177729999994,20.769043000000238,44.23095699999976,98.58984400000008,49.35888699999941,107.30761700000039
197,70.25634799999989,63.846190999999635,105.38476599999922,106.0258789999998,-31.794922000000042,94.87158199999976,106.79492200000004,111.2822270000006,105.38476599999922,17.69238299999961,45.51269500000035,98.7177729999994,45.51269500000035,108.20507799999996
198,65.25634799999989,56.53857400000015,105.38476599999922,103.3334960000002,-28.846190999999635,93.58984400000008,101.6665039999998,110.76904300000024,102.17968800000017,15.384765999999217,41.410155999999915,96.41015599999992,44.102539000000434,114.10253900000043
199,62.30761700000039,52.05126999999993,103.84619099999964,100.89746099999957,-22.435790999999426,93.0771479999994,97.17968800000017,110.51269500000035,100.76904300000024,14.358886999999413,35.25634799999989,92.43603499999972,45.897460999999566,114.10253900000043
200,64.10253900000043,53.974121000000196,101.6665039999998,100.64111300000059,-16.025634999999966,94.23095699999976,95.89746099999957,110.89746099999957,102.05126999999993,14.743652000000111,33.333496000000196,89.61523400000078,49.61523400000078,107.05126999999993
201,69.23095699999976,60.64111300000059,101.9228520000006,104.10253900000043,-13.076904000000013,96.79492200000004,97.94873000000007,111.9228520000006,105.12841800000024,15.128418000000238,39.102539000000434,90.12841800000024,52.05126999999993,103.84619099999964
202,73.58984400000008,66.9228520000006,103.9741210000002,109.61523400000078,-13.71801800000003,99.35888699999941,101.53857400000015,112.69238299999961,107.56396500000028,14.102539000000434,49.23095699999976,93.58984400000008,51.2822270000006,108.7177729999994
203,75.12841800000024,70.0,104.74365200000011,113.20507799999996,-13.846190999999635,101.2822270000006,104.23095699999976,112.05126999999993,107.94873000000007,13.717772999999397,56.9228520000006,97.17968800000017,49.23095699999976,112.56396500000028
204,75.25634799999989,70.12841800000024,103.9741210000002,112.94873000000007,-9.102538999999979,103.46142599999985,105.25634799999989,110.12841800000024,107.17968800000017,16.410155999999915,56.79492200000004,98.84619099999964,50.25634799999989,109.74365200000011
205,75.0,69.23095699999976,104.74365200000011,110.64111300000059,-0.6411130000005869,105.25634799999989,104.35888699999941,108.84619099999964,107.17968800000017,22.17968800000017,48.0771479999994,98.0771479999994,54.87158199999976,107.56396500000028
206,74.61523400000078,68.7177729999994,107.56396500000028,108.3334960000002,5.641113000000587,105.38476599999922,102.05126999999993,108.7177729999994,108.0771479999994,27.17968800000017,34.87158199999976,95.38476599999922,59.102539000000434,111.41015599999992
207,74.87158199999976,70.51269500000035,109.74365200000011,106.53857400000015,6.282227000000603,104.48730499999965,100.38476599999922,109.61523400000078,108.9741210000002,28.846190999999635,25.51269500000035,92.17968800000017,60.38476599999922,113.46142599999985
208,77.82031300000017,76.15380900000036,110.0,106.41015599999992,2.8203130000001693,104.87158199999976,100.76904300000024,110.89746099999957,109.23095699999976,28.205077999999958,28.205077999999958,92.30761700000039,60.12841800000024,107.43603499999972
209,83.84619099999964,84.10253900000043,111.53857400000015,109.87158199999976,-0.8974609999995664,106.6665039999998,102.94873000000007,112.30761700000039,109.61523400000078,27.17968800000017,43.46142599999985,98.20507799999996,60.76904300000024,101.79492200000004
210,90.25634799999989,89.74365200000011,116.0258789999998,115.38476599999922,-3.3334960000001956,107.17968800000017,105.25634799999989,113.58984400000008,110.89746099999957,26.153809000000365,62.43603499999972,107.69238299999961,62.69238299999961,106.2822270000006
211,93.9741210000002,90.12841800000024,119.61523400000078,118.20507799999996,-4.487060999999812,104.61523400000078,105.89746099999957,113.7177729999994,112.56396500000028,25.641113000000587,72.69238299999961,115.0,64.48730499999965,115.12841800000024
212,94.74365200000011,87.94873000000007,117.94873000000007,114.74365200000011,-4.230713000000378,100.25634799999989,104.61523400000078,112.69238299999961,113.7177729999994,26.666503999999804,68.84619099999964,115.25634799999989,65.89746099999957,116.15380900000036
213,93.0771479999994,86.15380900000036,112.69238299999961,107.56396500000028,-2.6923829999996087,96.79492200000004,101.9228520000006,111.41015599999992,113.20507799999996,29.48730499999965,55.38476599999922,109.23095699999976,65.89746099999957,110.38476599999922
214,89.61523400000078,85.64111300000059,108.20507799999996,103.20507799999996,-1.2822270000006029,94.87158199999976,98.20507799999996,110.38476599999922,110.12841800000024,32.05126999999993,42.56396500000028,101.15380900000036,63.46142599999985,108.58984400000008
215,85.76904300000024,85.51269500000035,106.15380900000036,104.87158199999976,-0.38476599999921746,94.61523400000078,94.23095699999976,109.10253900000043,104.74365200000011,32.17968800000017,37.56396500000028,95.51269500000035,59.35888699999941,111.2822270000006
216,85.0,87.30761700000039,106.0258789999998,110.76904300000024,3.077147999999397,97.30761700000039,92.17968800000017,107.56396500000028,100.0,30.897460999999566,41.53857400000015,94.74365200000011,58.7177729999994,110.0
217,90.12841800000024,92.69238299999961,108.7177729999994,117.05126999999993,11.153809000000365,103.20507799999996,93.7177729999994,106.79492200000004,99.48730499999965,32.05126999999993,49.74365200000011,99.74365200000011,65.76904300000024,104.10253900000043
218,99.23095699999976,100.51269500000035,114.74365200000011,120.64111300000059,20.641113000000587,108.84619099999964,98.7177729999994,107.43603499999972,103.84619099999964,37.05126999999993,57.30761700000039,108.0771479999994,78.46142599999985,103.0771479999994
219,107.30761700000039,106.53857400000015,120.64111300000059,119.61523400000078,25.0,110.38476599999922,104.10253900000043,108.7177729999994,110.0,43.974121000000196,62.69238299999961,115.51269500000035,89.87158199999976,108.7177729999994
220,111.53857400000015,108.20507799999996,121.6665039999998,114.61523400000078,21.794922000000042,107.43603499999972,107.82031300000017,109.87158199999976,114.48730499999965,50.0,67.43603499999972,118.58984400000008,95.25634799999989,111.2822270000006
221,112.69238299999961,106.0258789999998,118.0771479999994,109.35888699999941,14.230956999999762,103.46142599999985,109.74365200000011,110.89746099999957,115.76904300000024,54.35888699999941,72.17968800000017,117.82031300000017,95.0,107.56396500000028
222,112.30761700000039,101.9228520000006,115.25634799999989,107.94873000000007,7.307617000000391,101.79492200000004,110.64111300000059,112.56396500000028,115.0,57.05126999999993,75.38476599999922,116.6665039999998,92.82031300000017,106.2822270000006
223,111.53857400000015,98.58984400000008,116.2822270000006,110.51269500000035,4.230956999999762,102.82031300000017,110.64111300000059,114.87158199999976,113.9741210000002,58.974121000000196,75.51269500000035,117.94873000000007,92.05126999999993,111.2822270000006
224,112.17968800000017,98.58984400000008,118.84619099999964,113.7177729999994,5.641113000000587,105.38476599999922,110.0,116.41015599999992,113.7177729999994,61.025878999999804,74.74365200000011,122.05126999999993,95.25634799999989,113.58984400000008
225,114.87158199999976,101.9228520000006,120.12841800000024,115.38476599999922,9.487304999999651,107.94873000000007,108.7177729999994,116.79492200000004,114.61523400000078,63.333496000000196,76.15380900000036,126.9228520000006,102.17968800000017,106.9228520000006
226,117.69238299999961,104.87158199999976,120.64111300000059,116.79492200000004,12.17968800000017,108.7177729999994,106.6665039999998,116.15380900000036,115.25634799999989,63.7177729999994,79.87158199999976,129.7436520000001,108.0771479999994,100.89746099999957
227,117.17968800000017,103.7177729999994,121.2822270000006,118.7177729999994,11.538574000000153,105.89746099999957,103.46142599999985,114.61523400000078,114.10253900000043,59.61523400000078,82.43603499999972,128.58984400000008,107.30761700000039,105.51269500000035
228,113.3334960000002,98.58984400000008,120.25634799999989,119.23095699999976,9.615234000000783,100.25634799999989,98.9741210000002,112.56396500000028,110.64111300000059,52.43603499999972,80.89746099999957,123.58984400000008,100.0,114.74365200000011
229,109.61523400000078,94.48730499999965,116.9228520000006,116.53857400000015,10.769043000000238,95.51269500000035,94.87158199999976,111.15380900000036,107.56396500000028,47.56396500000028,76.15380900000036,118.20507799999996,92.30761700000039,117.30761700000039
230,108.7177729999994,95.12841800000024,113.7177729999994,111.15380900000036,15.641113000000587,95.38476599999922,92.69238299999961,111.53857400000015,107.43603499999972,49.102539000000434,71.2822270000006,116.0258789999998,90.12841800000024,114.61523400000078
231,108.84619099999964,98.7177729999994,112.82031300000017,105.76904300000024,20.25634799999989,99.48730499999965,92.69238299999961,113.46142599999985,110.51269500000035,55.25634799999989,68.46142599999985,117.56396500000028,93.20507799999996,115.0
232,107.43603499999972,101.9228520000006,112.43603499999972,102.17968800000017,20.384765999999217,105.25634799999989,93.9741210000002,115.12841800000024,114.35888699999941,61.025878999999804,69.10253900000043,120.0,97.05126999999993,117.17968800000017
233,104.74365200000011,103.20507799999996,110.12841800000024,101.6665039999998,16.538574000000153,109.87158199999976,95.51269500000035,115.12841800000024,116.0258789999998,63.20507799999996,73.58984400000008,120.38476599999922,98.46142599999985,112.94873000000007
234,103.0771479999994,102.69238299999961,108.58984400000008,105.76904300000024,12.56396500000028,111.9228520000006,96.41015599999992,114.10253900000043,114.10253900000043,62.17968800000017,80.25634799999989,119.10253900000043,96.9228520000006,105.38476599999922
235,102.82031300000017,100.64111300000059,111.0258789999998,113.9741210000002,12.051269999999931,110.25634799999989,95.64111300000059,113.0771479999994,109.74365200000011,59.61523400000078,85.12841800000024,118.0771479999994,92.30761700000039,105.0
236,101.9228520000006,98.3334960000002,115.51269500000035,121.0258789999998,15.256347999999889,106.0258789999998,93.7177729999994,111.53857400000015,105.51269500000035,57.05126999999993,84.10253900000043,117.94873000000007,86.2822270000006,111.79492200000004
237,99.61523400000078,97.69238299999961,116.9228520000006,121.0258789999998,20.769043000000238,102.30761700000039,91.9228520000006,109.48730499999965,103.7177729999994,55.76904300000024,78.20507799999996,118.20507799999996,81.53857400000015,114.10253900000043
238,96.2822270000006,99.23095699999976,113.9741210000002,113.58984400000008,26.282227000000603,101.79492200000004,91.6665039999998,107.56396500000028,104.87158199999976,56.153809000000365,71.9228520000006,117.82031300000017,80.0,108.9741210000002
239,93.0771479999994,100.38476599999922,110.51269500000035,104.74365200000011,28.974121000000196,104.35888699999941,93.0771479999994,107.17968800000017,107.05126999999993,56.2822270000006,69.61523400000078,117.17968800000017,80.76904300000024,106.53857400000015
240,91.41015599999992,98.84619099999964,109.35888699999941,100.64111300000059,27.69238299999961,107.05126999999993,95.64111300000059,108.7177729999994,108.46142599999985,55.0,70.89746099999957,116.0258789999998,81.53857400000015,111.53857400000015
241,93.20507799999996,96.15380900000036,109.48730499999965,102.69238299999961,24.615234000000783,108.20507799999996,98.9741210000002,111.0258789999998,108.58984400000008,54.23095699999976,73.3334960000002,114.61523400000078,81.79492200000004,114.87158199999976
242,98.84619099999964,96.2822270000006,110.25634799999989,109.23095699999976,23.461425999999847,108.46142599999985,102.30761700000039,112.94873000000007,108.3334960000002,56.153809000000365,75.38476599999922,113.9741210000002,82.43603499999972,110.38476599999922
243,105.25634799999989,100.0,112.94873000000007,117.30761700000039,25.384765999999217,108.7177729999994,104.74365200000011,114.23095699999976,109.10253900000043,59.61523400000078,77.17968800000017,115.12841800000024,83.20507799999996,105.89746099999957
244,108.3334960000002,103.9741210000002,116.79492200000004,123.3334960000002,28.205077999999958,108.7177729999994,105.38476599999922,114.61523400000078,110.25634799999989,60.76904300000024,78.9741210000002,117.17968800000017,83.0771479999994,108.7177729999994
245,107.05126999999993,105.38476599999922,118.0771479999994,123.3334960000002,29.48730499999965,108.9741210000002,105.0,113.58984400000008,110.64111300000059,57.43603499999972,80.51269500000035,118.3334960000002,82.17968800000017,111.9228520000006
246,104.35888699999941,105.0,116.0258789999998,117.69238299999961,29.358886999999413,110.0,105.0,111.6665039999998,109.61523400000078,52.69238299999961,82.17968800000017,118.20507799999996,82.43603499999972,108.20507799999996
247,103.46142599999985,104.35888699999941,114.23095699999976,111.2822270000006,29.102539000000434,111.41015599999992,105.51269500000035,110.38476599999922,107.82031300000017,50.38476599999922,84.35888699999941,117.82031300000017,84.74365200000011,103.9741210000002
248,104.87158199999976,103.84619099999964,115.64111300000059,109.23095699999976,29.871581999999762,111.6665039999998,105.51269500000035,110.89746099999957,106.53857400000015,52.56396500000028,86.2822270000006,118.20507799999996,87.69238299999961,108.84619099999964
249,108.0771479999994,105.25634799999989,118.3334960000002,111.15380900000036,33.974121000000196,111.15380900000036,104.87158199999976,112.69238299999961,107.43603499999972,58.846190999999635,86.15380900000036,119.35888699999941,91.2822270000006,117.56396500000028
250,113.7177729999994,111.0258789999998,119.10253900000043,113.46142599999985,42.69238299999961,113.3334960000002,105.64111300000059,114.61523400000078,110.64111300000059,67.82031300000017,84.10253900000043,121.2822270000006,97.17968800000017,117.82031300000017
251,120.51269500000035,120.38476599999922,118.20507799999996,113.9741210000002,53.20507799999996,118.9741210000002,108.3334960000002,115.76904300000024,114.74365200000011,76.2822270000006,82.56396500000028,123.84619099999964,104.74365200000011,110.64111300000059
252,123.9741210000002,126.15380900000036,117.82031300000017,113.3334960000002,57.05126999999993,123.46142599999985,110.64111300000059,114.87158199999976,116.6665039999998,78.7177729999994,83.3334960000002,125.25634799999989,108.84619099999964,106.9228520000006
253,120.38476599999922,122.05126999999993,116.6665039999998,112.43603499999972,48.974121000000196,121.15380900000036,108.9741210000002,111.6665039999998,114.74365200000011,71.9228520000006,85.25634799999989,123.46142599999985,104.48730499999965,109.35888699999941
254,111.6665039999998,110.12841800000024,112.94873000000007,111.6665039999998,33.20507799999996,112.30761700000039,103.46142599999985,107.43603499999972,110.0,59.23095699999976,87.17968800000017,118.46142599999985,93.0771479999994,109.61523400000078
255,104.35888699999941,99.61523400000078,109.10253900000043,112.30761700000039,21.922852000000603,103.9741210000002,98.58984400000008,105.89746099999957,106.41015599999992,49.102539000000434,88.46142599999985,114.10253900000043,82.82031300000017,106.79492200000004
256,103.84619099999964,98.58984400000008,110.51269500000035,115.12841800000024,23.846190999999635,103.58984400000008,98.9741210000002,108.84619099999964,107.05126999999993,48.7177729999994,90.0,114.23095699999976,81.79492200000004,108.7177729999994
257,110.25634799999989,106.79492200000004,117.17968800000017,118.58984400000008,37.43603499999972,112.69238299999961,105.89746099999957,114.74365200000011,111.41015599999992,58.974121000000196,92.05126999999993,119.61523400000078,92.05126999999993,115.51269500000035
258,120.12841800000024,117.94873000000007,123.46142599999985,119.35888699999941,53.7177729999994,126.15380900000036,116.15380900000036,119.48730499999965,116.41015599999992,74.87158199999976,94.10253900000043,126.6665039999998,107.94873000000007,116.53857400000015
259,127.56396500000028,124.74365200000011,125.12841800000024,116.79492200000004,62.82031300000017,136.41015599999992,124.35888699999941,120.51269500000035,118.9741210000002,87.17968800000017,95.12841800000024,131.15380900000036,119.74365200000011,108.58984400000008
260,126.79492200000004,122.82031300000017,122.69238299999961,113.0771479999994,60.0,136.9228520000006,125.25634799999989,118.20507799999996,117.69238299999961,87.94873000000007,93.58984400000008,130.12841800000024,118.20507799999996,103.3334960000002
261,117.17968800000017,113.58984400000008,118.3334960000002,110.64111300000059,47.82031300000017,127.05126999999993,117.56396500000028,114.10253900000043,112.94873000000007,76.15380900000036,89.23095699999976,123.46142599999985,102.30761700000039,108.3334960000002
262,105.38476599999922,103.9741210000002,112.94873000000007,109.61523400000078,35.76904300000024,113.7177729999994,106.0258789999998,110.64111300000059,107.56396500000028,59.61523400000078,84.74365200000011,115.25634799999989,82.05126999999993,114.61523400000078
263,100.89746099999957,101.6665039999998,109.35888699999941,109.74365200000011,33.974121000000196,106.9228520000006,99.10253900000043,109.74365200000011,104.61523400000078,50.12841800000024,83.7177729999994,111.53857400000015,71.6665039999998,112.69238299999961
264,106.79492200000004,107.94873000000007,111.15380900000036,110.89746099999957,43.846190999999635,111.0258789999998,101.6665039999998,111.6665039999998,105.89746099999957,53.0771479999994,87.30761700000039,115.64111300000059,77.69238299999961,108.3334960000002
265,116.2822270000006,115.76904300000024,117.69238299999961,111.9228520000006,56.025878999999804,120.38476599999922,110.51269500000035,114.48730499999965,109.74365200000011,62.82031300000017,92.17968800000017,124.48730499999965,93.0771479999994,110.12841800000024
266,119.74365200000011,116.15380900000036,122.05126999999993,110.38476599999922,58.7177729999994,124.87158199999976,116.6665039999998,115.51269500000035,112.43603499999972,69.23095699999976,93.20507799999996,129.87158199999976,103.7177729999994,113.9741210000002
267,113.84619099999964,106.41015599999992,119.48730499999965,106.6665039999998,48.20507799999996,119.74365200000011,114.23095699999976,114.35888699999941,112.17968800000017,66.79492200000004,88.9741210000002,126.9228520000006,101.41015599999992,110.89746099999957
268,102.69238299999961,91.53857400000015,113.20507799999996,105.0,30.897460999999566,108.58984400000008,105.12841800000024,112.43603499999972,110.0,59.102539000000434,82.17968800000017,118.0771479999994,88.3334960000002,104.48730499999965
269,93.7177729999994,80.38476599999922,110.76904300000024,108.58984400000008,18.205077999999958,100.51269500000035,97.43603499999972,111.41015599999992,108.58984400000008,53.846190999999635,77.17968800000017,110.76904300000024,74.10253900000043,105.12841800000024
270,92.43603499999972,79.87158199999976,113.9741210000002,115.0,18.077147999999397,102.30761700000039,98.20507799999996,111.79492200000004,109.23095699999976,56.2822270000006,77.56396500000028,110.25634799999989,68.7177729999994,111.15380900000036
271,99.48730499999965,91.0258789999998,118.58984400000008,119.23095699999976,31.025878999999804,114.87158199999976,108.46142599999985,113.46142599999985,112.05126999999993,66.2822270000006,83.84619099999964,116.53857400000015,75.89746099999957,112.30761700000039
272,110.25634799999989,106.79492200000004,121.2822270000006,119.35888699999941,49.87158199999976,130.76904300000024,122.17968800000017,115.76904300000024,115.64111300000059,77.56396500000028,93.84619099999964,125.51269500000035,89.87158199999976,107.56396500000028
273,116.9228520000006,116.79492200000004,121.53857400000015,116.9228520000006,63.846190999999635,140.2563479999999,130.89746099999957,117.82031300000017,117.69238299999961,82.43603499999972,101.79492200000004,131.15380900000036,99.35888699999941,106.41015599999992
274,115.51269500000035,116.0258789999998,119.48730499999965,113.3334960000002,66.9228520000006,138.58984400000008,130.38476599999922,117.94873000000007,117.17968800000017,77.82031300000017,102.30761700000039,129.61523400000078,97.56396500000028,110.25634799999989
275,108.7177729999994,108.3334960000002,114.74365200000011,109.23095699999976,61.53857400000015,130.12841800000024,123.58984400000008,116.2822270000006,114.48730499999965,68.20507799999996,94.87158199999976,121.9228520000006,87.94873000000007,110.0
276,102.43603499999972,101.41015599999992,110.76904300000024,106.2822270000006,55.25634799999989,123.0771479999994,116.6665039999998,114.35888699999941,111.79492200000004,61.410155999999915,84.87158199999976,114.35888699999941,79.10253900000043,103.20507799999996
277,99.35888699999941,98.20507799999996,111.53857400000015,106.15380900000036,52.69238299999961,121.2822270000006,113.84619099999964,113.84619099999964,110.89746099999957,61.153809000000365,79.10253900000043,111.9228520000006,76.53857400000015,100.51269500000035
278,98.46142599999985,97.56396500000028,116.0258789999998,108.58984400000008,52.69238299999961,122.43603499999972,115.12841800000024,115.12841800000024,111.41015599999992,65.64111300000059,81.0258789999998,114.87158199999976,78.7177729999994,107.05126999999993
279,99.10253900000043,98.3334960000002,119.10253900000043,110.89746099999957,52.82031300000017,123.58984400000008,118.20507799999996,116.79492200000004,112.17968800000017,71.6665039999998,89.48730499999965,119.61523400000078,82.94873000000007,112.69238299999961
280,102.82031300000017,101.41015599999992,118.84619099999964,112.69238299999961,52.43603499999972,123.58984400000008,121.6665039999998,118.0771479999994,112.69238299999961,77.30761700000039,100.0,123.58984400000008,87.82031300000017,109.48730499999965
281,109.23095699999976,107.05126999999993,118.9741210000002,115.89746099999957,51.9228520000006,123.3334960000002,123.84619099999964,119.10253900000043,113.46142599999985,81.53857400000015,106.9228520000006,126.2822270000006,92.69238299999961,104.74365200000011
282,114.74365200000011,112.05126999999993,121.6665039999998,120.51269500000035,51.410155999999915,123.0771479999994,124.10253900000043,119.48730499999965,114.35888699999941,83.0771479999994,106.15380900000036,127.43603499999972,95.51269500000035,107.30761700000039
283,115.38476599999922,112.82031300000017,123.7177729999994,122.56396500000028,50.897460999999566,123.58984400000008,122.43603499999972,118.9741210000002,114.87158199999976,81.15380900000036,98.3334960000002,126.41015599999992,94.87158199999976,112.05126999999993
284,110.38476599999922,108.58984400000008,121.41015599999992,119.10253900000043,50.76904300000024,125.64111300000059,120.12841800000024,117.94873000000007,114.74365200000011,77.05126999999993,89.23095699999976,123.3334960000002,91.41015599999992,110.25634799999989
285,102.43603499999972,100.64111300000059,116.41015599999992,112.30761700000039,50.76904300000024,128.20507799999996,117.94873000000007,117.05126999999993,114.10253900000043,72.17968800000017,84.74365200000011,119.61523400000078,86.0258789999998,105.51269500000035
286,94.87158199999976,91.2822270000006,112.94873000000007,107.17968800000017,50.897460999999566,128.3334960000002,115.89746099999957,116.41015599999992,112.94873000000007,67.30761700000039,86.53857400000015,116.53857400000015,79.23095699999976,107.43603499999972
287,91.15380900000036,84.48730499999965,112.17968800000017,105.64111300000059,53.46142599999985,125.76904300000024,114.61523400000078,115.0,111.6665039999998,63.589844000000085,91.2822270000006,114.35888699999941,73.3334960000002,112.82031300000017
288,93.9741210000002,85.38476599999922,112.43603499999972,106.41015599999992,61.025878999999804,123.58984400000008,115.51269500000035,113.0771479999994,111.0258789999998,63.589844000000085,94.48730499999965,113.9741210000002,72.82031300000017,111.9228520000006
289,102.05126999999993,94.87158199999976,113.46142599999985,108.3334960000002,71.9228520000006,124.61523400000078,119.10253900000043,112.30761700000039,112.17968800000017,68.20507799999996,93.7177729999994,116.2822270000006,79.10253900000043,106.0258789999998
290,109.48730499999965,106.79492200000004,115.51269500000035,111.41015599999992,79.35888699999941,126.9228520000006,123.46142599999985,113.46142599999985,114.23095699999976,74.48730499999965,90.25634799999989,120.0,87.05126999999993,105.64111300000059
291,111.0258789999998,113.46142599999985,115.89746099999957,114.10253900000043,78.58984400000008,127.30761700000039,126.0258789999998,115.51269500000035,115.76904300000024,78.3334960000002,87.69238299999961,122.30761700000039,89.61523400000078,111.0258789999998
292,107.43603499999972,112.69238299999961,112.82031300000017,114.35888699999941,71.79492200000004,125.89746099999957,126.2822270000006,117.05126999999993,116.0258789999998,78.7177729999994,90.12841800000024,122.30761700000039,85.76904300000024,111.79492200000004
293,103.84619099999964,108.58984400000008,109.23095699999976,112.30761700000039,65.76904300000024,125.64111300000059,126.41015599999992,117.94873000000007,116.0258789999998,78.0771479999994,97.05126999999993,122.05126999999993,80.76904300000024,105.64111300000059
294,102.69238299999961,104.87158199999976,109.74365200000011,110.51269500000035,63.974121000000196,127.69238299999961,127.43603499999972,119.10253900000043,116.6665039999998,78.0771479999994,102.43603499999972,122.43603499999972,78.84619099999964,102.94873000000007
295,102.69238299999961,101.9228520000006,114.23095699999976,110.76904300000024,64.48730499999965,129.7436520000001,128.58984400000008,120.12841800000024,117.56396500000028,78.0771479999994,100.12841800000024,122.17968800000017,80.0,108.3334960000002
296,102.17968800000017,99.35888699999941,117.30761700000039,112.30761700000039,64.61523400000078,129.7436520000001,128.46142599999985,119.87158199999976,117.82031300000017,78.20507799999996,90.64111300000059,119.61523400000078,81.6665039999998,112.82031300000017
297,102.05126999999993,97.94873000000007,116.53857400000015,113.9741210000002,64.23095699999976,128.20507799999996,127.17968800000017,118.9741210000002,117.43603499999972,78.9741210000002,81.53857400000015,116.2822270000006,82.94873000000007,110.25634799999989
298,103.20507799999996,98.7177729999994,115.12841800000024,115.76904300000024,64.48730499999965,127.05126999999993,126.41015599999992,118.9741210000002,116.6665039999998,80.51269500000035,80.0,116.0258789999998,83.7177729999994,108.46142599999985
299,104.61523400000078,100.12841800000024,115.38476599999922,116.41015599999992,65.12841800000024,126.41015599999992,126.2822270000006,119.87158199999976,115.64111300000059,80.64111300000059,86.2822270000006,119.35888699999941,83.3334960000002,113.84619099999964
300,104.61523400000078,100.76904300000024,115.64111300000059,113.20507799999996,65.12841800000024,125.76904300000024,125.51269500000035,119.87158199999976,114.48730499999965,78.58984400000008,94.48730499999965,122.82031300000017,82.17968800000017,118.46142599999985
301,102.94873000000007,101.41015599999992,113.84619099999964,106.53857400000015,64.35888699999941,125.12841800000024,123.20507799999996,118.0771479999994,113.7177729999994,75.89746099999957,98.84619099999964,122.56396500000028,82.05126999999993,113.84619099999964
302,100.76904300000024,102.94873000000007,111.9228520000006,101.6665039999998,64.74365200000011,125.12841800000024,120.12841800000024,115.76904300000024,113.7177729999994,75.0,97.17968800000017,119.23095699999976,83.9741210000002,106.15380900000036
303,100.12841800000024,105.25634799999989,113.0771479999994,103.7177729999994,67.82031300000017,126.0258789999998,118.3334960000002,114.74365200000011,114.10253900000043,76.9228520000006,92.17968800000017,116.41015599999992,87.43603499999972,106.41015599999992
304,102.82031300000017,108.3334960000002,116.6665039999998,111.53857400000015,74.87158199999976,127.94873000000007,119.48730499999965,115.76904300000024,114.74365200000011,81.41015599999992,89.10253900000043,117.56396500000028,91.79492200000004,111.41015599999992
305,109.61523400000078,112.17968800000017,119.74365200000011,119.10253900000043,84.74365200000011,131.15380900000036,123.9741210000002,118.3334960000002,115.64111300000059,87.43603499999972,92.17968800000017,123.3334960000002,97.05126999999993,111.2822270000006
306,117.43603499999972,116.0258789999998,121.79492200000004,121.6665039999998,92.94873000000007,133.84619099999964,128.58984400000008,121.41015599999992,117.05126999999993,92.56396500000028,100.25634799999989,129.87158199999976,102.05126999999993,107.05126999999993
307,120.38476599999922,117.17968800000017,122.69238299999961,118.58984400000008,93.20507799999996,132.82031300000017,129.3588869999994,122.82031300000017,117.94873000000007,93.7177729999994,106.79492200000004,132.05126999999993,103.58984400000008,107.56396500000028
308,115.51269500000035,113.84619099999964,120.25634799999989,112.94873000000007,84.23095699999976,126.9228520000006,124.74365200000011,120.64111300000059,117.05126999999993,89.87158199999976,105.51269500000035,126.79492200000004,99.74365200000011,111.9228520000006
309,106.6665039999998,109.23095699999976,113.9741210000002,108.46142599999985,72.17968800000017,119.35888699999941,117.43603499999972,115.76904300000024,114.35888699999941,83.58984400000008,97.43603499999972,116.79492200000004,93.0771479999994,110.51269500000035
310,101.0258789999998,106.79492200000004,108.20507799999996,108.3334960000002,65.25634799999989,115.0,111.79492200000004,111.2822270000006,111.6665039999998,78.9741210000002,88.58984400000008,108.58984400000008,88.3334960000002,103.20507799999996
311,101.9228520000006,107.56396500000028,108.3334960000002,112.17968800000017,65.76904300000024,115.25634799999989,109.74365200000011,110.0,110.12841800000024,77.05126999999993,84.35888699999941,107.17968800000017,87.82031300000017,101.53857400000015
312,106.9228520000006,109.74365200000011,113.0771479999994,114.87158199999976,69.23095699999976,117.82031300000017,110.38476599999922,111.53857400000015,110.12841800000024,76.53857400000015,85.51269500000035,111.6665039999998,90.25634799999989,108.20507799999996
313,112.30761700000039,112.56396500000028,116.79492200000004,112.30761700000039,71.41015599999992,120.25634799999989,111.2822270000006,113.84619099999964,111.15380900000036,76.79492200000004,90.0,117.56396500000028,94.48730499999965,112.30761700000039
314,115.64111300000059,116.2822270000006,117.30761700000039,106.6665039999998,72.43603499999972,121.79492200000004,111.6665039999998,115.25634799999989,112.94873000000007,78.58984400000008,96.15380900000036,121.6665039999998,99.61523400000078,108.3334960000002
315,116.53857400000015,119.87158199999976,117.82031300000017,104.10253900000043,74.74365200000011,123.0771479999994,112.05126999999993,116.15380900000036,115.12841800000024,82.94873000000007,101.9228520000006,123.7177729999994,104.48730499999965,105.0
316,116.15380900000036,121.53857400000015,120.25634799999989,107.05126999999993,78.9741210000002,124.61523400000078,114.10253900000043,117.05126999999993,116.6665039999998,88.7177729999994,105.76904300000024,124.61523400000078,107.43603499999972,108.84619099999964
317,116.79492200000004,120.64111300000059,122.17968800000017,111.9228520000006,83.84619099999964,125.64111300000059,118.3334960000002,117.56396500000028,116.53857400000015,94.35888699999941,107.17968800000017,125.12841800000024,107.82031300000017,112.17968800000017
318,118.7177729999994,117.94873000000007,121.53857400000015,114.10253900000043,86.6665039999998,125.64111300000059,123.3334960000002,116.6665039999998,115.0,97.94873000000007,106.6665039999998,124.61523400000078,106.2822270000006,107.94873000000007
319,119.74365200000011,114.61523400000078,119.35888699999941,113.58984400000008,85.89746099999957,123.84619099999964,125.64111300000059,114.35888699999941,113.20507799999996,97.94873000000007,104.48730499999965,122.30761700000039,103.0771479999994,102.82031300000017
320,117.56396500000028,111.41015599999992,117.43603499999972,112.30761700000039,82.82031300000017,120.51269500000035,123.20507799999996,111.41015599999992,111.9228520000006,94.10253900000043,100.64111300000059,118.58984400000008,98.58984400000008,105.64111300000059
321,113.0771479999994,110.0,114.23095699999976,111.6665039999998,80.89746099999957,117.94873000000007,117.69238299999961,109.23095699999976,111.2822270000006,88.46142599999985,96.9228520000006,115.12841800000024,94.74365200000011,111.41015599999992
322,110.0,111.15380900000036,109.23095699999976,111.41015599999992,81.79492200000004,117.69238299999961,113.46142599999985,108.9741210000002,111.15380900000036,83.84619099999964,95.89746099999957,114.23095699999976,93.7177729999994,110.12841800000024
323,109.23095699999976,112.17968800000017,105.89746099999957,111.79492200000004,82.17968800000017,119.10253900000043,113.0771479999994,111.2822270000006,111.15380900000036,81.53857400000015,98.3334960000002,116.41015599999992,94.35888699999941,104.87158199999976
324,108.20507799999996,109.48730499999965,106.9228520000006,112.56396500000028,76.9228520000006,119.35888699999941,115.51269500000035,114.35888699999941,111.2822270000006,80.0,101.2822270000006,119.10253900000043,93.20507799999996,105.25634799999989
325,105.25634799999989,103.7177729999994,110.25634799999989,111.9228520000006,66.79492200000004,117.69238299999961,118.46142599999985,116.0258789999998,111.41015599999992,79.23095699999976,101.2822270000006,119.35888699999941,89.35888699999941,109.61523400000078
326,102.94873000000007,100.38476599999922,111.6665039999998,109.23095699999976,60.51269500000035,117.94873000000007,121.15380900000036,115.51269500000035,112.30761700000039,81.6665039999998,98.3334960000002,117.56396500000028,87.56396500000028,108.0771479999994
327,105.25634799999989,104.23095699999976,111.53857400000015,106.53857400000015,66.2822270000006,123.0771479999994,124.48730499999965,115.0,114.35888699999941,89.35888699999941,95.76904300000024,117.30761700000039,92.05126999999993,101.41015599999992
328,111.2822270000006,113.20507799999996,112.69238299999961,106.6665039999998,82.69238299999961,131.41015599999992,128.7177729999994,116.15380900000036,117.17968800000017,99.61523400000078,95.38476599999922,120.38476599999922,100.64111300000059,100.51269500000035
329,116.0258789999998,120.12841800000024,114.48730499999965,108.58984400000008,98.46142599999985,136.6665039999998,132.05126999999993,118.20507799999996,118.58984400000008,106.2822270000006,95.89746099999957,123.9741210000002,106.0258789999998,107.30761700000039
330,115.0,119.48730499999965,113.7177729999994,108.9741210000002,102.82031300000017,134.87158199999976,131.9228520000006,118.7177729999994,117.30761700000039,105.25634799999989,95.76904300000024,123.7177729999994,103.46142599999985,110.76904300000024
331,108.7177729999994,111.9228520000006,110.51269500000035,107.56396500000028,94.23095699999976,127.43603499999972,127.94873000000007,116.6665039999998,114.35888699999941,97.82031300000017,94.74365200000011,119.10253900000043,94.61523400000078,107.05126999999993
332,101.41015599999992,102.56396500000028,109.10253900000043,107.30761700000039,80.38476599999922,120.0,122.56396500000028,114.10253900000043,111.9228520000006,88.9741210000002,94.10253900000043,113.9741210000002,86.0258789999998,104.87158199999976
333,98.84619099999964,97.82031300000017,111.79492200000004,109.35888699999941,72.43603499999972,118.58984400000008,120.25634799999989,113.9741210000002,112.17968800000017,84.87158199999976,95.51269500000035,113.20507799999996,84.74365200000011,109.61523400000078
334,105.12841800000024,101.6665039999998,116.0258789999998,111.6665039999998,77.69238299999961,125.64111300000059,124.48730499999965,117.17968800000017,115.51269500000035,90.64111300000059,100.89746099999957,119.23095699999976,94.87158199999976,112.69238299999961
335,118.58984400000008,112.30761700000039,118.9741210000002,111.79492200000004,93.46142599999985,137.82031300000017,133.9741210000002,122.69238299999961,120.25634799999989,104.87158199999976,109.35888699999941,130.0,112.82031300000017,108.3334960000002
336,130.89746099999957,122.17968800000017,121.15380900000036,111.15380900000036,107.30761700000039,147.17968800000017,142.56396500000028,127.43603499999972,123.46142599999985,118.7177729999994,116.53857400000015,139.87158199999976,127.82031300000017,103.9741210000002
337,132.82031300000017,123.58984400000008,122.30761700000039,111.41015599999992,107.17968800000017,146.6665039999998,143.7177729999994,128.46142599999985,122.82031300000017,121.41015599999992,117.30761700000039,142.17968800000017,128.3334960000002,107.17968800000017
338,122.69238299999961,116.6665039999998,120.25634799999989,112.30761700000039,92.17968800000017,137.56396500000028,136.79492200000004,124.61523400000078,118.46142599999985,109.87158199999976,110.25634799999989,135.0,113.84619099999964,111.9228520000006
339,109.10253900000043,108.84619099999964,115.12841800000024,112.05126999999993,73.7177729999994,127.43603499999972,127.43603499999972,118.84619099999964,113.58984400000008,92.17968800000017,100.89746099999957,122.82031300000017,95.12841800000024,109.35888699999941
340,102.30761700000039,106.53857400000015,111.2822270000006,111.15380900000036,65.64111300000059,123.7177729999994,122.56396500000028,115.12841800000024,111.15380900000036,79.48730499999965,96.2822270000006,114.48730499999965,85.0,104.87158199999976
341,104.74365200000011,109.10253900000043,112.17968800000017,110.64111300000059,72.82031300000017,127.05126999999993,124.48730499999965,116.15380900000036,112.17968800000017,77.43603499999972,98.9741210000002,115.0,87.94873000000007,107.94873000000007
342,111.9228520000006,111.9228520000006,115.76904300000024,110.25634799999989,89.35888699999941,133.20507799999996,130.38476599999922,120.25634799999989,114.87158199999976,83.7177729999994,105.89746099999957,121.9228520000006,99.61523400000078,114.87158199999976
343,118.46142599999985,112.94873000000007,118.0771479999994,109.48730499999965,105.76904300000024,138.20507799999996,136.15380900000036,124.35888699999941,117.30761700000039,92.82031300000017,111.53857400000015,129.10253900000043,111.9228520000006,114.48730499999965
344,121.6665039999998,113.46142599999985,118.84619099999964,108.9741210000002,114.61523400000078,139.7436520000001,138.3334960000002,126.53857400000015,118.58984400000008,99.61523400000078,112.69238299999961,131.9228520000006,117.56396500000028,107.82031300000017
345,121.0258789999998,114.74365200000011,119.87158199999976,109.87158199999976,113.3334960000002,137.43603499999972,136.15380900000036,126.2822270000006,118.3334960000002,100.0,108.7177729999994,129.3588869999994,112.69238299999961,105.64111300000059
346,117.94873000000007,116.53857400000015,119.74365200000011,111.0258789999998,104.87158199999976,132.56396500000028,132.05126999999993,123.84619099999964,116.53857400000015,94.23095699999976,101.79492200000004,123.46142599999985,99.35888699999941,109.74365200000011
347,114.74365200000011,118.46142599999985,115.76904300000024,110.38476599999922,95.89746099999957,128.84619099999964,129.87158199999976,120.38476599999922,114.61523400000078,86.9228520000006,95.64111300000059,117.56396500000028,85.64111300000059,110.64111300000059
348,113.46142599999985,119.35888699999941,109.87158199999976,108.58984400000008,91.2822270000006,128.9741210000002,131.53857400000015,118.20507799999996,114.48730499999965,83.3334960000002,93.3334960000002,114.74365200000011,79.87158199999976,106.0258789999998
349,112.82031300000017,116.79492200000004,106.79492200000004,108.20507799999996,90.89746099999957,131.6665039999998,134.87158199999976,118.7177729999994,116.53857400000015,84.61523400000078,94.74365200000011,115.38476599999922,83.7177729999994,105.38476599999922
350,111.2822270000006,109.87158199999976,107.69238299999961,109.48730499999965,91.53857400000015,133.58984400000008,136.41015599999992,120.89746099999957,118.7177729999994,88.46142599999985,97.43603499999972,116.9228520000006,92.30761700000039,111.41015599999992
351,110.0,102.82031300000017,109.48730499999965,110.64111300000059,92.69238299999961,133.20507799999996,134.87158199999976,122.05126999999993,119.35888699999941,92.94873000000007,100.0,117.05126999999993,100.12841800000024,113.84619099999964
352,111.53857400000015,101.2822270000006,110.76904300000024,110.76904300000024,95.38476599999922,131.9228520000006,131.53857400000015,120.76904300000024,117.94873000000007,97.69238299999961,102.69238299999961,116.2822270000006,104.23095699999976,107.43603499999972
353,115.12841800000024,105.51269500000035,112.94873000000007,110.76904300000024,98.46142599999985,130.38476599999922,128.20507799999996,117.82031300000017,115.51269500000035,100.76904300000024,104.87158199999976,115.76904300000024,104.10253900000043,101.15380900000036
354,116.15380900000036,110.0,115.0,111.2822270000006,98.3334960000002,127.17968800000017,124.48730499999965,114.48730499999965,113.0771479999994,98.84619099999964,104.23095699999976,115.0,99.10253900000043,103.84619099999964
355,111.2822270000006,109.61523400000078,113.20507799999996,110.38476599999922,92.82031300000017,121.79492200000004,120.76904300000024,112.56396500000028,111.15380900000036,91.53857400000015,98.84619099999964,111.53857400000015,90.38476599999922,109.10253900000043
356,101.41015599999992,103.58984400000008,106.53857400000015,107.30761700000039,84.10253900000043,116.15380900000036,118.0771479999994,113.0771479999994,110.89746099999957,83.20507799999996,90.51269500000035,104.87158199999976,80.76904300000024,108.20507799999996
357,90.64111300000059,94.23095699999976,100.12841800000024,103.7177729999994,76.9228520000006,112.82031300000017,117.30761700000039,116.53857400000015,112.56396500000028,79.74365200000011,82.82031300000017,97.17968800000017,72.43603499999972,105.38476599999922
358,82.69238299999961,84.35888699999941,99.10253900000043,101.6665039999998,74.48730499999965,111.9228520000006,117.69238299999961,120.51269500000035,114.48730499999965,83.7177729999994,78.9741210000002,91.6665039999998,66.53857400000015,108.46142599999985
359,79.87158199999976,76.79492200000004,102.56396500000028,101.41015599999992,77.94873000000007,112.43603499999972,117.43603499999972,122.30761700000039,115.38476599999922,93.3334960000002,80.12841800000024,90.0,64.48730499999965,113.46142599999985
360,82.30761700000039,74.23095699999976,106.2822270000006,102.17968800000017,85.25634799999989,114.10253900000043,116.53857400000015,120.89746099999957,115.12841800000024,104.23095699999976,85.38476599999922,92.17968800000017,67.05126999999993,111.6665039999998
361,86.15380900000036,75.0,108.0771479999994,104.10253900000043,91.53857400000015,117.05126999999993,116.79492200000004,118.58984400000008,114.74365200000011,110.38476599999922,91.41015599999992,95.89746099999957,71.9228520000006,106.79492200000004
362,85.64111300000059,74.10253900000043,107.56396500000028,106.2822270000006,90.64111300000059,119.35888699999941,119.10253900000043,117.69238299999961,114.74365200000011,106.53857400000015,92.82031300000017,97.43603499999972,72.94873000000007,109.23095699999976
363,78.46142599999985,68.0771479999994,103.0771479999994,106.0258789999998,81.53857400000015,119.10253900000043,122.30761700000039,118.0771479999994,114.23095699999976,93.20507799999996,87.17968800000017,93.9741210000002,66.2822270000006,116.9228520000006
364,69.35888699999941,59.48730499999965,95.0,102.43603499999972,70.89746099999957,117.17968800000017,123.9741210000002,118.46142599999985,113.20507799999996,78.58984400000008,77.69238299999961,86.9228520000006,54.87158199999976,117.56396500000028
365,64.10253900000043,52.56396500000028,88.3334960000002,98.0771479999994,67.56396500000028,116.41015599999992,122.82031300000017,117.94873000000007,112.82031300000017,73.46142599999985,70.12841800000024,81.2822270000006,45.12841800000024,109.74365200000011
366,62.69238299999961,47.69238299999961,88.3334960000002,96.79492200000004,74.48730499999965,117.82031300000017,119.48730499999965,117.05126999999993,114.48730499999965,81.15380900000036,67.82031300000017,79.87158199999976,39.87158199999976,104.87158199999976
367,60.76904300000024,42.17968800000017,93.7177729999994,98.58984400000008,87.69238299999961,121.15380900000036,117.17968800000017,116.2822270000006,117.56396500000028,94.74365200000011,68.84619099999964,80.76904300000024,36.53857400000015,107.94873000000007
368,56.53857400000015,35.76904300000024,98.3334960000002,100.64111300000059,102.82031300000017,125.64111300000059,119.23095699999976,115.51269500000035,119.74365200000011,103.7177729999994,70.25634799999989,80.89746099999957,33.7177729999994,110.25634799999989
369,53.46142599999985,32.69238299999961,99.10253900000043,102.30761700000039,117.94873000000007,130.6411130000006,126.2822270000006,114.87158199999976,118.58984400000008,102.05126999999993,72.17968800000017,80.38476599999922,33.7177729999994,107.30761700000039
370,56.666503999999804,36.79492200000004,99.61523400000078,105.51269500000035,133.3334960000002,132.6923829999996,133.46142599999985,114.87158199999976,113.46142599999985,92.17968800000017,76.41015599999992,82.17968800000017,40.51269500000035,106.9228520000006
371,67.56396500000028,48.333496000000196,102.69238299999961,110.89746099999957,148.46142599999985,127.43603499999972,133.84619099999964,115.25634799999989,105.89746099999957,81.2822270000006,83.9741210000002,87.43603499999972,54.48730499999965,113.84619099999964
372,83.0771479999994,63.7177729999994,106.79492200000004,115.64111300000059,163.84619099999964,113.7177729999994,123.7177729999994,114.87158199999976,99.23095699999976,77.05126999999993,93.7177729999994,94.87158199999976,72.94873000000007,119.35888699999941
373,98.20507799999996,78.46142599999985,109.48730499999965,117.69238299999961,181.15380900000036,97.05126999999993,106.79492200000004,113.20507799999996,96.79492200000004,81.41015599999992,103.20507799999996,101.41015599999992,90.64111300000059,115.38476599999922
374,107.30761700000039,87.69238299999961,110.76904300000024,117.56396500000028,200.51269500000035,84.10253900000043,90.76904300000024,110.51269500000035,99.35888699999941,90.51269500000035,109.87158199999976,104.87158199999976,101.9228520000006,108.9741210000002
375,107.56396500000028,89.48730499999965,111.0258789999998,117.17968800000017,219.87158199999976,78.0771479999994,81.6665039999998,106.6665039999998,103.84619099999964,98.7177729999994,112.05126999999993,104.23095699999976,103.3334960000002,109.23095699999976
376,102.17968800000017,88.46142599999985,108.9741210000002,116.9228520000006,235.89746099999957,77.43603499999972,80.0,101.9228520000006,106.15380900000036,106.2822270000006,111.53857400000015,100.38476599999922,98.58984400000008,112.43603499999972
377,98.9741210000002,92.30761700000039,105.25634799999989,116.9228520000006,247.05126999999993,78.20507799999996,82.56396500000028,97.17968800000017,103.9741210000002,120.12841800000024,113.3334960000002,97.17968800000017,96.79492200000004,110.51269500000035
378,101.53857400000015,104.61523400000078,103.3334960000002,117.82031300000017,253.9741210000002,77.17968800000017,84.74365200000011,94.35888699999941,98.7177729999994,147.56396500000028,119.61523400000078,97.05126999999993,102.94873000000007,107.43603499999972
379,104.61523400000078,118.58984400000008,104.23095699999976,118.9741210000002,258.84619099999964,73.20507799999996,84.61523400000078,94.48730499999965,93.46142599999985,186.53857400000015,126.79492200000004,97.82031300000017,110.25634799999989,112.82031300000017
380,99.35888699999941,123.0771479999994,103.0771479999994,116.9228520000006,266.2822270000006,69.23095699999976,83.0771479999994,96.6665039999998,91.2822270000006,226.6665039999998,127.30761700000039,93.20507799999996,106.6665039999998,122.43603499999972
381,82.94873000000007,112.43603499999972,95.64111300000059,109.74365200000011,279.7436520000001,70.0,82.82031300000017,98.84619099999964,93.3334960000002,256.9228520000006,118.7177729999994,80.25634799999989,86.79492200000004,123.84619099999964
382,61.9228520000006,92.56396500000028,85.38476599999922,101.15380900000036,297.6923829999996,77.43603499999972,84.74365200000011,100.12841800000024,98.20507799999996,272.6923829999996,106.2822270000006,64.23095699999976,59.23095699999976,115.64111300000059
383,46.79492200000004,75.64111300000059,80.64111300000059,97.17968800000017,310.3847659999992,86.79492200000004,87.17968800000017,99.87158199999976,102.82031300000017,276.15380900000036,99.35888699999941,54.23095699999976,39.35888699999941,109.61523400000078
