,EEG.AF3,EEG.F7,EEG.F3,EEG.FC5,EEG.T7,EEG.P7,EEG.O1,EEG.O2,EEG.P8,EEG.T8,EEG.FC6,EEG.F4,EEG.F8,EEG.AF4
0,117.82031300000017,219.87158199999976,102.69238299999961,109.10253900000043,70.89746099999957,94.74365200000011,91.15380900000036,108.20507799999996,101.9228520000006,82.43603499999972,90.38476599999922,109.48730499999965,95.25634799999989,110.76904300000024
1,118.0771479999994,216.2822270000006,105.12841800000024,110.51269500000035,71.79492200000004,96.6665039999998,91.53857400000015,108.9741210000002,99.61523400000078,80.0,92.30761700000039,111.9228520000006,97.05126999999993,116.9228520000006
2,113.20507799999996,206.79492200000004,101.6665039999998,109.35888699999941,69.48730499999965,96.53857400000015,92.94873000000007,109.35888699999941,98.9741210000002,76.41015599999992,92.82031300000017,109.87158199999976,95.76904300000024,112.30761700000039
3,107.94873000000007,195.12841800000024,97.05126999999993,107.30761700000039,68.3334960000002,96.41015599999992,96.79492200000004,110.0,101.53857400000015,76.15380900000036,93.58984400000008,106.41015599999992,93.3334960000002,102.82031300000017
4,105.64111300000059,185.12841800000024,97.05126999999993,107.05126999999993,71.9228520000006,98.58984400000008,102.69238299999961,111.2822270000006,106.0258789999998,80.76904300000024,95.89746099999957,105.38476599999922,91.15380900000036,102.17968800000017
5,107.05126999999993,178.9741210000002,101.0258789999998,108.20507799999996,81.53857400000015,102.69238299999961,108.3334960000002,112.43603499999972,109.87158199999976,88.46142599999985,98.9741210000002,107.43603499999972,89.74365200000011,108.84619099999964
6,110.51269500000035,176.9228520000006,104.10253900000043,108.46142599999985,95.0,106.9228520000006,110.89746099999957,112.43603499999972,110.89746099999957,94.74365200000011,101.79492200000004,109.74365200000011,89.74365200000011,110.51269500000035
7,113.46142599999985,176.79492200000004,105.64111300000059,108.0771479999994,108.0771479999994,108.84619099999964,110.0,111.6665039999998,108.84619099999964,95.12841800000024,103.58984400000008,110.38476599999922,91.0258789999998,106.15380900000036
8,113.20507799999996,174.10253900000043,107.56396500000028,109.48730499999965,117.30761700000039,107.43603499999972,107.94873000000007,111.41015599999992,105.12841800000024,88.3334960000002,104.23095699999976,109.74365200000011,92.17968800000017,105.76904300000024
9,109.87158199999976,166.2822270000006,108.9741210000002,112.30761700000039,123.7177729999994,104.10253900000043,107.56396500000028,111.79492200000004,102.05126999999993,78.58984400000008,103.7177729999994,109.61523400000078,91.41015599999992,110.12841800000024
10,105.64111300000059,154.23095699999976,106.2822270000006,113.7177729999994,133.46142599999985,102.17968800000017,109.87158199999976,111.6665039999998,100.76904300000024,72.82031300000017,102.82031300000017,109.87158199999976,88.7177729999994,109.48730499999965
11,101.9228520000006,140.89746099999957,100.12841800000024,111.79492200000004,151.79492200000004,103.7177729999994,112.43603499999972,111.0258789999998,101.41015599999992,73.20507799999996,101.9228520000006,109.87158199999976,85.25634799999989,102.94873000000007
12,98.58984400000008,128.46142599999985,96.2822270000006,108.7177729999994,178.58984400000008,107.69238299999961,112.30761700000039,110.25634799999989,103.20507799999996,75.51269500000035,101.9228520000006,109.23095699999976,82.17968800000017,101.79492200000004
13,95.76904300000024,119.35888699999941,97.43603499999972,107.17968800000017,208.0771479999994,111.0258789999998,109.35888699999941,110.0,104.74365200000011,74.23095699999976,103.46142599999985,108.0771479999994,81.15380900000036,108.84619099999964
14,95.38476599999922,115.38476599999922,100.25634799999989,107.43603499999972,234.48730499999965,111.53857400000015,106.0258789999998,109.48730499999965,104.74365200000011,69.61523400000078,107.69238299999961,107.17968800000017,84.74365200000011,112.30761700000039
15,98.3334960000002,116.6665039999998,101.53857400000015,108.58984400000008,255.6411130000006,108.84619099999964,104.35888699999941,108.84619099999964,102.56396500000028,67.69238299999961,114.23095699999976,107.17968800000017,92.69238299999961,105.76904300000024
16,101.15380900000036,119.10253900000043,101.79492200000004,110.76904300000024,271.2822270000006,103.46142599999985,104.48730499999965,108.0771479999994,98.7177729999994,74.23095699999976,119.74365200000011,107.56396500000028,100.12841800000024,100.64111300000059
17,99.48730499999965,117.82031300000017,101.79492200000004,112.82031300000017,281.9228520000006,96.9228520000006,104.61523400000078,107.17968800000017,94.74365200000011,90.0,120.51269500000035,106.2822270000006,101.15380900000036,106.2822270000006
18,93.46142599999985,112.43603499999972,99.23095699999976,112.56396500000028,288.5898440000001,92.30761700000039,104.48730499999965,106.0258789999998,93.20507799999996,111.9228520000006,116.6665039999998,102.30761700000039,95.64111300000059,114.35888699999941
19,88.0771479999994,107.43603499999972,95.0,109.87158199999976,293.20507799999996,92.43603499999972,105.0,105.25634799999989,95.38476599999922,136.6665039999998,113.3334960000002,98.0771479999994,90.38476599999922,113.46142599999985
20,88.3334960000002,106.79492200000004,94.10253900000043,108.0771479999994,297.5639650000003,97.43603499999972,107.05126999999993,106.15380900000036,100.51269500000035,162.05126999999993,115.64111300000059,97.30761700000039,91.53857400000015,108.7177729999994
21,93.46142599999985,110.0,99.48730499999965,110.0,302.3076170000004,103.84619099999964,109.48730499999965,109.23095699999976,105.76904300000024,187.3076170000004,123.0771479999994,101.2822270000006,98.7177729999994,110.64111300000059
22,99.10253900000043,113.7177729999994,105.89746099999957,113.46142599999985,308.3334960000002,107.05126999999993,110.89746099999957,112.30761700000039,108.46142599999985,211.41015599999992,130.89746099999957,106.53857400000015,105.25634799999989,115.38476599999922
23,101.79492200000004,116.15380900000036,106.79492200000004,114.87158199999976,316.0258789999998,105.76904300000024,110.12841800000024,112.82031300000017,108.0771479999994,232.94873000000007,133.84619099999964,108.58984400000008,105.76904300000024,112.56396500000028
24,101.0258789999998,117.82031300000017,103.20507799999996,113.9741210000002,324.23095699999976,101.15380900000036,107.82031300000017,110.76904300000024,106.0258789999998,248.84619099999964,130.89746099999957,106.0258789999998,100.0,105.76904300000024
25,98.7177729999994,120.12841800000024,101.0258789999998,113.84619099999964,330.6411130000006,96.15380900000036,105.38476599999922,108.0771479999994,104.10253900000043,256.6665039999998,125.64111300000059,101.53857400000015,93.0771479999994,106.6665039999998
26,98.20507799999996,124.61523400000078,102.17968800000017,115.12841800000024,333.84619099999964,93.84619099999964,105.12841800000024,106.9228520000006,103.3334960000002,257.6923829999996,123.20507799999996,98.7177729999994,91.79492200000004,113.9741210000002
27,101.6665039999998,132.17968800000017,103.9741210000002,116.2822270000006,335.2563479999999,96.15380900000036,108.20507799999996,108.0771479999994,104.10253900000043,258.0771479999994,126.41015599999992,99.87158199999976,98.9741210000002,114.87158199999976
28,107.56396500000028,141.0258789999998,104.48730499999965,116.9228520000006,336.79492200000004,101.6665039999998,113.20507799999996,110.76904300000024,106.0258789999998,263.84619099999964,133.84619099999964,104.74365200000011,111.0258789999998,107.94873000000007
29,110.64111300000059,145.6411130000006,105.12841800000024,118.0771479999994,337.94873000000007,106.0258789999998,116.2822270000006,113.7177729999994,107.17968800000017,275.0,140.76904300000024,109.87158199999976,119.23095699999976,105.0
30,107.05126999999993,142.05126999999993,105.64111300000059,118.3334960000002,336.53857400000015,106.2822270000006,116.15380900000036,115.12841800000024,106.41015599999992,286.15380900000036,142.82031300000017,111.15380900000036,118.0771479999994,110.38476599999922
31,100.12841800000024,133.0771479999994,104.48730499999965,115.12841800000024,333.46142599999985,104.87158199999976,115.64111300000059,114.61523400000078,104.74365200000011,292.94873000000007,141.2822270000006,108.3334960000002,111.15380900000036,113.84619099999964
32,98.20507799999996,127.43603499999972,103.3334960000002,109.48730499999965,332.4360349999997,107.56396500000028,119.48730499999965,113.9741210000002,105.0,297.05126999999993,141.9228520000006,107.05126999999993,108.84619099999964,110.51269500000035
33,106.79492200000004,131.9228520000006,107.30761700000039,106.6665039999998,337.17968800000017,117.17968800000017,128.3334960000002,115.38476599999922,108.84619099999964,302.4360349999997,148.9741210000002,113.46142599999985,117.43603499999972,109.10253900000043
34,122.94873000000007,145.0,116.2822270000006,109.61523400000078,347.17968800000017,129.48730499999965,137.82031300000017,118.84619099999964,114.35888699999941,310.2563479999999,160.51269500000035,126.79492200000004,134.3588869999994,114.87158199999976
35,137.94873000000007,158.58984400000008,123.3334960000002,115.64111300000059,358.3334960000002,137.3076170000004,141.9228520000006,121.6665039999998,117.82031300000017,316.9228520000006,169.61523400000078,139.3588869999994,149.7436520000001,117.94873000000007
36,144.10253900000043,164.48730499999965,122.82031300000017,120.12841800000024,363.9741210000002,136.79492200000004,137.82031300000017,122.17968800000017,117.17968800000017,316.9228520000006,171.53857400000015,143.46142599999985,155.0,111.2822270000006
37,138.9741210000002,158.46142599999985,117.82031300000017,121.53857400000015,359.23095699999976,129.61523400000078,128.84619099999964,120.76904300000024,113.20507799999996,307.4360349999997,166.2822270000006,138.3334960000002,148.0771479999994,104.48730499999965
38,126.0258789999998,142.3076170000004,113.58984400000008,120.76904300000024,345.0,120.76904300000024,121.15380900000036,118.0771479999994,108.3334960000002,291.15380900000036,157.6923829999996,128.84619099999964,133.7177729999994,107.82031300000017
39,112.82031300000017,124.61523400000078,111.53857400000015,118.0771479999994,329.87158199999976,115.76904300000024,118.7177729999994,115.0,105.12841800000024,275.51269500000035,150.76904300000024,120.64111300000059,121.41015599999992,115.0
40,107.05126999999993,115.0,110.25634799999989,114.61523400000078,323.5898440000001,116.53857400000015,121.2822270000006,112.43603499999972,105.25634799999989,267.17968800000017,149.10253900000043,116.9228520000006,118.3334960000002,113.84619099999964
41,111.0258789999998,117.17968800000017,110.89746099999957,113.84619099999964,328.84619099999964,120.51269500000035,125.89746099999957,112.17968800000017,108.3334960000002,267.6923829999996,153.3334960000002,118.7177729999994,125.0,107.56396500000028
42,120.51269500000035,126.15380900000036,114.87158199999976,117.56396500000028,338.5898440000001,122.82031300000017,129.7436520000001,114.61523400000078,112.05126999999993,272.4360349999997,160.51269500000035,124.87158199999976,135.2563479999999,107.69238299999961
43,128.58984400000008,133.3334960000002,118.84619099999964,122.05126999999993,343.46142599999985,121.53857400000015,131.79492200000004,117.43603499999972,113.84619099999964,275.0,166.53857400000015,131.6665039999998,142.05126999999993,113.0771479999994
44,131.41015599999992,133.0771479999994,118.46142599999985,122.17968800000017,339.7436520000001,118.46142599999985,131.6665039999998,118.20507799999996,112.30761700000039,272.05126999999993,168.58984400000008,134.48730499999965,141.6665039999998,112.17968800000017
45,129.23095699999976,125.76904300000024,115.38476599999922,118.84619099999964,329.7436520000001,115.64111300000059,129.48730499999965,116.0258789999998,108.58984400000008,263.9741210000002,167.17968800000017,132.6923829999996,135.12841800000024,105.51269500000035
46,124.74365200000011,116.6665039999998,115.0,118.0771479999994,318.3334960000002,113.3334960000002,125.51269500000035,112.30761700000039,104.87158199999976,253.0771479999994,164.87158199999976,128.9741210000002,125.89746099999957,103.9741210000002
47,121.79492200000004,111.9228520000006,117.69238299999961,122.05126999999993,310.51269500000035,111.41015599999992,121.15380900000036,109.10253900000043,103.0771479999994,242.43603499999972,164.48730499999965,126.79492200000004,119.48730499999965,109.35888699999941
48,123.0771479999994,115.12841800000024,119.23095699999976,126.0258789999998,309.7436520000001,111.15380900000036,118.84619099999964,107.56396500000028,103.58984400000008,235.2563479999999,167.56396500000028,128.0771479999994,120.64111300000059,111.15380900000036
49,128.46142599999985,124.74365200000011,117.69238299999961,124.23095699999976,315.76904300000024,114.61523400000078,120.0,108.84619099999964,106.41015599999992,233.20507799999996,173.3334960000002,132.43603499999972,129.7436520000001,106.9228520000006
50,134.87158199999976,134.87158199999976,116.41015599999992,116.6665039999998,325.0,121.41015599999992,124.61523400000078,112.56396500000028,110.64111300000059,235.76904300000024,179.10253900000043,137.94873000000007,141.79492200000004,107.82031300000017
51,139.48730499999965,140.51269500000035,117.30761700000039,108.0771479999994,333.3334960000002,128.20507799999996,130.2563479999999,116.2822270000006,114.35888699999941,239.7436520000001,182.43603499999972,142.3076170000004,150.38476599999922,116.6665039999998
52,141.15380900000036,140.51269500000035,117.30761700000039,102.82031300000017,338.0771479999994,130.6411130000006,132.43603499999972,117.30761700000039,115.64111300000059,241.79492200000004,182.3076170000004,143.0771479999994,152.43603499999972,120.64111300000059
53,140.12841800000024,135.89746099999957,114.61523400000078,103.20507799999996,338.3334960000002,126.53857400000015,127.94873000000007,114.87158199999976,113.3334960000002,239.10253900000043,179.87158199999976,139.61523400000078,148.84619099999964,112.30761700000039
54,136.53857400000015,127.56396500000028,112.30761700000039,109.35888699999941,333.7177729999994,117.82031300000017,117.94873000000007,111.41015599999992,109.10253900000043,231.15380900000036,176.6665039999998,133.7177729999994,141.79492200000004,103.20507799999996
55,131.79492200000004,118.46142599999985,113.20507799999996,117.69238299999961,326.15380900000036,110.38476599999922,108.9741210000002,109.10253900000043,105.76904300000024,221.6665039999998,174.48730499999965,129.48730499999965,134.3588869999994,105.25634799999989
56,130.6411130000006,114.23095699999976,116.2822270000006,121.9228520000006,321.4101559999999,110.51269500000035,108.46142599999985,108.84619099999964,105.89746099999957,217.94873000000007,175.51269500000035,130.51269500000035,132.3076170000004,112.05126999999993
57,136.53857400000015,119.35888699999941,119.23095699999976,119.74365200000011,324.10253900000043,120.0,118.20507799999996,110.89746099999957,109.61523400000078,225.51269500000035,180.89746099999957,137.82031300000017,139.48730499999965,112.05126999999993
58,147.6923829999996,131.15380900000036,123.3334960000002,114.87158199999976,332.3076170000004,132.94873000000007,132.05126999999993,115.12841800000024,114.74365200000011,240.2563479999999,188.58984400000008,148.46142599999985,153.20507799999996,108.46142599999985
59,156.53857400000015,141.2822270000006,128.46142599999985,112.69238299999961,338.5898440000001,140.2563479999999,141.0258789999998,120.25634799999989,117.82031300000017,250.76904300000024,193.7177729999994,156.79492200000004,164.10253900000043,110.25634799999989
60,158.20507799999996,144.10253900000043,130.76904300000024,113.7177729999994,337.6923829999996,138.0771479999994,140.51269500000035,122.94873000000007,117.05126999999993,248.46142599999985,193.0771479999994,158.3334960000002,165.51269500000035,113.7177729999994
61,153.9741210000002,141.41015599999992,126.2822270000006,114.74365200000011,330.0,129.7436520000001,132.82031300000017,121.15380900000036,113.58984400000008,235.2563479999999,187.6923829999996,153.3334960000002,158.9741210000002,109.23095699999976
62,148.20507799999996,137.17968800000017,118.58984400000008,114.61523400000078,317.6923829999996,121.0258789999998,124.35888699999941,115.76904300000024,110.12841800000024,220.0,181.0258789999998,146.15380900000036,150.76904300000024,101.2822270000006
63,142.94873000000007,132.82031300000017,114.61523400000078,115.38476599999922,301.4101559999999,114.23095699999976,119.23095699999976,110.38476599999922,108.7177729999994,209.23095699999976,175.6411130000006,140.51269500000035,144.48730499999965,102.82031300000017
64,137.94873000000007,127.05126999999993,115.89746099999957,117.82031300000017,281.6665039999998,108.84619099999964,118.0771479999994,107.43603499999972,109.23095699999976,204.23095699999976,171.9228520000006,136.9228520000006,140.2563479999999,112.56396500000028
65,133.7177729999994,118.58984400000008,117.82031300000017,119.23095699999976,263.5898440000001,105.64111300000059,119.35888699999941,107.94873000000007,110.64111300000059,203.84619099999964,170.12841800000024,134.87158199999976,137.6923829999996,116.2822270000006
66,131.41015599999992,108.84619099999964,117.56396500000028,117.69238299999961,255.76904300000024,106.2822270000006,121.0258789999998,111.79492200000004,112.30761700000039,206.79492200000004,170.6411130000006,134.3588869999994,136.6665039999998,110.12841800000024
67,131.0258789999998,100.51269500000035,117.05126999999993,114.10253900000043,263.7177729999994,111.41015599999992,121.9228520000006,117.82031300000017,113.7177729999994,211.0258789999998,172.43603499999972,135.76904300000024,136.53857400000015,105.38476599999922
68,131.9228520000006,97.43603499999972,116.79492200000004,110.25634799999989,284.23095699999976,118.7177729999994,123.0771479999994,122.94873000000007,114.35888699999941,213.84619099999964,173.3334960000002,137.6923829999996,136.41015599999992,107.43603499999972
69,133.58984400000008,102.69238299999961,114.74365200000011,107.56396500000028,306.53857400000015,125.51269500000035,126.0258789999998,124.74365200000011,113.7177729999994,213.3334960000002,172.05126999999993,138.0771479999994,136.2822270000006,108.0771479999994
70,134.48730499999965,114.74365200000011,111.15380900000036,107.30761700000039,317.82031300000017,130.12841800000024,131.15380900000036,123.46142599999985,112.56396500000028,209.23095699999976,168.7177729999994,135.6411130000006,136.15380900000036,103.3334960000002
71,132.43603499999972,125.51269500000035,109.48730499999965,110.51269500000035,311.9228520000006,131.53857400000015,136.53857400000015,121.41015599999992,111.9228520000006,202.56396500000028,164.87158199999976,131.9228520000006,134.10253900000043,103.0771479999994
72,125.64111300000059,126.79492200000004,111.2822270000006,114.87158199999976,293.0771479999994,130.0,139.23095699999976,120.51269500000035,112.56396500000028,195.89746099999957,161.0258789999998,128.20507799999996,128.20507799999996,112.17968800000017
73,116.6665039999998,117.43603499999972,112.05126999999993,115.0,273.84619099999964,127.05126999999993,137.94873000000007,120.64111300000059,114.48730499999965,193.3334960000002,157.94873000000007,124.61523400000078,119.35888699999941,119.35888699999941
74,110.64111300000059,104.74365200000011,109.10253900000043,109.74365200000011,266.15380900000036,125.25634799999989,134.7436520000001,121.2822270000006,117.05126999999993,197.05126999999993,156.79492200000004,121.9228520000006,112.05126999999993,114.23095699999976
75,110.64111300000059,97.56396500000028,105.64111300000059,104.10253900000043,271.2822270000006,125.38476599999922,132.43603499999972,122.69238299999961,118.9741210000002,204.61523400000078,158.3334960000002,121.41015599999992,110.51269500000035,105.12841800000024
76,115.64111300000059,98.9741210000002,105.76904300000024,103.46142599999985,281.15380900000036,126.2822270000006,132.3076170000004,124.35888699999941,118.58984400000008,209.23095699999976,161.9228520000006,123.20507799999996,115.25634799999989,104.87158199999976
77,121.6665039999998,105.0,107.94873000000007,107.82031300000017,285.3847659999992,126.2822270000006,132.94873000000007,124.48730499999965,115.51269500000035,206.6665039999998,165.2563479999999,125.51269500000035,122.56396500000028,110.38476599999922
78,125.25634799999989,109.23095699999976,108.46142599999985,113.3334960000002,280.0,125.12841800000024,132.43603499999972,121.15380900000036,111.15380900000036,197.6923829999996,166.53857400000015,125.76904300000024,127.82031300000017,110.76904300000024
79,124.35888699999941,106.79492200000004,107.82031300000017,117.43603499999972,267.5639650000003,123.0771479999994,128.58984400000008,115.51269500000035,107.56396500000028,187.05126999999993,164.48730499999965,123.84619099999964,127.17968800000017,107.56396500000028
80,119.61523400000078,98.58984400000008,108.84619099999964,119.61523400000078,253.3334960000002,119.74365200000011,122.30761700000039,111.15380900000036,106.0258789999998,179.7436520000001,159.7436520000001,121.53857400000015,120.76904300000024,110.25634799999989
81,114.35888699999941,90.25634799999989,110.89746099999957,118.9741210000002,242.56396500000028,116.15380900000036,117.43603499999972,109.87158199999976,106.41015599999992,178.3334960000002,154.3588869999994,119.87158199999976,112.94873000000007,116.41015599999992
82,112.43603499999972,88.9741210000002,110.89746099999957,115.12841800000024,239.23095699999976,115.51269500000035,118.20507799999996,111.53857400000015,107.56396500000028,180.76904300000024,150.89746099999957,119.23095699999976,109.23095699999976,114.48730499999965
83,115.51269500000035,96.41015599999992,109.23095699999976,111.0258789999998,243.7177729999994,120.51269500000035,125.0,114.23095699999976,108.84619099999964,182.6923829999996,151.0258789999998,119.87158199999976,111.6665039999998,105.76904300000024
84,120.51269500000035,106.6665039999998,109.35888699999941,110.51269500000035,251.6665039999998,129.23095699999976,132.56396500000028,116.15380900000036,109.23095699999976,180.0,153.58984400000008,121.9228520000006,116.6665039999998,103.0771479999994
85,122.94873000000007,111.41015599999992,111.0258789999998,113.0771479999994,256.4101559999999,135.2563479999999,134.48730499999965,115.76904300000024,108.20507799999996,172.43603499999972,156.15380900000036,124.10253900000043,118.9741210000002,108.84619099999964
86,121.0258789999998,107.94873000000007,110.38476599999922,114.23095699999976,253.46142599999985,133.20507799999996,127.82031300000017,112.82031300000017,105.89746099999957,163.7177729999994,156.79492200000004,124.10253900000043,116.53857400000015,111.41015599999992
87,116.6665039999998,99.61523400000078,107.30761700000039,112.56396500000028,243.84619099999964,123.58984400000008,115.89746099999957,109.23095699999976,103.84619099999964,157.3076170000004,155.38476599999922,121.9228520000006,111.6665039999998,106.15380900000036
88,112.82031300000017,91.79492200000004,106.53857400000015,111.2822270000006,231.53857400000015,112.82031300000017,105.25634799999989,107.17968800000017,103.20507799999996,153.84619099999964,152.43603499999972,119.48730499999965,107.17968800000017,103.58984400000008
89,111.2822270000006,87.56396500000028,109.87158199999976,112.82031300000017,221.9228520000006,107.94873000000007,100.89746099999957,107.17968800000017,103.7177729999994,152.43603499999972,149.3588869999994,118.58984400000008,104.74365200000011,110.0
90,112.43603499999972,87.05126999999993,112.82031300000017,114.48730499999965,218.7177729999994,111.41015599999992,103.0771479999994,108.0771479999994,104.48730499999965,152.82031300000017,147.17968800000017,118.84619099999964,105.51269500000035,115.0
91,115.25634799999989,89.35888699999941,111.9228520000006,113.3334960000002,222.17968800000017,119.23095699999976,107.56396500000028,108.7177729999994,105.12841800000024,155.0,147.56396500000028,119.74365200000011,109.35888699999941,110.38476599999922
92,117.94873000000007,92.56396500000028,109.87158199999976,111.6665039999998,228.0771479999994,124.87158199999976,110.12841800000024,109.23095699999976,106.0258789999998,158.0771479999994,151.15380900000036,121.2822270000006,114.61523400000078,104.74365200000011
93,120.12841800000024,95.89746099999957,110.89746099999957,112.69238299999961,232.43603499999972,124.61523400000078,110.64111300000059,110.12841800000024,107.69238299999961,161.15380900000036,157.17968800000017,124.35888699999941,119.23095699999976,107.94873000000007
94,123.84619099999964,101.0258789999998,114.10253900000043,116.15380900000036,235.51269500000035,121.15380900000036,112.69238299999961,111.41015599999992,110.64111300000059,165.6411130000006,165.0,129.61523400000078,124.48730499999965,113.9741210000002
95,131.9228520000006,109.74365200000011,117.30761700000039,118.7177729999994,240.0,120.89746099999957,119.35888699999941,113.46142599999985,114.48730499999965,172.82031300000017,173.9741210000002,137.56396500000028,132.94873000000007,112.17968800000017
96,142.43603499999972,118.9741210000002,120.25634799999989,118.84619099999964,244.10253900000043,126.53857400000015,129.48730499999965,116.2822270000006,118.20507799999996,180.76904300000024,182.05126999999993,146.79492200000004,143.84619099999964,106.9228520000006
97,148.20507799999996,121.41015599999992,123.20507799999996,116.9228520000006,240.6411130000006,133.46142599999985,137.6923829999996,119.10253900000043,119.48730499999965,183.46142599999985,185.38476599999922,153.3334960000002,150.2563479999999,108.46142599999985
98,143.46142599999985,113.3334960000002,122.82031300000017,112.56396500000028,225.0,135.38476599999922,138.9741210000002,120.64111300000059,117.05126999999993,176.9228520000006,181.6665039999998,152.82031300000017,146.41015599999992,113.46142599999985
99,130.51269500000035,99.35888699999941,116.15380900000036,106.0258789999998,201.2822270000006,130.51269500000035,133.46142599999985,120.12841800000024,112.82031300000017,164.3588869999994,172.6923829999996,144.61523400000078,134.3588869999994,110.89746099999957
100,117.43603499999972,88.20507799999996,107.43603499999972,100.89746099999957,180.38476599999922,122.69238299999961,125.76904300000024,118.7177729999994,110.0,152.43603499999972,163.20507799999996,133.46142599999985,122.43603499999972,103.0771479999994
101,110.51269500000035,84.48730499999965,103.46142599999985,101.79492200000004,169.48730499999965,117.43603499999972,121.0258789999998,117.82031300000017,110.51269500000035,145.2563479999999,156.0258789999998,125.89746099999957,116.53857400000015,102.69238299999961
102,110.25634799999989,86.41015599999992,104.74365200000011,107.69238299999961,167.82031300000017,117.56396500000028,121.0258789999998,117.17968800000017,112.56396500000028,141.6665039999998,151.2822270000006,123.84619099999964,116.9228520000006,110.51269500000035
103,112.69238299999961,88.9741210000002,105.89746099999957,113.0771479999994,168.46142599999985,121.6665039999998,124.10253900000043,116.15380900000036,113.84619099999964,138.9741210000002,148.20507799999996,125.0,119.87158199999976,113.84619099999964
104,113.9741210000002,88.46142599999985,104.35888699999941,113.9741210000002,165.76904300000024,125.64111300000059,126.9228520000006,115.0,113.3334960000002,135.89746099999957,147.05126999999993,126.2822270000006,121.41015599999992,108.3334960000002
105,111.41015599999992,83.46142599999985,103.20507799999996,111.9228520000006,158.3334960000002,125.51269500000035,127.17968800000017,114.61523400000078,112.05126999999993,132.43603499999972,148.20507799999996,126.15380900000036,118.7177729999994,105.12841800000024
106,105.64111300000059,75.12841800000024,104.10253900000043,109.35888699999941,147.56396500000028,121.0258789999998,125.51269500000035,115.25634799999989,111.15380900000036,128.84619099999964,150.38476599999922,124.10253900000043,111.9228520000006,109.74365200000011
107,100.0,67.05126999999993,104.23095699999976,106.79492200000004,136.53857400000015,116.2822270000006,124.10253900000043,115.76904300000024,111.0258789999998,125.64111300000059,151.0258789999998,120.25634799999989,103.7177729999994,112.56396500000028
108,97.94873000000007,62.56396500000028,102.69238299999961,104.87158199999976,128.46142599999985,116.0258789999998,124.48730499999965,116.0258789999998,111.41015599999992,123.58984400000008,149.10253900000043,116.2822270000006,98.20507799999996,108.20507799999996
109,99.74365200000011,62.17968800000017,103.0771479999994,105.12841800000024,124.48730499999965,120.25634799999989,126.15380900000036,116.2822270000006,111.79492200000004,123.0771479999994,145.76904300000024,115.0,96.9228520000006,106.2822270000006
110,102.69238299999961,63.589844000000085,107.43603499999972,108.0771479999994,123.3334960000002,125.12841800000024,127.82031300000017,117.05126999999993,111.79492200000004,123.58984400000008,143.46142599999985,117.94873000000007,98.58984400000008,113.58984400000008
111,104.48730499999965,64.61523400000078,111.9228520000006,110.89746099999957,121.79492200000004,126.6665039999998,128.46142599999985,117.56396500000028,111.41015599999992,124.61523400000078,143.9741210000002,123.58984400000008,101.53857400000015,120.25634799999989
112,105.0,64.61523400000078,112.05126999999993,111.0258789999998,116.53857400000015,125.0,128.0771479999994,117.94873000000007,110.89746099999957,124.23095699999976,147.17968800000017,128.20507799999996,104.23095699999976,116.0258789999998
113,104.35888699999941,63.0771479999994,109.35888699999941,109.61523400000078,106.0258789999998,122.17968800000017,126.2822270000006,118.20507799999996,110.51269500000035,120.64111300000059,149.48730499999965,129.23095699999976,104.10253900000043,108.20507799999996
114,101.9228520000006,58.974121000000196,107.56396500000028,108.9741210000002,92.56396500000028,119.87158199999976,123.20507799999996,118.46142599999985,110.0,113.0771479999994,147.6923829999996,125.64111300000059,99.48730499999965,109.74365200000011
115,98.7177729999994,53.974121000000196,105.89746099999957,108.46142599999985,80.89746099999957,119.23095699999976,120.0,117.56396500000028,109.61523400000078,105.25634799999989,141.6665039999998,119.35888699999941,92.56396500000028,117.17968800000017
116,97.82031300000017,52.56396500000028,102.94873000000007,107.05126999999993,76.9228520000006,120.76904300000024,118.58984400000008,115.25634799999989,110.38476599999922,103.0771479999994,136.53857400000015,114.61523400000078,88.7177729999994,117.94873000000007
117,101.6665039999998,57.56396500000028,101.79492200000004,106.15380900000036,82.17968800000017,123.58984400000008,119.23095699999976,113.0771479999994,112.56396500000028,109.48730499999965,137.43603499999972,115.38476599999922,91.53857400000015,112.43603499999972
118,107.94873000000007,66.2822270000006,105.64111300000059,108.0771479999994,92.05126999999993,125.12841800000024,120.51269500000035,113.3334960000002,115.0,119.61523400000078,144.10253900000043,121.53857400000015,99.35888699999941,111.2822270000006
119,112.30761700000039,72.82031300000017,111.41015599999992,111.41015599999992,98.46142599999985,123.3334960000002,120.38476599999922,115.25634799999989,115.76904300000024,125.0,150.2563479999999,128.20507799999996,106.41015599999992,114.48730499999965
120,111.79492200000004,72.82031300000017,112.05126999999993,111.79492200000004,96.0258789999998,119.35888699999941,117.94873000000007,116.6665039999998,114.10253900000043,121.2822270000006,149.7436520000001,129.61523400000078,108.46142599999985,111.79492200000004
121,106.15380900000036,65.76904300000024,105.89746099999957,108.3334960000002,85.25634799999989,115.64111300000059,113.84619099999964,116.0258789999998,110.89746099999957,111.0258789999998,141.53857400000015,124.35888699999941,104.10253900000043,103.7177729999994
122,97.05126999999993,54.48730499999965,99.10253900000043,104.61523400000078,71.6665039999998,112.94873000000007,109.23095699999976,113.84619099999964,108.0771479999994,101.15380900000036,130.38476599999922,115.64111300000059,95.25634799999989,102.94873000000007
123,88.0771479999994,43.846190999999635,96.0258789999998,103.3334960000002,61.666503999999804,110.38476599999922,105.64111300000059,111.15380900000036,106.9228520000006,97.17968800000017,122.43603499999972,107.69238299999961,86.53857400000015,112.43603499999972
124,82.94873000000007,38.20507799999996,95.51269500000035,103.3334960000002,57.94873000000007,107.17968800000017,104.10253900000043,108.3334960000002,106.9228520000006,99.74365200000011,121.2822270000006,102.56396500000028,82.30761700000039,118.9741210000002
125,82.56396500000028,38.0771479999994,95.64111300000059,103.46142599999985,58.333496000000196,103.9741210000002,104.74365200000011,106.53857400000015,107.30761700000039,103.84619099999964,124.74365200000011,99.87158199999976,83.0771479999994,115.25634799999989
126,83.0771479999994,39.35888699999941,96.6665039999998,104.74365200000011,57.30761700000039,101.2822270000006,106.2822270000006,107.05126999999993,107.30761700000039,103.0771479999994,126.79492200000004,97.56396500000028,83.3334960000002,111.2822270000006
127,80.38476599999922,37.69238299999961,97.94873000000007,107.17968800000017,52.69238299999961,99.61523400000078,107.17968800000017,109.74365200000011,106.9228520000006,95.64111300000059,122.56396500000028,94.10253900000043,78.58984400000008,114.87158199999976
128,75.0,33.846190999999635,96.0258789999998,108.46142599999985,48.0771479999994,100.0,107.30761700000039,112.43603499999972,106.79492200000004,87.05126999999993,113.0771479999994,89.74365200000011,70.64111300000059,118.3334960000002
129,71.79492200000004,32.94873000000007,91.0258789999998,106.79492200000004,49.48730499999965,104.23095699999976,107.94873000000007,113.7177729999994,107.82031300000017,84.61523400000078,105.12841800000024,86.79492200000004,66.79492200000004,113.7177729999994
130,74.23095699999976,37.30761700000039,88.3334960000002,104.74365200000011,58.333496000000196,111.9228520000006,110.25634799999989,114.23095699999976,110.51269500000035,90.0,105.25634799999989,87.82031300000017,71.41015599999992,107.82031300000017
131,80.38476599999922,45.25634799999989,91.41015599999992,105.25634799999989,69.61523400000078,119.10253900000043,114.10253900000043,114.48730499999965,113.7177729999994,97.82031300000017,113.9741210000002,91.9228520000006,81.41015599999992,109.87158199999976
132,85.76904300000024,52.17968800000017,96.2822270000006,107.56396500000028,77.17968800000017,122.05126999999993,118.20507799999996,114.48730499999965,115.38476599999922,101.41015599999992,125.76904300000024,95.64111300000059,90.0,114.23095699999976
133,87.17968800000017,54.74365200000011,97.30761700000039,109.10253900000043,78.58984400000008,120.12841800000024,121.0258789999998,114.48730499999965,114.61523400000078,99.23095699999976,133.7177729999994,96.41015599999992,91.6665039999998,110.89746099999957
134,83.9741210000002,52.05126999999993,95.0,109.74365200000011,74.87158199999976,116.15380900000036,121.79492200000004,115.51269500000035,112.69238299999961,94.61523400000078,134.10253900000043,95.0,86.0258789999998,104.74365200000011
135,78.3334960000002,46.025878999999804,94.35888699999941,111.2822270000006,67.82031300000017,113.0771479999994,121.41015599999992,118.20507799999996,111.6665039999998,91.79492200000004,128.0771479999994,94.35888699999941,76.0258789999998,107.43603499999972
136,73.7177729999994,41.025878999999804,96.41015599999992,113.46142599999985,60.38476599999922,112.05126999999993,121.15380900000036,121.15380900000036,112.43603499999972,92.69238299999961,121.15380900000036,96.0258789999998,67.69238299999961,116.0258789999998
137,73.9741210000002,42.05126999999993,98.46142599999985,113.84619099999964,55.76904300000024,113.3334960000002,121.6665039999998,122.17968800000017,114.87158199999976,96.2822270000006,119.35888699999941,100.0,66.53857400000015,117.43603499999972
138,78.84619099999964,48.589844000000085,99.23095699999976,111.6665039999998,55.64111300000059,115.76904300000024,122.30761700000039,121.41015599999992,117.30761700000039,99.35888699999941,123.84619099999964,104.87158199999976,72.82031300000017,110.51269500000035
139,82.69238299999961,54.48730499999965,99.74365200000011,108.58984400000008,57.69238299999961,117.05126999999993,121.53857400000015,119.74365200000011,117.94873000000007,98.46142599999985,129.23095699999976,107.94873000000007,80.64111300000059,106.9228520000006
140,81.15380900000036,53.846190999999635,99.10253900000043,105.76904300000024,58.846190999999635,115.51269500000035,119.10253900000043,118.0771479999994,116.0258789999998,93.3334960000002,128.20507799999996,106.53857400000015,83.3334960000002,110.12841800000024
141,75.64111300000059,47.17968800000017,95.89746099999957,103.0771479999994,59.48730499999965,112.94873000000007,117.05126999999993,117.17968800000017,112.56396500000028,88.20507799999996,119.23095699999976,101.0258789999998,80.89746099999957,110.76904300000024
142,72.30761700000039,39.87158199999976,93.0771479999994,102.05126999999993,61.79492200000004,112.56396500000028,117.30761700000039,117.82031300000017,110.12841800000024,87.17968800000017,108.84619099999964,95.76904300000024,78.20507799999996,106.15380900000036
143,73.9741210000002,35.51269500000035,95.38476599999922,104.23095699999976,64.61523400000078,115.12841800000024,119.35888699999941,119.61523400000078,110.25634799999989,88.9741210000002,104.61523400000078,95.51269500000035,78.46142599999985,105.76904300000024
144,77.69238299999961,33.333496000000196,101.79492200000004,108.20507799999996,63.7177729999994,117.43603499999972,119.74365200000011,120.64111300000059,111.9228520000006,88.0771479999994,108.3334960000002,99.48730499999965,79.23095699999976,112.94873000000007
145,79.23095699999976,31.025878999999804,104.87158199999976,109.48730499999965,57.43603499999972,116.79492200000004,116.79492200000004,119.35888699999941,112.94873000000007,81.79492200000004,115.0,103.20507799999996,76.6665039999998,116.15380900000036
146,77.69238299999961,28.846190999999635,101.41015599999992,107.43603499999972,50.64111300000059,114.35888699999941,112.17968800000017,116.41015599999992,112.17968800000017,73.9741210000002,118.58984400000008,103.0771479999994,71.2822270000006,109.23095699999976
147,75.89746099999957,28.717772999999397,96.79492200000004,106.41015599999992,50.38476599999922,113.20507799999996,109.35888699999941,114.23095699999976,110.25634799999989,71.0258789999998,116.53857400000015,100.51269500000035,67.30761700000039,103.20507799999996
148,77.05126999999993,32.56396500000028,96.79492200000004,109.74365200000011,58.46142599999985,115.25634799999989,110.76904300000024,114.10253900000043,108.58984400000008,76.15380900000036,111.0258789999998,98.84619099999964,69.23095699999976,108.58984400000008
149,82.05126999999993,41.153809000000365,100.25634799999989,114.74365200000011,69.74365200000011,119.23095699999976,114.61523400000078,115.12841800000024,108.3334960000002,86.9228520000006,107.17968800000017,99.74365200000011,77.94873000000007,117.30761700000039
150,89.10253900000043,51.79492200000004,102.56396500000028,116.53857400000015,76.15380900000036,122.05126999999993,117.30761700000039,115.76904300000024,109.35888699999941,96.53857400000015,108.0771479999994,102.05126999999993,89.87158199999976,117.30761700000039
151,93.3334960000002,58.7177729999994,102.69238299999961,113.9741210000002,73.20507799999996,121.0258789999998,115.76904300000024,115.76904300000024,110.51269500000035,98.46142599999985,112.30761700000039,103.9741210000002,97.82031300000017,112.30761700000039
152,90.25634799999989,56.9228520000006,102.05126999999993,109.61523400000078,63.0771479999994,116.15380900000036,110.0,115.25634799999989,110.38476599999922,90.51269500000035,115.38476599999922,103.7177729999994,95.51269500000035,113.0771479999994
153,80.64111300000059,47.30761700000039,99.87158199999976,105.12841800000024,53.589844000000085,110.38476599999922,104.10253900000043,114.10253900000043,108.84619099999964,77.69238299999961,114.10253900000043,100.12841800000024,83.9741210000002,117.05126999999993
154,70.89746099999957,37.30761700000039,94.87158199999976,101.41015599999992,52.69238299999961,107.94873000000007,102.30761700000039,112.43603499999972,107.30761700000039,68.20507799999996,109.87158199999976,94.48730499999965,71.2822270000006,114.23095699999976
155,67.43603499999972,33.46142599999985,90.51269500000035,100.51269500000035,61.025878999999804,110.25634799999989,105.51269500000035,111.15380900000036,107.17968800000017,66.41015599999992,106.41015599999992,90.12841800000024,66.0258789999998,107.43603499999972
156,70.12841800000024,36.025878999999804,90.51269500000035,103.46142599999985,71.53857400000015,114.23095699999976,110.38476599999922,110.89746099999957,108.3334960000002,69.10253900000043,105.51269500000035,89.35888699999941,69.35888699999941,107.94873000000007
157,74.61523400000078,39.87158199999976,93.46142599999985,107.43603499999972,76.0258789999998,116.2822270000006,112.69238299999961,110.76904300000024,109.74365200000011,69.87158199999976,106.41015599999992,91.41015599999992,76.6665039999998,114.61523400000078
158,76.2822270000006,41.53857400000015,94.23095699999976,108.58984400000008,72.05126999999993,115.64111300000059,111.15380900000036,110.38476599999922,110.25634799999989,66.15380900000036,107.56396500000028,93.46142599999985,82.30761700000039,115.0
159,74.61523400000078,40.897460999999566,92.56396500000028,107.05126999999993,63.333496000000196,115.12841800000024,108.46142599999985,110.25634799999989,110.51269500000035,61.2822270000006,107.56396500000028,94.10253900000043,84.23095699999976,107.56396500000028
160,71.53857400000015,39.48730499999965,92.69238299999961,106.79492200000004,55.12841800000024,116.15380900000036,108.20507799999996,112.43603499999972,111.41015599999992,60.51269500000035,105.89746099999957,94.23095699999976,83.20507799999996,104.87158199999976
161,70.51269500000035,38.589844000000085,96.41015599999992,109.10253900000043,50.12841800000024,118.58984400000008,111.9228520000006,116.2822270000006,112.82031300000017,66.0258789999998,102.82031300000017,95.0,81.15380900000036,112.05126999999993
162,73.58984400000008,38.974121000000196,99.61523400000078,110.89746099999957,47.94873000000007,120.76904300000024,117.69238299999961,119.23095699999976,113.3334960000002,75.25634799999989,100.25634799999989,95.76904300000024,80.51269500000035,117.56396500000028
163,79.35888699999941,40.51269500000035,99.23095699999976,109.48730499999965,47.05126999999993,121.53857400000015,122.69238299999961,119.35888699999941,112.17968800000017,82.94873000000007,100.51269500000035,96.0258789999998,81.41015599999992,113.84619099999964
164,83.84619099999964,42.05126999999993,97.82031300000017,106.41015599999992,46.53857400000015,119.61523400000078,124.61523400000078,117.94873000000007,110.38476599999922,85.0,104.87158199999976,96.2822270000006,81.53857400000015,110.0
165,84.61523400000078,43.333496000000196,97.43603499999972,104.61523400000078,47.30761700000039,115.76904300000024,123.84619099999964,117.30761700000039,110.12841800000024,81.53857400000015,112.05126999999993,97.43603499999972,79.74365200000011,113.58984400000008
166,82.94873000000007,45.76904300000024,96.9228520000006,104.23095699999976,51.2822270000006,112.69238299999961,122.17968800000017,118.3334960000002,112.43603499999972,76.9228520000006,118.84619099999964,99.74365200000011,78.20507799999996,116.6665039999998
167,81.9228520000006,49.61523400000078,94.48730499999965,103.7177729999994,57.69238299999961,112.69238299999961,120.12841800000024,120.25634799999989,116.6665039999998,75.64111300000059,121.0258789999998,101.41015599999992,80.12841800000024,110.51269500000035
168,81.6665039999998,51.410155999999915,92.82031300000017,103.58984400000008,62.69238299999961,114.87158199999976,117.56396500000028,121.79492200000004,120.89746099999957,77.30761700000039,116.0258789999998,100.89746099999957,85.0,103.0771479999994
169,81.0258789999998,47.94873000000007,94.61523400000078,104.61523400000078,63.333496000000196,116.53857400000015,115.12841800000024,122.30761700000039,122.82031300000017,78.58984400000008,105.76904300000024,98.3334960000002,89.48730499999965,105.76904300000024
170,80.25634799999989,41.79492200000004,97.82031300000017,105.89746099999957,62.05126999999993,117.56396500000028,114.87158199999976,121.2822270000006,121.79492200000004,78.20507799999996,96.53857400000015,95.64111300000059,92.30761700000039,113.0771479999994
171,81.79492200000004,39.48730499999965,99.10253900000043,105.89746099999957,63.589844000000085,119.61523400000078,118.20507799999996,120.0,118.9741210000002,77.56396500000028,94.10253900000043,95.89746099999957,95.0,113.46142599999985
172,85.64111300000059,43.974121000000196,99.10253900000043,105.51269500000035,67.94873000000007,122.43603499999972,122.69238299999961,119.87158199999976,116.15380900000036,77.69238299999961,98.7177729999994,100.25634799999989,97.94873000000007,109.23095699999976
173,87.94873000000007,50.25634799999989,100.51269500000035,106.53857400000015,69.10253900000043,122.94873000000007,124.61523400000078,121.0258789999998,114.61523400000078,76.6665039999998,104.23095699999976,106.15380900000036,97.94873000000007,111.53857400000015
174,85.12841800000024,51.153809000000365,101.53857400000015,108.0771479999994,61.79492200000004,118.84619099999964,121.9228520000006,121.6665039999998,113.58984400000008,71.79492200000004,104.74365200000011,109.23095699999976,92.56396500000028,118.7177729999994
175,78.3334960000002,45.64111300000059,98.7177729999994,107.56396500000028,48.333496000000196,111.79492200000004,115.76904300000024,119.74365200000011,112.17968800000017,63.589844000000085,98.7177729999994,106.79492200000004,83.7177729999994,118.46142599999985
176,71.79492200000004,38.0771479999994,93.84619099999964,105.25634799999989,36.025878999999804,105.38476599999922,108.9741210000002,115.38476599999922,110.0,55.51269500000035,89.87158199999976,100.64111300000059,75.12841800000024,110.12841800000024
177,68.3334960000002,32.69238299999961,92.30761700000039,104.23095699999976,30.897460999999566,101.53857400000015,103.9741210000002,111.0258789999998,108.0771479999994,50.897460999999566,82.30761700000039,95.38476599999922,69.61523400000078,106.0258789999998
178,69.35888699999941,31.410155999999915,95.76904300000024,106.15380900000036,33.7177729999994,100.12841800000024,102.17968800000017,108.84619099999964,107.17968800000017,51.53857400000015,77.17968800000017,94.35888699999941,68.3334960000002,109.61523400000078
179,74.35888699999941,33.846190999999635,99.87158199999976,108.84619099999964,40.76904300000024,101.2822270000006,103.9741210000002,108.7177729999994,107.69238299999961,56.79492200000004,73.9741210000002,97.30761700000039,71.53857400000015,111.0258789999998
180,81.15380900000036,37.43603499999972,101.2822270000006,110.38476599999922,46.2822270000006,104.35888699999941,107.43603499999972,109.48730499999965,109.35888699999941,62.56396500000028,71.2822270000006,101.6665039999998,76.9228520000006,106.2822270000006
181,85.0,38.333496000000196,101.53857400000015,110.0,46.410155999999915,107.94873000000007,109.23095699999976,110.12841800000024,110.76904300000024,63.46142599999985,68.9741210000002,104.23095699999976,80.38476599999922,105.76904300000024
182,83.46142599999985,35.64111300000059,102.05126999999993,108.46142599999985,42.94873000000007,110.89746099999957,107.94873000000007,110.0,110.64111300000059,57.17968800000017,67.69238299999961,103.84619099999964,79.23095699999976,114.10253900000043
183,79.87158199999976,34.102539000000434,101.2822270000006,105.89746099999957,42.05126999999993,113.58984400000008,105.64111300000059,108.9741210000002,109.10253900000043,48.974121000000196,68.7177729999994,102.17968800000017,75.76904300000024,119.35888699999941
184,79.61523400000078,38.974121000000196,99.61523400000078,104.23095699999976,48.20507799999996,117.17968800000017,104.87158199999976,108.0771479999994,107.56396500000028,46.2822270000006,72.17968800000017,102.30761700000039,74.23095699999976,112.43603499999972
185,84.35888699999941,48.846190999999635,100.76904300000024,106.0258789999998,58.0771479999994,120.51269500000035,106.2822270000006,108.7177729999994,106.9228520000006,51.025878999999804,76.41015599999992,105.64111300000059,74.87158199999976,103.20507799999996
186,89.87158199999976,55.76904300000024,105.51269500000035,110.38476599999922,63.20507799999996,120.51269500000035,108.0771479999994,110.25634799999989,107.17968800000017,57.43603499999972,78.84619099999964,109.87158199999976,74.10253900000043,103.9741210000002
187,90.76904300000024,53.20507799999996,108.3334960000002,112.56396500000028,57.56396500000028,115.89746099999957,108.0771479999994,110.89746099999957,107.05126999999993,58.333496000000196,77.82031300000017,110.12841800000024,69.87158199999976,110.12841800000024
188,85.89746099999957,42.69238299999961,104.87158199999976,110.0,43.974121000000196,108.9741210000002,105.76904300000024,109.61523400000078,106.0258789999998,51.9228520000006,74.74365200000011,104.74365200000011,64.35888699999941,110.64111300000059
189,79.23095699999976,32.43603499999972,98.58984400000008,106.2822270000006,31.282227000000603,104.48730499999965,102.94873000000007,107.94873000000007,105.0,43.333496000000196,72.05126999999993,96.6665039999998,62.05126999999993,108.20507799999996
190,76.0258789999998,29.615234000000783,96.53857400000015,106.53857400000015,28.589844000000085,105.76904300000024,102.94873000000007,107.94873000000007,105.0,39.74365200000011,70.89746099999957,91.79492200000004,66.0258789999998,111.6665039999998
191,78.9741210000002,36.025878999999804,99.48730499999965,110.64111300000059,38.46142599999985,111.9228520000006,107.30761700000039,110.0,106.53857400000015,46.2822270000006,70.12841800000024,93.20507799999996,75.89746099999957,117.05126999999993
192,86.53857400000015,47.69238299999961,102.30761700000039,113.7177729999994,55.897460999999566,119.23095699999976,114.74365200000011,112.94873000000007,109.23095699999976,61.410155999999915,69.23095699999976,98.3334960000002,86.79492200000004,113.20507799999996
193,92.56396500000028,57.56396500000028,101.2822270000006,111.9228520000006,70.0,122.43603499999972,121.0258789999998,115.89746099999957,111.6665039999998,76.79492200000004,68.58984400000008,102.43603499999972,91.41015599999992,103.20507799999996
194,90.76904300000024,59.35888699999941,97.56396500000028,106.0258789999998,69.61523400000078,118.7177729999994,121.53857400000015,117.69238299999961,112.56396500000028,82.30761700000039,69.23095699999976,101.2822270000006,84.87158199999976,100.38476599999922
195,80.25634799999989,52.17968800000017,92.56396500000028,98.84619099999964,51.79492200000004,110.0,116.15380900000036,117.30761700000039,111.15380900000036,75.0,71.9228520000006,94.61523400000078,70.12841800000024,106.53857400000015
196,68.0771479999994,42.30761700000039,87.17968800000017,93.9741210000002,26.666503999999804,102.94873000000007,109.48730499999965,115.0,108.3334960000002,61.79492200000004,76.9228520000006,87.05126999999993,57.43603499999972,109.48730499999965
197,63.846190999999635,38.46142599999985,85.12841800000024,94.61523400000078,10.769043000000238,104.61523400000078,108.0771479999994,113.20507799999996,106.79492200000004,54.35888699999941,81.9228520000006,85.12841800000024,57.17968800000017,105.25634799999989
198,71.0258789999998,45.76904300000024,90.12841800000024,102.17968800000017,14.615234000000783,115.0,114.35888699999941,113.46142599999985,108.58984400000008,58.46142599999985,82.56396500000028,91.41015599999992,70.64111300000059,104.35888699999941
199,84.23095699999976,60.25634799999989,99.10253900000043,111.79492200000004,33.0771479999994,126.79492200000004,123.84619099999964,115.12841800000024,112.56396500000028,70.76904300000024,76.41015599999992,101.6665039999998,88.46142599999985,111.41015599999992
200,94.35888699999941,72.17968800000017,103.58984400000008,116.2822270000006,50.51269500000035,131.79492200000004,130.0,116.0258789999998,115.76904300000024,82.17968800000017,66.53857400000015,107.82031300000017,98.3334960000002,115.76904300000024
201,95.51269500000035,73.3334960000002,100.51269500000035,113.20507799999996,52.94873000000007,127.17968800000017,128.46142599999985,115.64111300000059,116.2822270000006,85.38476599999922,60.76904300000024,106.2822270000006,94.74365200000011,110.64111300000059
202,88.58984400000008,62.82031300000017,95.38476599999922,107.82031300000017,37.56396500000028,116.79492200000004,120.89746099999957,115.64111300000059,114.10253900000043,77.94873000000007,64.61523400000078,100.76904300000024,81.41015599999992,105.12841800000024
203,78.58984400000008,47.43603499999972,93.84619099999964,105.38476599999922,13.846190999999635,107.43603499999972,112.30761700000039,116.9228520000006,111.0258789999998,63.0771479999994,76.0258789999998,96.9228520000006,67.69238299999961,107.94873000000007
204,72.17968800000017,37.30761700000039,94.87158199999976,105.38476599999922,-3.846190999999635,103.9741210000002,107.17968800000017,118.20507799999996,108.9741210000002,48.589844000000085,86.2822270000006,96.9228520000006,62.17968800000017,111.79492200000004
205,72.69238299999961,38.333496000000196,94.61523400000078,104.35888699999941,-5.0,107.43603499999972,107.05126999999993,118.3334960000002,108.84619099999964,42.30761700000039,87.69238299999961,98.46142599999985,67.82031300000017,108.20507799999996
206,78.20507799999996,47.94873000000007,93.20507799999996,101.9228520000006,8.333496000000196,114.35888699999941,109.48730499999965,117.05126999999993,110.25634799999989,46.9228520000006,79.10253900000043,98.7177729999994,80.38476599999922,103.7177729999994
207,82.05126999999993,57.56396500000028,92.69238299999961,100.76904300000024,22.82031300000017,119.23095699999976,110.89746099999957,115.38476599999922,111.6665039999998,57.17968800000017,65.38476599999922,96.2822270000006,90.76904300000024,108.84619099999964
208,80.25634799999989,60.0,92.17968800000017,101.0258789999998,25.51269500000035,118.9741210000002,109.48730499999965,113.7177729999994,111.79492200000004,63.589844000000085,54.35888699999941,92.17968800000017,92.43603499999972,118.20507799999996
209,74.61523400000078,55.0,90.0,100.51269500000035,14.230956999999762,115.0,106.79492200000004,112.30761700000039,111.15380900000036,60.0,51.53857400000015,89.10253900000043,85.64111300000059,118.7177729999994
210,70.12841800000024,48.0771479999994,88.9741210000002,99.23095699999976,-1.9228520000006029,110.64111300000059,105.38476599999922,111.79492200000004,111.0258789999998,46.410155999999915,56.410155999999915,89.74365200000011,75.76904300000024,111.9228520000006
211,69.35888699999941,44.23095699999976,92.43603499999972,99.23095699999976,-12.692382999999609,108.0771479999994,106.15380900000036,112.30761700000039,111.41015599999992,28.077147999999397,63.20507799999996,94.10253900000043,68.0771479999994,110.0
212,71.53857400000015,45.76904300000024,97.56396500000028,100.89746099999957,-14.230713000000378,106.9228520000006,107.94873000000007,112.56396500000028,111.6665039999998,12.43603499999972,65.25634799999989,97.94873000000007,64.87158199999976,113.58984400000008
213,75.12841800000024,51.025878999999804,99.48730499999965,102.82031300000017,-9.8718259999996,107.30761700000039,109.23095699999976,111.79492200000004,111.2822270000006,6.025878999999804,60.76904300000024,98.0771479999994,67.94873000000007,112.43603499999972
214,79.61523400000078,56.410155999999915,98.46142599999985,105.0,-4.743652000000111,109.48730499999965,110.0,110.64111300000059,110.51269500000035,9.230956999999762,53.589844000000085,95.25634799999989,77.05126999999993,105.64111300000059
215,84.23095699999976,58.7177729999994,99.61523400000078,108.9741210000002,-1.5385740000001533,112.17968800000017,111.41015599999992,111.2822270000006,110.12841800000024,16.153809000000365,49.23095699999976,93.9741210000002,89.23095699999976,104.48730499999965
216,88.3334960000002,58.46142599999985,104.10253900000043,113.58984400000008,1.0258789999998044,113.84619099999964,113.7177729999994,113.84619099999964,110.38476599999922,17.82031300000017,51.025878999999804,96.41015599999992,98.84619099999964,111.41015599999992
217,91.0258789999998,59.48730499999965,106.6665039999998,114.35888699999941,5.256347999999889,113.20507799999996,116.2822270000006,116.53857400000015,111.41015599999992,9.358886999999413,57.82031300000017,100.25634799999989,101.15380900000036,114.48730499999965
218,91.79492200000004,63.974121000000196,103.84619099999964,109.74365200000011,10.897460999999566,110.0,116.79492200000004,117.05126999999993,113.0771479999994,-7.307617000000391,65.38476599999922,102.05126999999993,95.0,108.58984400000008
219,89.48730499999965,68.46142599999985,98.9741210000002,103.9741210000002,14.230956999999762,105.0,113.3334960000002,115.64111300000059,114.48730499999965,-25.89746100000002,68.20507799999996,100.38476599999922,83.3334960000002,104.35888699999941
220,83.84619099999964,68.0771479999994,96.15380900000036,101.0258789999998,11.666503999999804,99.87158199999976,106.9228520000006,113.46142599999985,114.23095699999976,-40.0,63.7177729999994,96.6665039999998,72.05126999999993,109.35888699999941
221,78.58984400000008,63.589844000000085,95.25634799999989,100.64111300000059,6.025878999999804,98.3334960000002,101.15380900000036,112.17968800000017,111.79492200000004,-44.74365200000011,53.589844000000085,93.7177729999994,68.3334960000002,114.23095699999976
222,77.82031300000017,61.025878999999804,95.0,100.76904300000024,3.4614259999998467,102.69238299999961,100.0,112.69238299999961,109.35888699999941,-39.23071300000038,44.48730499999965,93.9741210000002,74.87158199999976,110.12841800000024
223,82.43603499999972,63.974121000000196,96.9228520000006,100.89746099999957,7.307617000000391,111.0258789999998,104.23095699999976,115.38476599999922,109.35888699999941,-27.435790999999426,41.79492200000004,97.94873000000007,87.17968800000017,104.61523400000078
224,88.7177729999994,69.87158199999976,101.41015599999992,101.6665039999998,15.0,117.69238299999961,111.0258789999998,118.84619099999964,112.69238299999961,-15.1281740000004,46.153809000000365,103.46142599999985,96.9228520000006,108.0771479999994
225,93.0771479999994,73.46142599999985,103.7177729999994,101.9228520000006,20.641113000000587,118.9741210000002,116.9228520000006,120.51269500000035,117.43603499999972,-7.051270000000386,53.333496000000196,106.9228520000006,100.0,114.10253900000043
226,94.10253900000043,72.56396500000028,100.51269500000035,100.76904300000024,20.641113000000587,115.38476599999922,119.23095699999976,119.61523400000078,120.64111300000059,-4.871825999999601,58.589844000000085,106.79492200000004,98.58984400000008,111.79492200000004
227,92.94873000000007,68.46142599999985,95.51269500000035,99.87158199999976,15.384765999999217,110.64111300000059,117.69238299999961,117.17968800000017,120.64111300000059,-7.948729999999614,60.12841800000024,105.0,96.0258789999998,105.25634799999989
228,90.89746099999957,64.23095699999976,94.87158199999976,101.9228520000006,8.717772999999397,108.0771479999994,113.9741210000002,115.12841800000024,117.94873000000007,-14.102538999999979,59.61523400000078,103.84619099999964,93.3334960000002,106.79492200000004
229,89.61523400000078,62.69238299999961,98.46142599999985,106.15380900000036,6.538574000000153,108.7177729999994,110.64111300000059,114.35888699999941,113.9741210000002,-19.230713000000378,59.61523400000078,103.84619099999964,89.74365200000011,114.35888699999941
230,90.25634799999989,65.38476599999922,101.41015599999992,109.48730499999965,11.922852000000603,112.17968800000017,109.74365200000011,114.61523400000078,111.15380900000036,-20.0,61.410155999999915,103.84619099999964,86.0258789999998,115.51269500000035
231,91.9228520000006,70.64111300000059,101.6665039999998,111.2822270000006,21.666503999999804,115.64111300000059,111.2822270000006,115.76904300000024,111.6665039999998,-16.666747999999643,63.589844000000085,103.58984400000008,83.84619099999964,108.9741210000002
232,92.56396500000028,74.48730499999965,101.6665039999998,112.69238299999961,27.94873000000007,115.38476599999922,113.46142599999985,117.69238299999961,115.76904300000024,-13.076904000000013,63.20507799999996,103.7177729999994,84.48730499999965,106.53857400000015
233,91.79492200000004,75.25634799999989,101.6665039999998,113.20507799999996,25.897460999999566,111.41015599999992,114.87158199999976,118.9741210000002,120.25634799999989,-11.923095999999987,58.46142599999985,104.10253900000043,88.58984400000008,111.0258789999998
234,91.79492200000004,75.89746099999957,99.74365200000011,110.38476599999922,19.358886999999413,108.3334960000002,115.89746099999957,119.10253900000043,122.05126999999993,-11.153809000000365,52.05126999999993,104.61523400000078,96.15380900000036,111.9228520000006
235,94.35888699999941,79.23095699999976,96.6665039999998,105.25634799999989,17.43603499999972,111.41015599999992,118.0771479999994,118.58984400000008,120.51269500000035,-7.564209000000574,49.102539000000434,105.38476599999922,104.35888699999941,105.89746099999957
236,97.56396500000028,83.84619099999964,96.6665039999998,102.17968800000017,24.615234000000783,120.64111300000059,121.9228520000006,118.84619099999964,117.69238299999961,-1.153809000000365,51.666503999999804,107.56396500000028,108.0771479999994,103.7177729999994
237,97.94873000000007,84.87158199999976,100.64111300000059,103.3334960000002,37.17968800000017,130.2563479999999,126.0258789999998,119.61523400000078,115.64111300000059,4.358886999999413,56.666503999999804,110.38476599999922,103.58984400000008,110.38476599999922
238,95.25634799999989,80.12841800000024,103.3334960000002,105.51269500000035,47.30761700000039,133.9741210000002,128.58984400000008,119.87158199999976,114.74365200000011,5.256347999999889,59.102539000000434,112.05126999999993,94.35888699999941,114.74365200000011
239,92.17968800000017,72.43603499999972,101.79492200000004,105.25634799999989,49.61523400000078,130.2563479999999,128.3334960000002,119.10253900000043,114.61523400000078,2.1796880000001693,57.56396500000028,111.79492200000004,88.3334960000002,108.9741210000002
240,91.53857400000015,66.53857400000015,99.35888699999941,103.58984400000008,44.23095699999976,122.17968800000017,125.64111300000059,118.7177729999994,115.0,-1.9228520000006029,54.74365200000011,110.51269500000035,90.76904300000024,102.82031300000017
241,93.20507799999996,63.7177729999994,99.61523400000078,103.0771479999994,36.153809000000365,113.84619099999964,122.17968800000017,119.74365200000011,115.64111300000059,-3.4614259999998467,55.51269500000035,109.74365200000011,100.64111300000059,107.05126999999993
242,96.2822270000006,63.0771479999994,101.0258789999998,103.58984400000008,31.538574000000153,109.61523400000078,120.51269500000035,120.89746099999957,116.53857400000015,0.38476599999921746,61.9228520000006,110.51269500000035,113.0771479999994,114.87158199999976
243,100.38476599999922,63.20507799999996,101.2822270000006,103.9741210000002,33.589844000000085,111.15380900000036,122.30761700000039,121.0258789999998,117.56396500000028,9.102539000000434,71.6665039999998,113.46142599999985,124.48730499999965,114.61523400000078
244,104.87158199999976,62.82031300000017,102.17968800000017,104.74365200000011,39.23095699999976,116.79492200000004,126.53857400000015,120.38476599999922,118.3334960000002,17.56396500000028,79.35888699999941,118.3334960000002,132.3076170000004,109.74365200000011
245,108.58984400000008,61.410155999999915,106.0258789999998,107.05126999999993,42.56396500000028,122.30761700000039,129.3588869999994,120.12841800000024,117.94873000000007,19.358886999999413,80.25634799999989,123.84619099999964,135.2563479999999,110.51269500000035
246,111.6665039999998,60.76904300000024,110.0,109.23095699999976,40.897460999999566,124.74365200000011,128.46142599999985,120.25634799999989,115.76904300000024,13.589844000000085,74.87158199999976,127.43603499999972,134.87158199999976,114.48730499999965
247,115.89746099999957,63.7177729999994,110.38476599999922,109.61523400000078,37.56396500000028,124.48730499999965,124.61523400000078,120.25634799999989,112.94873000000007,7.051269999999931,68.84619099999964,128.0771479999994,135.51269500000035,111.41015599999992
248,121.41015599999992,70.51269500000035,108.58984400000008,109.48730499999965,37.94873000000007,123.0771479999994,121.0258789999998,120.51269500000035,111.15380900000036,7.307617000000391,68.20507799999996,127.69238299999961,138.9741210000002,103.0771479999994
249,125.51269500000035,77.17968800000017,109.23095699999976,112.05126999999993,43.0771479999994,120.25634799999989,120.25634799999989,121.15380900000036,111.53857400000015,15.0,73.84619099999964,128.58984400000008,142.6923829999996,101.79492200000004
250,125.76904300000024,79.87158199999976,112.43603499999972,116.2822270000006,49.87158199999976,116.15380900000036,122.43603499999972,121.53857400000015,113.84619099999964,24.230956999999762,82.30761700000039,131.2822270000006,142.94873000000007,108.84619099999964
251,123.0771479999994,79.23095699999976,113.58984400000008,117.30761700000039,55.25634799999989,112.30761700000039,125.0,121.0258789999998,116.79492200000004,29.230956999999762,88.7177729999994,133.9741210000002,140.12841800000024,112.43603499999972
252,120.38476599999922,77.56396500000028,111.15380900000036,113.46142599999985,58.0771479999994,110.64111300000059,124.74365200000011,119.74365200000011,119.10253900000043,28.846190999999635,89.48730499999965,134.87158199999976,137.43603499999972,108.9741210000002
253,118.58984400000008,75.51269500000035,108.3334960000002,107.82031300000017,58.333496000000196,111.2822270000006,120.51269500000035,118.58984400000008,119.48730499999965,25.51269500000035,83.58984400000008,132.82031300000017,135.76904300000024,107.94873000000007
254,116.15380900000036,71.41015599999992,106.79492200000004,104.23095699999976,55.51269500000035,112.05126999999993,114.35888699999941,117.82031300000017,117.69238299999961,22.69238299999961,73.0771479999994,127.56396500000028,133.46142599999985,112.94873000000007
255,112.05126999999993,64.61523400000078,104.48730499999965,102.56396500000028,49.87158199999976,111.2822270000006,109.87158199999976,116.9228520000006,114.74365200000011,23.205077999999958,62.56396500000028,120.12841800000024,128.58984400000008,113.9741210000002
256,107.56396500000028,57.30761700000039,100.76904300000024,101.6665039999998,43.0771479999994,108.7177729999994,109.10253900000043,116.2822270000006,112.17968800000017,26.410155999999915,55.897460999999566,112.69238299999961,122.17968800000017,106.6665039999998
257,103.9741210000002,52.30761700000039,99.10253900000043,101.79492200000004,37.69238299999961,105.38476599999922,111.53857400000015,116.0258789999998,110.89746099999957,29.48730499999965,54.102539000000434,107.69238299999961,116.15380900000036,102.30761700000039
258,101.6665039999998,51.153809000000365,100.89746099999957,103.3334960000002,36.153809000000365,103.20507799999996,115.25634799999989,116.0258789999998,110.76904300000024,29.48730499999965,56.025878999999804,106.0258789999998,112.43603499999972,109.23095699999976
259,101.15380900000036,54.74365200000011,102.69238299999961,105.38476599999922,40.38476599999922,104.23095699999976,119.23095699999976,115.38476599999922,111.79492200000004,27.43603499999972,60.897460999999566,107.43603499999972,113.3334960000002,117.56396500000028
260,104.23095699999976,63.20507799999996,101.9228520000006,107.05126999999993,50.25634799999989,109.48730499999965,123.46142599999985,114.87158199999976,113.9741210000002,27.56396500000028,68.46142599999985,111.6665039999998,119.87158199999976,115.76904300000024
261,110.25634799999989,73.58984400000008,101.15380900000036,109.35888699999941,61.53857400000015,116.41015599999992,127.43603499999972,115.64111300000059,116.6665039999998,32.17968800000017,77.17968800000017,118.20507799999996,129.3588869999994,109.74365200000011
262,115.64111300000059,80.38476599999922,103.84619099999964,112.82031300000017,68.84619099999964,120.12841800000024,130.2563479999999,118.0771479999994,119.10253900000043,39.61523400000078,83.20507799999996,124.61523400000078,135.89746099999957,110.51269500000035
263,116.9228520000006,80.64111300000059,107.43603499999972,114.87158199999976,69.74365200000011,118.20507799999996,131.15380900000036,120.25634799999989,120.51269500000035,46.153809000000365,83.7177729999994,126.79492200000004,136.0258789999998,114.23095699999976
264,114.48730499999965,76.41015599999992,107.43603499999972,112.94873000000007,66.53857400000015,113.46142599999985,129.87158199999976,120.12841800000024,121.2822270000006,50.12841800000024,79.87158199999976,122.82031300000017,131.79492200000004,110.76904300000024
265,110.51269500000035,71.6665039999998,104.35888699999941,108.9741210000002,63.20507799999996,110.51269500000035,127.17968800000017,117.94873000000007,121.79492200000004,51.2822270000006,75.51269500000035,115.51269500000035,128.20507799999996,103.7177729999994
266,106.79492200000004,68.7177729999994,101.6665039999998,106.53857400000015,61.2822270000006,111.79492200000004,123.9741210000002,115.76904300000024,122.17968800000017,50.25634799999989,73.58984400000008,109.61523400000078,127.05126999999993,105.12841800000024
267,103.7177729999994,67.17968800000017,99.48730499999965,106.0258789999998,60.12841800000024,115.38476599999922,121.41015599999992,114.61523400000078,121.6665039999998,47.56396500000028,74.61523400000078,106.9228520000006,127.17968800000017,113.46142599999985
268,101.79492200000004,66.53857400000015,95.89746099999957,104.74365200000011,59.61523400000078,117.82031300000017,120.25634799999989,114.23095699999976,119.87158199999976,43.974121000000196,77.17968800000017,106.0258789999998,126.41015599999992,115.76904300000024
269,102.17968800000017,66.41015599999992,92.94873000000007,102.43603499999972,60.76904300000024,117.43603499999972,120.64111300000059,115.0,117.94873000000007,42.17968800000017,80.38476599999922,106.2822270000006,125.25634799999989,110.12841800000024
270,105.12841800000024,67.17968800000017,95.38476599999922,102.05126999999993,64.10253900000043,115.38476599999922,122.82031300000017,116.9228520000006,117.56396500000028,44.48730499999965,83.0771479999994,108.58984400000008,125.64111300000059,107.94873000000007
271,110.51269500000035,70.0,102.17968800000017,105.25634799999989,69.23095699999976,114.61523400000078,126.15380900000036,119.48730499999965,119.23095699999976,52.17968800000017,83.84619099999964,113.3334960000002,129.48730499999965,112.56396500000028
272,117.17968800000017,76.2822270000006,107.56396500000028,109.74365200000011,74.74365200000011,117.17968800000017,129.48730499999965,121.2822270000006,121.79492200000004,62.94873000000007,82.56396500000028,119.10253900000043,136.6665039999998,113.9741210000002
273,123.20507799999996,84.23095699999976,108.46142599999985,113.20507799999996,77.94873000000007,121.6665039999998,131.2822270000006,122.05126999999993,123.3334960000002,71.53857400000015,81.2822270000006,123.9741210000002,142.94873000000007,108.3334960000002
274,125.38476599999922,88.7177729999994,107.82031300000017,115.51269500000035,76.53857400000015,123.84619099999964,130.2563479999999,122.05126999999993,122.30761700000039,72.69238299999961,82.30761700000039,126.53857400000015,143.0771479999994,105.76904300000024
275,122.17968800000017,85.76904300000024,107.94873000000007,116.15380900000036,70.0,120.76904300000024,126.53857400000015,121.6665039999998,118.9741210000002,66.0258789999998,85.76904300000024,126.41015599999992,135.6411130000006,111.2822270000006
276,115.89746099999957,77.17968800000017,107.43603499999972,113.58984400000008,61.410155999999915,113.84619099999964,122.82031300000017,120.25634799999989,115.51269500000035,57.17968800000017,89.48730499999965,123.7177729999994,125.64111300000059,114.61523400000078
277,111.15380900000036,69.48730499999965,105.25634799999989,108.46142599999985,55.76904300000024,108.20507799999996,121.53857400000015,117.94873000000007,114.61523400000078,53.46142599999985,91.2822270000006,120.38476599999922,120.76904300000024,108.46142599999985
278,110.89746099999957,68.20507799999996,104.87158199999976,104.87158199999976,55.64111300000059,108.3334960000002,123.3334960000002,116.41015599999992,116.79492200000004,57.17968800000017,90.12841800000024,118.7177729999994,123.84619099999964,103.0771479999994
279,114.23095699999976,73.58984400000008,108.0771479999994,105.64111300000059,59.61523400000078,113.9741210000002,126.0258789999998,116.53857400000015,120.0,64.10253900000043,86.15380900000036,119.61523400000078,131.0258789999998,108.9741210000002
280,118.0771479999994,81.79492200000004,110.89746099999957,108.84619099999964,65.38476599999922,121.41015599999992,127.17968800000017,117.30761700000039,121.53857400000015,67.94873000000007,80.64111300000059,121.15380900000036,136.6665039999998,118.20507799999996
281,120.0,88.0771479999994,108.9741210000002,110.51269500000035,71.53857400000015,126.79492200000004,126.6665039999998,117.05126999999993,120.51269500000035,66.2822270000006,76.41015599999992,120.89746099999957,137.56396500000028,117.43603499999972
282,118.58984400000008,88.9741210000002,105.12841800000024,110.89746099999957,77.30761700000039,127.43603499999972,125.76904300000024,116.2822270000006,118.84619099999964,61.410155999999915,75.76904300000024,119.10253900000043,134.10253900000043,109.87158199999976
283,114.61523400000078,84.48730499999965,104.35888699999941,112.43603499999972,80.89746099999957,123.84619099999964,125.89746099999957,116.2822270000006,118.9741210000002,58.333496000000196,78.7177729999994,117.17968800000017,129.23095699999976,107.82031300000017
284,111.53857400000015,79.61523400000078,106.79492200000004,115.51269500000035,82.05126999999993,118.9741210000002,127.56396500000028,117.30761700000039,120.89746099999957,61.53857400000015,83.58984400000008,116.9228520000006,126.53857400000015,111.2822270000006
285,113.58984400000008,80.76904300000024,108.20507799999996,117.69238299999961,82.43603499999972,116.53857400000015,130.38476599999922,119.10253900000043,123.3334960000002,71.0258789999998,88.20507799999996,118.58984400000008,128.3334960000002,110.38476599999922
286,120.76904300000024,88.84619099999964,107.94873000000007,117.69238299999961,83.9741210000002,117.43603499999972,132.3076170000004,120.64111300000059,124.35888699999941,81.79492200000004,91.0258789999998,122.05126999999993,133.20507799999996,105.38476599999922
287,127.94873000000007,97.56396500000028,108.7177729999994,116.0258789999998,85.89746099999957,119.61523400000078,131.41015599999992,121.53857400000015,123.3334960000002,86.9228520000006,91.53857400000015,125.64111300000059,136.2822270000006,105.89746099999957
288,130.2563479999999,100.25634799999989,110.38476599999922,113.0771479999994,86.79492200000004,120.51269500000035,127.82031300000017,121.41015599999992,120.64111300000059,84.23095699999976,89.87158199999976,128.20507799999996,134.7436520000001,111.53857400000015
289,127.82031300000017,96.2822270000006,110.38476599999922,108.84619099999964,86.79492200000004,120.38476599999922,124.10253900000043,119.87158199999976,118.20507799999996,78.7177729999994,88.3334960000002,128.9741210000002,130.89746099999957,111.2822270000006
290,124.35888699999941,90.64111300000059,108.84619099999964,105.64111300000059,87.05126999999993,120.89746099999957,123.3334960000002,118.46142599999985,118.0771479999994,77.94873000000007,88.0771479999994,128.46142599999985,128.20507799999996,104.10253900000043
291,121.53857400000015,86.79492200000004,108.84619099999964,106.41015599999992,86.6665039999998,122.17968800000017,126.0258789999998,118.3334960000002,120.25634799999989,83.7177729999994,88.58984400000008,126.79492200000004,127.43603499999972,102.43603499999972
292,118.58984400000008,84.74365200000011,110.0,110.25634799999989,84.61523400000078,122.82031300000017,130.0,119.35888699999941,122.56396500000028,91.0258789999998,87.56396500000028,123.7177729999994,126.53857400000015,110.76904300000024
293,115.12841800000024,83.0771479999994,108.46142599999985,112.56396500000028,81.41015599999992,122.69238299999961,132.94873000000007,120.38476599999922,122.82031300000017,94.23095699999976,84.74365200000011,119.10253900000043,124.35888699999941,116.79492200000004
294,112.30761700000039,80.89746099999957,103.0771479999994,110.76904300000024,79.61523400000078,123.3334960000002,133.84619099999964,120.64111300000059,121.15380900000036,91.41015599999992,82.56396500000028,115.0,121.79492200000004,111.53857400000015
295,110.64111300000059,77.69238299999961,99.48730499999965,107.69238299999961,80.38476599999922,125.12841800000024,132.43603499999972,120.76904300000024,119.61523400000078,85.89746099999957,83.58984400000008,114.10253900000043,120.12841800000024,104.61523400000078
296,109.48730499999965,73.9741210000002,101.6665039999998,106.79492200000004,82.05126999999993,126.53857400000015,129.48730499999965,121.2822270000006,119.74365200000011,82.82031300000017,88.0771479999994,116.9228520000006,119.48730499999965,106.41015599999992
297,109.10253900000043,72.43603499999972,106.41015599999992,108.0771479999994,82.69238299999961,125.76904300000024,126.15380900000036,121.53857400000015,121.0258789999998,86.0258789999998,94.23095699999976,121.15380900000036,120.0,111.2822270000006
298,110.25634799999989,75.12841800000024,108.46142599999985,108.9741210000002,82.17968800000017,123.3334960000002,123.3334960000002,121.0258789999998,121.9228520000006,94.61523400000078,99.23095699999976,123.9741210000002,121.79492200000004,109.87158199999976
299,110.38476599999922,78.58984400000008,106.6665039999998,108.9741210000002,81.9228520000006,121.6665039999998,122.05126999999993,119.74365200000011,121.2822270000006,101.6665039999998,100.12841800000024,123.0771479999994,121.6665039999998,107.05126999999993
300,104.35888699999941,75.12841800000024,103.3334960000002,107.82031300000017,83.0771479999994,122.30761700000039,122.69238299999961,118.3334960000002,119.10253900000043,99.87158199999976,94.23095699999976,117.30761700000039,114.23095699999976,112.17968800000017
301,91.79492200000004,61.666503999999804,98.7177729999994,105.0,86.53857400000015,125.64111300000059,125.51269500000035,117.56396500000028,116.79492200000004,89.74365200000011,83.58984400000008,107.30761700000039,98.0771479999994,119.35888699999941
302,79.23095699999976,44.48730499999965,93.58984400000008,101.2822270000006,92.43603499999972,129.7436520000001,129.7436520000001,117.69238299999961,116.15380900000036,80.89746099999957,74.48730499999965,97.56396500000028,80.64111300000059,116.6665039999998
303,76.2822270000006,35.12841800000024,92.17968800000017,100.76904300000024,98.46142599999985,132.3076170000004,133.9741210000002,119.74365200000011,118.84619099999964,83.46142599999985,73.7177729999994,94.35888699999941,72.56396500000028,106.53857400000015
304,86.2822270000006,39.61523400000078,97.94873000000007,106.2822270000006,101.53857400000015,131.2822270000006,136.15380900000036,123.58984400000008,123.7177729999994,98.58984400000008,81.6665039999998,100.12841800000024,78.58984400000008,102.82031300000017
305,103.9741210000002,54.74365200000011,106.6665039999998,114.10253900000043,101.41015599999992,127.56396500000028,135.51269500000035,126.2822270000006,127.56396500000028,117.43603499999972,93.0771479999994,110.89746099999957,95.25634799999989,107.43603499999972
306,121.53857400000015,72.17968800000017,111.15380900000036,117.94873000000007,102.56396500000028,124.48730499999965,131.53857400000015,125.25634799999989,127.43603499999972,129.61523400000078,102.30761700000039,119.87158199999976,114.48730499999965,109.48730499999965
307,133.7177729999994,84.61523400000078,109.87158199999976,116.2822270000006,110.25634799999989,123.3334960000002,124.10253900000043,120.0,122.30761700000039,130.89746099999957,108.0771479999994,123.0771479999994,130.38476599999922,105.89746099999957
308,139.87158199999976,90.0,108.20507799999996,114.35888699999941,125.38476599999922,121.53857400000015,113.9741210000002,113.46142599999985,114.23095699999976,125.12841800000024,112.56396500000028,123.0771479999994,141.15380900000036,106.2822270000006
309,144.10253900000043,92.30761700000039,109.74365200000011,116.0258789999998,143.84619099999964,115.25634799999989,103.9741210000002,108.7177729999994,106.9228520000006,121.9228520000006,118.7177729999994,124.48730499999965,149.48730499999965,112.94873000000007
310,151.0258789999998,97.69238299999961,112.17968800000017,119.74365200000011,161.53857400000015,104.35888699999941,97.30761700000039,107.30761700000039,103.58984400000008,130.38476599999922,127.94873000000007,129.61523400000078,159.23095699999976,114.87158199999976
311,160.89746099999957,108.3334960000002,113.84619099999964,122.17968800000017,176.9228520000006,93.46142599999985,96.0258789999998,108.7177729999994,104.87158199999976,152.94873000000007,138.84619099999964,137.3076170000004,170.38476599999922,107.56396500000028
312,168.20507799999996,118.46142599999985,115.51269500000035,121.9228520000006,190.51269500000035,87.05126999999993,98.46142599999985,111.53857400000015,108.20507799999996,181.79492200000004,147.82031300000017,143.3334960000002,177.05126999999993,103.0771479999994
313,166.2822270000006,120.51269500000035,117.05126999999993,119.48730499999965,203.7177729999994,86.53857400000015,101.41015599999992,113.3334960000002,110.0,206.41015599999992,150.89746099999957,143.3334960000002,173.58984400000008,109.23095699999976
314,154.10253900000043,112.05126999999993,115.12841800000024,114.74365200000011,217.6923829999996,89.74365200000011,101.9228520000006,112.17968800000017,108.84619099999964,223.0771479999994,147.6923829999996,135.76904300000024,160.51269500000035,116.0258789999998
315,137.3076170000004,99.10253900000043,108.84619099999964,109.61523400000078,232.6923829999996,93.3334960000002,99.10253900000043,108.9741210000002,106.41015599999992,236.41015599999992,141.2822270000006,123.84619099999964,145.0,112.82031300000017
316,123.58984400000008,89.87158199999976,103.20507799999996,108.20507799999996,246.15380900000036,94.61523400000078,94.10253900000043,107.05126999999993,105.12841800000024,252.94873000000007,136.15380900000036,113.84619099999964,133.3334960000002,106.2822270000006
317,117.94873000000007,88.58984400000008,102.56396500000028,111.9228520000006,255.12841800000024,92.82031300000017,89.74365200000011,108.3334960000002,106.41015599999992,273.84619099999964,134.7436520000001,109.74365200000011,127.43603499999972,107.69238299999961
318,120.51269500000035,94.61523400000078,104.61523400000078,117.05126999999993,259.3588869999994,90.64111300000059,88.3334960000002,111.15380900000036,109.23095699999976,294.3588869999994,137.56396500000028,111.41015599999992,126.53857400000015,112.94873000000007
319,128.7177729999994,104.23095699999976,105.12841800000024,118.20507799999996,260.76904300000024,90.76904300000024,90.64111300000059,112.43603499999972,111.79492200000004,307.4360349999997,143.3334960000002,115.51269500000035,129.61523400000078,111.41015599999992
320,137.56396500000028,112.43603499999972,104.48730499999965,115.76904300000024,259.7436520000001,92.43603499999972,93.46142599999985,110.89746099999957,112.05126999999993,308.3334960000002,149.48730499999965,119.10253900000043,135.89746099999957,105.89746099999957
321,142.56396500000028,116.53857400000015,105.51269500000035,113.58984400000008,254.48730499999965,91.6665039999998,92.82031300000017,107.56396500000028,109.23095699999976,297.3076170000004,152.94873000000007,121.0258789999998,143.20507799999996,106.79492200000004
322,142.82031300000017,118.0771479999994,107.30761700000039,113.84619099999964,245.89746099999957,87.05126999999993,88.58984400000008,104.10253900000043,104.87158199999976,281.4101559999999,152.43603499999972,121.53857400000015,149.61523400000078,111.9228520000006
323,141.15380900000036,121.15380900000036,107.05126999999993,115.0,240.2563479999999,83.0771479999994,85.0,102.30761700000039,101.79492200000004,272.17968800000017,149.87158199999976,121.2822270000006,154.3588869999994,110.0
324,140.51269500000035,127.82031300000017,105.64111300000059,116.2822270000006,243.9741210000002,85.25634799999989,86.6665039999998,103.58984400000008,102.56396500000028,276.9228520000006,148.46142599999985,121.9228520000006,156.0258789999998,102.56396500000028
325,141.41015599999992,136.15380900000036,107.30761700000039,118.58984400000008,254.87158199999976,92.82031300000017,93.46142599999985,107.30761700000039,106.53857400000015,291.4101559999999,148.9741210000002,123.7177729999994,152.6923829999996,102.69238299999961
326,141.15380900000036,142.05126999999993,110.64111300000059,120.76904300000024,262.3076170000004,99.10253900000043,100.25634799999989,110.25634799999989,110.12841800000024,303.84619099999964,149.10253900000043,124.23095699999976,143.9741210000002,112.17968800000017
327,137.82031300000017,143.84619099999964,110.64111300000059,119.48730499999965,256.79492200000004,98.3334960000002,101.6665039999998,110.0,110.76904300000024,305.12841800000024,146.0258789999998,120.38476599999922,133.0771479999994,117.69238299999961
328,131.79492200000004,143.46142599999985,105.89746099999957,114.61523400000078,238.9741210000002,92.17968800000017,97.05126999999993,107.17968800000017,108.7177729999994,295.89746099999957,140.12841800000024,113.20507799999996,124.74365200000011,113.0771479999994
329,125.89746099999957,144.23095699999976,102.30761700000039,111.9228520000006,219.7436520000001,87.17968800000017,90.89746099999957,105.12841800000024,106.9228520000006,283.46142599999985,134.10253900000043,107.56396500000028,121.6665039999998,108.58984400000008
330,124.23095699999976,148.7177729999994,104.10253900000043,116.2822270000006,211.6665039999998,88.58984400000008,88.3334960000002,105.76904300000024,107.17968800000017,275.2563479999999,132.43603499999972,108.46142599999985,123.9741210000002,111.79492200000004
331,130.6411130000006,156.79492200000004,109.23095699999976,124.48730499999965,221.6665039999998,97.43603499999972,92.69238299999961,108.20507799999996,109.48730499999965,275.12841800000024,137.3076170000004,116.53857400000015,131.15380900000036,114.35888699999941
332,144.10253900000043,165.2563479999999,113.9741210000002,128.3334960000002,246.53857400000015,110.0,102.94873000000007,110.64111300000059,112.82031300000017,282.5639650000003,148.0771479999994,128.46142599999985,142.43603499999972,109.48730499999965
333,156.79492200000004,170.51269500000035,118.0771479999994,123.9741210000002,273.20507799999996,119.48730499999965,114.35888699999941,111.6665039999998,115.64111300000059,292.3076170000004,160.12841800000024,139.10253900000043,155.0,105.76904300000024
334,159.87158199999976,171.15380900000036,121.15380900000036,115.89746099999957,285.6411130000006,119.74365200000011,119.74365200000011,110.25634799999989,116.0258789999998,296.4101559999999,166.79492200000004,143.20507799999996,162.6923829999996,110.76904300000024
335,151.2822270000006,169.61523400000078,120.64111300000059,112.43603499999972,275.12841800000024,109.61523400000078,114.10253900000043,105.76904300000024,112.82031300000017,289.3588869999994,164.23095699999976,138.58984400000008,160.89746099999957,116.0258789999998
336,139.48730499999965,169.23095699999976,117.30761700000039,119.74365200000011,247.43603499999972,94.87158199999976,99.35888699999941,99.61523400000078,106.6665039999998,272.3076170000004,154.61523400000078,129.7436520000001,151.2822270000006,111.0258789999998
337,136.6665039999998,171.0258789999998,117.43603499999972,136.2822270000006,220.38476599999922,85.0,84.48730499999965,95.25634799999989,101.15380900000036,253.9741210000002,145.38476599999922,125.25634799999989,141.0258789999998,102.82031300000017
338,147.82031300000017,173.84619099999964,126.15380900000036,151.2822270000006,212.56396500000028,86.15380900000036,80.25634799999989,96.0258789999998,100.25634799999989,245.2563479999999,143.9741210000002,131.41015599999992,137.94873000000007,104.87158199999976
339,167.56396500000028,177.3076170000004,138.20507799999996,151.15380900000036,231.9228520000006,98.3334960000002,91.0258789999998,101.2822270000006,105.38476599999922,252.82031300000017,152.43603499999972,145.6411130000006,145.76904300000024,114.35888699999941
340,184.10253900000043,182.43603499999972,143.0771479999994,131.0258789999998,271.15380900000036,115.64111300000059,111.15380900000036,107.94873000000007,114.48730499999965,273.7177729999994,166.6665039999998,158.9741210000002,162.3076170000004,117.05126999999993
341,187.3076170000004,189.23095699999976,136.53857400000015,102.17968800000017,310.76904300000024,129.7436520000001,128.84619099999964,112.94873000000007,123.0771479999994,296.0258789999998,178.7177729999994,163.84619099999964,179.3588869999994,111.6665039999998
342,175.38476599999922,194.48730499999965,123.3334960000002,82.94873000000007,330.89746099999957,133.84619099999964,134.48730499999965,115.0,126.9228520000006,306.53857400000015,182.17968800000017,158.46142599999985,187.17968800000017,109.61523400000078
343,155.51269500000035,195.12841800000024,110.0,83.84619099999964,323.46142599999985,126.2822270000006,126.53857400000015,114.10253900000043,124.23095699999976,299.10253900000043,175.38476599999922,146.41015599999992,181.2822270000006,113.3334960000002
344,139.3588869999994,190.6411130000006,101.0258789999998,99.74365200000011,296.0258789999998,112.56396500000028,111.79492200000004,111.2822270000006,117.05126999999993,278.9741210000002,163.3334960000002,133.84619099999964,166.2822270000006,113.46142599999985
345,134.7436520000001,184.48730499999965,99.61523400000078,117.82031300000017,266.0258789999998,101.2822270000006,99.48730499999965,108.3334960000002,109.61523400000078,257.94873000000007,153.9741210000002,127.05126999999993,152.3076170000004,107.94873000000007
346,140.51269500000035,180.38476599999922,107.30761700000039,128.58984400000008,248.7177729999994,98.58984400000008,96.0258789999998,106.9228520000006,106.2822270000006,246.79492200000004,152.6923829999996,128.9741210000002,147.17968800000017,107.17968800000017
347,149.7436520000001,180.89746099999957,118.9741210000002,129.23095699999976,249.3588869999994,104.10253900000043,101.79492200000004,107.05126999999993,108.0771479999994,248.58984400000008,158.84619099999964,137.43603499999972,151.6665039999998,114.10253900000043
348,155.89746099999957,185.76904300000024,125.64111300000059,122.94873000000007,262.6923829999996,112.56396500000028,111.79492200000004,107.30761700000039,112.94873000000007,257.6923829999996,166.79492200000004,145.6411130000006,160.76904300000024,117.17968800000017
349,157.05126999999993,191.6665039999998,123.7177729999994,116.53857400000015,277.5639650000003,118.7177729999994,118.9741210000002,107.05126999999993,117.17968800000017,263.20507799999996,170.12841800000024,148.20507799999996,167.17968800000017,110.38476599999922
350,153.9741210000002,192.6923829999996,118.46142599999985,115.25634799999989,283.7177729999994,119.61523400000078,119.10253900000043,106.53857400000015,118.20507799999996,257.94873000000007,166.2822270000006,144.23095699999976,166.2822270000006,104.35888699999941
351,148.7177729999994,186.79492200000004,115.51269500000035,118.46142599999985,278.0771479999994,116.15380900000036,113.3334960000002,106.41015599999992,115.76904300000024,243.7177729999994,157.82031300000017,137.17968800000017,159.23095699999976,108.46142599999985
352,144.7436520000001,179.23095699999976,115.12841800000024,120.64111300000059,265.89746099999957,112.30761700000039,107.05126999999993,106.41015599999992,111.9228520000006,229.7436520000001,151.0258789999998,131.79492200000004,152.3076170000004,114.35888699999941
353,145.76904300000024,178.20507799999996,116.15380900000036,119.87158199999976,255.38476599999922,111.41015599999992,104.74365200000011,106.0258789999998,109.48730499999965,224.23095699999976,151.0258789999998,131.53857400000015,150.89746099999957,111.79492200000004
354,151.9228520000006,185.38476599999922,119.87158199999976,119.61523400000078,250.89746099999957,113.7177729999994,106.2822270000006,105.76904300000024,109.87158199999976,227.3076170000004,157.3076170000004,136.9228520000006,154.61523400000078,106.53857400000015
355,159.48730499999965,193.9741210000002,126.2822270000006,122.43603499999972,251.9228520000006,115.89746099999957,108.3334960000002,106.0258789999998,111.6665039999998,233.3334960000002,165.12841800000024,144.7436520000001,158.3334960000002,108.58984400000008
356,164.3588869999994,196.6665039999998,130.12841800000024,124.35888699999941,256.2822270000006,115.89746099999957,108.84619099999964,106.41015599999992,112.69238299999961,236.79492200000004,169.48730499999965,149.7436520000001,159.10253900000043,113.84619099999964
357,164.87158199999976,193.20507799999996,127.17968800000017,120.76904300000024,261.53857400000015,114.35888699999941,108.3334960000002,106.53857400000015,112.43603499999972,236.9228520000006,170.12841800000024,149.48730499999965,158.84619099999964,111.9228520000006
358,162.17968800000017,188.7177729999994,120.25634799999989,114.35888699999941,263.5898440000001,113.0771479999994,108.7177729999994,106.9228520000006,111.9228520000006,235.0,169.7436520000001,145.6411130000006,160.38476599999922,106.0258789999998
359,158.46142599999985,187.05126999999993,116.6665039999998,111.41015599999992,258.9741210000002,113.20507799999996,110.76904300000024,108.46142599999985,112.69238299999961,232.17968800000017,170.0,142.05126999999993,163.20507799999996,107.94873000000007
360,156.6665039999998,188.58984400000008,118.20507799999996,114.23095699999976,249.48730499999965,115.0,114.48730499999965,110.25634799999989,114.74365200000011,230.0,171.53857400000015,141.6665039999998,166.41015599999992,116.15380900000036
361,159.23095699999976,192.56396500000028,121.53857400000015,118.46142599999985,242.3076170000004,118.58984400000008,119.74365200000011,111.79492200000004,117.30761700000039,230.2563479999999,173.84619099999964,145.12841800000024,170.12841800000024,117.82031300000017
362,165.38476599999922,196.79492200000004,124.48730499999965,120.38476599999922,243.9741210000002,123.46142599999985,125.0,113.20507799999996,119.48730499999965,232.94873000000007,175.76904300000024,150.89746099999957,174.61523400000078,110.89746099999957
363,170.89746099999957,196.79492200000004,127.69238299999961,120.38476599999922,253.58984400000008,127.56396500000028,127.94873000000007,114.48730499999965,120.0,235.2563479999999,176.15380900000036,156.2822270000006,178.46142599999985,106.6665039999998
364,171.53857400000015,189.48730499999965,129.48730499999965,120.12841800000024,265.0,129.48730499999965,127.56396500000028,115.25634799999989,119.23095699999976,234.48730499999965,174.48730499999965,158.20507799999996,180.0,109.35888699999941
365,167.56396500000028,177.82031300000017,125.64111300000059,119.35888699999941,272.05126999999993,129.48730499999965,125.38476599999922,114.61523400000078,117.94873000000007,231.53857400000015,172.17968800000017,155.6411130000006,179.61523400000078,109.74365200000011
366,162.3076170000004,169.61523400000078,117.43603499999972,118.20507799999996,270.76904300000024,128.84619099999964,123.58984400000008,112.94873000000007,117.94873000000007,228.7177729999994,171.15380900000036,150.12841800000024,177.94873000000007,104.87158199999976
367,157.6923829999996,169.87158199999976,111.2822270000006,117.69238299999961,259.7436520000001,127.05126999999993,121.53857400000015,111.41015599999992,118.7177729999994,225.51269500000035,170.12841800000024,144.23095699999976,173.58984400000008,104.61523400000078
368,152.94873000000007,176.79492200000004,110.76904300000024,118.20507799999996,241.2822270000006,122.56396500000028,117.30761700000039,110.12841800000024,118.0771479999994,219.10253900000043,166.6665039999998,139.61523400000078,165.38476599999922,112.94873000000007
369,147.94873000000007,183.20507799999996,112.56396500000028,117.69238299999961,222.05126999999993,115.51269500000035,110.0,107.69238299999961,114.61523400000078,208.46142599999985,159.87158199999976,135.51269500000035,154.87158199999976,118.20507799999996
370,143.7177729999994,182.3076170000004,113.0771479999994,115.25634799999989,210.89746099999957,108.3334960000002,101.9228520000006,104.48730499999965,109.48730499999965,197.43603499999972,152.82031300000017,131.79492200000004,146.0258789999998,112.43603499999972
371,141.15380900000036,171.9228520000006,113.9741210000002,113.46142599999985,213.20507799999996,104.23095699999976,98.20507799999996,103.0771479999994,105.89746099999957,192.05126999999993,150.12841800000024,129.3588869999994,141.9228520000006,105.51269500000035
372,140.38476599999922,156.9228520000006,117.69238299999961,114.74365200000011,227.94873000000007,105.51269500000035,102.82031300000017,105.25634799999989,107.05126999999993,196.41015599999992,153.9741210000002,130.12841800000024,143.20507799999996,108.7177729999994
373,142.56396500000028,146.53857400000015,121.15380900000036,117.43603499999972,247.82031300000017,112.05126999999993,114.61523400000078,109.87158199999976,112.69238299999961,210.0,163.58984400000008,133.9741210000002,149.61523400000078,115.64111300000059
374,147.82031300000017,146.79492200000004,120.25634799999989,117.69238299999961,261.53857400000015,120.76904300000024,125.89746099999957,113.58984400000008,119.87158199999976,226.53857400000015,174.61523400000078,139.3588869999994,158.7177729999994,114.74365200000011
375,152.43603499999972,153.58984400000008,116.2822270000006,115.12841800000024,258.5898440000001,126.0258789999998,128.7177729999994,114.48730499999965,124.35888699999941,235.38476599999922,180.89746099999957,142.94873000000007,164.23095699999976,109.48730499999965
376,150.2563479999999,155.2563479999999,112.94873000000007,111.9228520000006,236.41015599999992,123.0771479999994,120.12841800000024,112.17968800000017,122.94873000000007,228.58984400000008,177.56396500000028,141.41015599999992,159.23095699999976,111.2822270000006
377,140.2563479999999,145.6411130000006,110.76904300000024,109.61523400000078,205.6411130000006,113.3334960000002,106.2822270000006,107.56396500000028,116.53857400000015,208.58984400000008,165.76904300000024,133.9741210000002,143.9741210000002,117.82031300000017
378,128.9741210000002,130.76904300000024,108.0771479999994,107.94873000000007,185.76904300000024,105.64111300000059,97.82031300000017,102.30761700000039,109.48730499999965,188.7177729999994,153.20507799999996,124.61523400000078,128.3334960000002,117.43603499999972
379,124.87158199999976,124.23095699999976,107.17968800000017,107.82031300000017,189.48730499999965,107.43603499999972,101.53857400000015,99.48730499999965,107.05126999999993,182.43603499999972,148.0771479999994,120.0,124.10253900000043,110.64111300000059
380,130.89746099999957,133.58984400000008,111.0258789999998,109.87158199999976,212.94873000000007,118.3334960000002,115.12841800000024,100.76904300000024,111.41015599999992,192.82031300000017,153.0771479999994,124.23095699999976,133.84619099999964,108.7177729999994
381,142.05126999999993,153.7177729999994,117.30761700000039,112.17968800000017,238.7177729999994,130.0,129.10253900000043,105.12841800000024,119.35888699999941,210.89746099999957,163.7177729999994,134.48730499999965,149.87158199999976,113.20507799999996
382,150.76904300000024,171.41015599999992,119.48730499999965,111.6665039999998,251.0258789999998,134.3588869999994,134.61523400000078,109.61523400000078,125.64111300000059,224.3588869999994,172.3076170000004,143.0771479999994,160.6411130000006,113.46142599999985
383,151.79492200000004,174.87158199999976,115.12841800000024,108.9741210000002,245.51269500000035,129.23095699999976,128.9741210000002,112.05126999999993,126.53857400000015,225.76904300000024,173.46142599999985,144.48730499999965,159.48730499999965,107.05126999999993
