,EEG.AF3,EEG.F7,EEG.F3,EEG.FC5,EEG.T7,EEG.P7,EEG.O1,EEG.O2,EEG.P8,EEG.T8,EEG.FC6,EEG.F4,EEG.F8,EEG.AF4
0,113.46142599999985,109.48730499999965,115.89746099999957,110.76904300000024,53.333496000000196,117.17968800000017,112.56396500000028,109.74365200000011,118.3334960000002,59.23095699999976,94.61523400000078,122.82031300000017,109.74365200000011,114.87158199999976
1,112.56396500000028,109.10253900000043,115.64111300000059,107.94873000000007,54.23095699999976,117.94873000000007,113.46142599999985,111.2822270000006,116.0258789999998,59.102539000000434,93.7177729999994,123.46142599999985,109.23095699999976,111.41015599999992
2,111.6665039999998,110.25634799999989,115.0,105.89746099999957,63.46142599999985,120.0,115.64111300000059,112.43603499999972,115.0,59.23095699999976,89.61523400000078,122.43603499999972,107.94873000000007,106.9228520000006
3,110.0,110.38476599999922,115.0,106.6665039999998,73.46142599999985,120.0,115.76904300000024,112.43603499999972,115.64111300000059,59.102539000000434,84.23095699999976,119.61523400000078,105.25634799999989,109.35888699999941
4,107.56396500000028,108.7177729999994,113.58984400000008,108.3334960000002,77.05126999999993,116.79492200000004,113.3334960000002,110.51269500000035,116.79492200000004,58.46142599999985,79.48730499999965,115.89746099999957,101.41015599999992,113.7177729999994
5,106.9228520000006,108.20507799999996,110.51269500000035,109.35888699999941,74.23095699999976,114.23095699999976,111.6665039999998,107.82031300000017,117.82031300000017,58.46142599999985,78.46142599999985,113.7177729999994,99.74365200000011,111.53857400000015
6,109.48730499999965,111.0258789999998,109.35888699999941,110.0,70.0,116.2822270000006,114.48730499999965,106.79492200000004,119.10253900000043,60.76904300000024,81.9228520000006,116.15380900000036,103.20507799999996,106.6665039999998
7,113.3334960000002,115.0,112.30761700000039,111.41015599999992,67.94873000000007,121.9228520000006,120.76904300000024,108.0771479999994,120.0,64.23095699999976,88.0771479999994,122.05126999999993,109.61523400000078,108.46142599999985
8,115.76904300000024,117.17968800000017,116.41015599999992,112.69238299999961,69.10253900000043,127.56396500000028,126.79492200000004,109.87158199999976,119.74365200000011,67.30761700000039,93.20507799999996,127.30761700000039,115.12841800000024,114.10253900000043
9,117.69238299999961,118.3334960000002,118.0771479999994,113.3334960000002,73.58984400000008,131.0258789999998,129.61523400000078,110.38476599999922,118.7177729999994,70.38476599999922,96.15380900000036,129.23095699999976,117.82031300000017,113.58984400000008
10,120.38476599999922,120.38476599999922,117.69238299999961,113.9741210000002,79.35888699999941,132.43603499999972,128.84619099999964,110.12841800000024,118.20507799999996,73.84619099999964,97.69238299999961,128.58984400000008,117.56396500000028,107.82031300000017
11,122.30761700000039,123.0771479999994,118.0771479999994,115.0,82.82031300000017,131.9228520000006,125.89746099999957,110.38476599999922,118.84619099999964,76.2822270000006,97.94873000000007,127.17968800000017,114.23095699999976,107.30761700000039
12,121.79492200000004,125.38476599999922,119.35888699999941,115.25634799999989,82.82031300000017,129.7436520000001,122.94873000000007,111.6665039999998,120.0,76.79492200000004,98.20507799999996,126.53857400000015,110.64111300000059,112.82031300000017
13,120.89746099999957,128.7177729999994,120.0,114.48730499999965,82.82031300000017,128.9741210000002,122.69238299999961,113.58984400000008,120.89746099999957,77.69238299999961,100.51269500000035,128.0771479999994,112.56396500000028,114.23095699999976
14,123.7177729999994,134.48730499999965,119.74365200000011,114.35888699999941,88.0771479999994,132.17968800000017,126.15380900000036,115.89746099999957,122.05126999999993,82.17968800000017,106.15380900000036,132.6923829999996,122.82031300000017,108.58984400000008
15,130.76904300000024,140.51269500000035,120.38476599999922,116.0258789999998,97.05126999999993,137.6923829999996,130.89746099999957,117.69238299999961,123.58984400000008,89.61523400000078,111.9228520000006,138.3334960000002,135.12841800000024,105.76904300000024
16,136.9228520000006,141.15380900000036,120.89746099999957,117.69238299999961,102.56396500000028,140.2563479999999,133.0771479999994,117.82031300000017,124.35888699999941,95.12841800000024,112.94873000000007,141.15380900000036,139.3588869999994,110.38476599999922
17,137.05126999999993,134.23095699999976,119.35888699999941,116.0258789999998,98.9741210000002,137.56396500000028,130.76904300000024,115.64111300000059,123.20507799999996,95.12841800000024,108.0771479999994,138.3334960000002,132.94873000000007,113.9741210000002
18,130.6411130000006,123.46142599999985,116.0258789999998,111.15380900000036,87.82031300000017,131.79492200000004,125.64111300000059,112.82031300000017,121.0258789999998,90.25634799999989,101.9228520000006,131.41015599999992,123.46142599999985,110.38476599999922
19,121.0258789999998,116.0258789999998,114.61523400000078,107.17968800000017,75.76904300000024,125.64111300000059,119.61523400000078,111.41015599999992,119.23095699999976,83.84619099999964,100.25634799999989,124.48730499999965,120.89746099999957,106.79492200000004
20,113.9741210000002,117.43603499999972,115.89746099999957,107.69238299999961,68.7177729999994,120.38476599999922,114.48730499999965,111.6665039999998,118.9741210000002,78.3334960000002,105.38476599999922,121.2822270000006,128.84619099999964,110.51269500000035
21,115.76904300000024,129.23095699999976,117.56396500000028,111.53857400000015,70.25634799999989,117.56396500000028,112.17968800000017,112.69238299999961,120.25634799999989,77.17968800000017,115.38476599999922,123.7177729999994,145.12841800000024,114.87158199999976
22,128.7177729999994,147.05126999999993,117.82031300000017,115.89746099999957,78.84619099999964,118.7177729999994,114.35888699999941,113.84619099999964,123.0771479999994,82.69238299999961,125.89746099999957,130.6411130000006,164.10253900000043,111.41015599999992
23,146.41015599999992,160.89746099999957,118.46142599999985,118.20507799999996,87.43603499999972,122.30761700000039,119.23095699999976,114.87158199999976,126.15380900000036,92.05126999999993,131.6665039999998,138.9741210000002,179.10253900000043,105.12841800000024
24,158.9741210000002,161.9228520000006,120.64111300000059,117.94873000000007,87.30761700000039,123.46142599999985,121.6665039999998,115.12841800000024,127.30761700000039,98.3334960000002,129.87158199999976,143.84619099999964,186.0258789999998,105.25634799999989
25,163.46142599999985,152.17968800000017,122.56396500000028,115.76904300000024,77.43603499999972,119.74365200000011,118.3334960000002,113.58984400000008,125.0,96.9228520000006,124.10253900000043,144.3588869999994,189.87158199999976,109.74365200000011
26,168.3334960000002,144.7436520000001,123.84619099999964,115.25634799999989,66.15380900000036,113.84619099999964,111.15380900000036,110.76904300000024,120.89746099999957,91.0258789999998,123.9741210000002,145.2563479999999,201.79492200000004,109.10253900000043
27,184.10253900000043,152.82031300000017,126.9228520000006,119.74365200000011,63.46142599999985,110.51269500000035,105.38476599999922,108.3334960000002,117.69238299999961,86.53857400000015,135.89746099999957,152.94873000000007,228.0771479999994,105.12841800000024
28,213.0771479999994,178.7177729999994,133.46142599999985,128.58984400000008,71.79492200000004,111.79492200000004,103.58984400000008,107.43603499999972,117.05126999999993,86.0258789999998,156.41015599999992,168.20507799999996,263.9741210000002,107.05126999999993
29,248.58984400000008,213.9741210000002,140.89746099999957,136.6665039999998,86.15380900000036,116.53857400000015,105.51269500000035,108.0771479999994,118.3334960000002,88.20507799999996,176.0258789999998,186.2822270000006,298.84619099999964,114.10253900000043
30,282.17968800000017,247.94873000000007,145.51269500000035,139.48730499999965,100.0,123.3334960000002,109.48730499999965,109.48730499999965,120.51269500000035,91.53857400000015,187.94873000000007,201.53857400000015,327.82031300000017,115.64111300000059
31,308.5898440000001,272.6923829999996,147.82031300000017,137.3076170000004,108.20507799999996,129.61523400000078,113.46142599999985,111.53857400000015,122.05126999999993,94.87158199999976,191.53857400000015,211.53857400000015,352.82031300000017,109.87158199999976
32,325.6411130000006,284.48730499999965,149.87158199999976,133.84619099999964,107.05126999999993,131.15380900000036,114.74365200000011,112.69238299999961,121.53857400000015,95.89746099999957,188.84619099999964,216.0258789999998,377.17968800000017,106.79492200000004
33,335.51269500000035,284.7436520000001,150.89746099999957,131.2822270000006,96.79492200000004,125.38476599999922,111.2822270000006,111.53857400000015,118.58984400000008,92.82031300000017,181.6665039999998,215.76904300000024,402.4360349999997,110.76904300000024
34,343.84619099999964,280.6411130000006,148.46142599999985,129.48730499999965,84.10253900000043,115.25634799999989,104.48730499999965,108.46142599999985,114.35888699999941,87.30761700000039,173.84619099999964,213.0771479999994,430.0,113.46142599999985
35,355.3847659999992,279.7436520000001,144.10253900000043,128.7177729999994,76.79492200000004,107.05126999999993,98.58984400000008,105.64111300000059,111.2822270000006,83.3334960000002,171.15380900000036,211.6665039999998,459.87158199999976,109.87158199999976
36,367.6923829999996,282.4360349999997,142.17968800000017,128.84619099999964,76.2822270000006,103.84619099999964,95.64111300000059,105.0,110.64111300000059,82.17968800000017,176.9228520000006,212.6923829999996,488.5898440000001,107.56396500000028
37,374.10253900000043,283.9741210000002,143.9741210000002,128.84619099999964,77.82031300000017,104.10253900000043,95.0,106.53857400000015,111.79492200000004,82.43603499999972,188.9741210000002,214.3588869999994,509.7436520000001,112.43603499999972
38,372.4360349999997,282.05126999999993,146.2822270000006,127.56396500000028,77.43603499999972,105.89746099999957,96.53857400000015,108.58984400000008,113.84619099999964,83.84619099999964,201.15380900000036,214.87158199999976,520.1284180000002,117.43603499999972
39,367.6923829999996,279.23095699999976,147.43603499999972,125.12841800000024,76.2822270000006,109.35888699999941,100.89746099999957,110.64111300000059,116.15380900000036,88.3334960000002,207.6923829999996,215.2563479999999,522.0512699999999,115.0
40,364.10253900000043,277.4360349999997,148.7177729999994,123.46142599999985,75.51269500000035,113.46142599999985,107.43603499999972,112.30761700000039,118.20507799999996,94.74365200000011,204.23095699999976,216.15380900000036,518.3334960000002,110.38476599999922
41,360.12841800000024,273.9741210000002,149.61523400000078,123.20507799999996,73.3334960000002,115.12841800000024,112.17968800000017,112.69238299999961,118.84619099999964,97.69238299999961,190.0,215.12841800000024,509.6152340000008,111.79492200000004
42,352.5639650000003,266.0258789999998,147.17968800000017,123.46142599999985,70.12841800000024,113.3334960000002,111.9228520000006,111.41015599999992,117.82031300000017,94.74365200000011,170.2563479999999,209.61523400000078,496.6665039999998,115.12841800000024
43,342.4360349999997,256.4101559999999,141.9228520000006,123.9741210000002,70.64111300000059,111.9228520000006,108.84619099999964,109.61523400000078,117.05126999999993,89.74365200000011,155.89746099999957,201.53857400000015,483.0771479999994,112.17968800000017
44,332.94873000000007,248.20507799999996,138.58984400000008,125.38476599999922,78.46142599999985,114.61523400000078,107.56396500000028,109.23095699999976,118.0771479999994,89.23095699999976,154.87158199999976,195.76904300000024,471.6665039999998,106.2822270000006
45,323.84619099999964,240.89746099999957,140.12841800000024,126.15380900000036,89.10253900000043,119.23095699999976,110.38476599999922,110.25634799999989,120.12841800000024,93.84619099999964,165.0,194.3588869999994,460.12841800000024,107.69238299999961
46,311.79492200000004,231.53857400000015,142.6923829999996,122.94873000000007,94.10253900000043,120.51269500000035,114.10253900000043,110.76904300000024,121.15380900000036,98.58984400000008,175.38476599999922,193.46142599999985,442.82031300000017,114.61523400000078
47,295.3847659999992,220.2563479999999,140.38476599999922,114.87158199999976,90.12841800000024,116.53857400000015,115.51269500000035,109.48730499999965,119.87158199999976,98.46142599999985,175.76904300000024,188.7177729999994,418.84619099999964,116.15380900000036
48,276.0258789999998,209.23095699999976,132.82031300000017,105.76904300000024,81.15380900000036,110.25634799999989,112.94873000000007,107.17968800000017,116.79492200000004,93.3334960000002,163.9741210000002,179.23095699999976,392.3076170000004,110.64111300000059
49,256.2822270000006,198.46142599999985,124.74365200000011,101.2822270000006,73.58984400000008,104.87158199999976,106.9228520000006,105.12841800000024,113.7177729999994,86.2822270000006,145.12841800000024,167.3076170000004,368.46142599999985,107.69238299999961
50,238.46142599999985,187.43603499999972,119.61523400000078,102.43603499999972,71.41015599999992,102.30761700000039,100.0,103.9741210000002,112.17968800000017,81.2822270000006,127.43603499999972,156.15380900000036,349.87158199999976,110.64111300000059
51,225.89746099999957,178.20507799999996,117.94873000000007,107.05126999999993,75.76904300000024,104.35888699999941,96.15380900000036,103.9741210000002,113.0771479999994,82.05126999999993,118.20507799999996,149.48730499999965,337.5639650000003,111.2822270000006
52,220.0,173.46142599999985,119.35888699999941,111.6665039999998,84.10253900000043,111.15380900000036,98.3334960000002,105.51269500000035,116.53857400000015,88.84619099999964,120.38476599999922,149.48730499999965,330.76904300000024,107.05126999999993
53,217.82031300000017,171.9228520000006,123.3334960000002,114.35888699999941,91.0258789999998,118.9741210000002,105.0,108.0771479999994,120.51269500000035,96.2822270000006,130.76904300000024,154.7436520000001,325.12841800000024,106.41015599999992
54,213.7177729999994,168.58984400000008,127.05126999999993,113.84619099999964,91.6665039999998,122.56396500000028,111.53857400000015,109.87158199999976,122.30761700000039,98.0771479999994,141.79492200000004,159.87158199999976,315.76904300000024,112.56396500000028
55,205.51269500000035,161.41015599999992,126.79492200000004,109.87158199999976,86.0258789999998,120.51269500000035,114.87158199999976,109.87158199999976,120.64111300000059,93.58984400000008,147.94873000000007,160.2563479999999,302.4360349999997,115.89746099999957
56,196.0258789999998,152.6923829999996,123.58984400000008,105.51269500000035,79.35888699999941,116.15380900000036,114.87158199999976,109.10253900000043,117.69238299999961,89.10253900000043,148.0771479999994,156.41015599999992,289.3588869999994,109.87158199999976
57,188.46142599999985,145.6411130000006,122.17968800000017,104.48730499999965,75.51269500000035,113.46142599999985,113.3334960000002,109.10253900000043,115.89746099999957,90.12841800000024,143.7177729999994,152.17968800000017,279.6152340000008,103.0771479999994
58,183.20507799999996,141.41015599999992,123.9741210000002,107.56396500000028,75.12841800000024,112.69238299999961,111.41015599999992,110.0,116.41015599999992,95.51269500000035,136.6665039999998,150.2563479999999,272.17968800000017,105.51269500000035
59,179.23095699999976,139.87158199999976,125.76904300000024,110.64111300000059,77.05126999999993,113.46142599999985,109.61523400000078,110.51269500000035,118.0771479999994,100.64111300000059,129.61523400000078,150.12841800000024,264.87158199999976,111.79492200000004
60,176.6665039999998,141.79492200000004,124.61523400000078,110.89746099999957,80.89746099999957,115.89746099999957,109.35888699999941,110.51269500000035,120.0,102.82031300000017,125.89746099999957,150.0,257.82031300000017,111.9228520000006
61,175.2563479999999,145.38476599999922,122.69238299999961,108.7177729999994,86.41015599999992,119.48730499999965,110.12841800000024,110.76904300000024,121.53857400000015,102.30761700000039,127.30761700000039,149.10253900000043,251.9228520000006,108.20507799999996
62,172.56396500000028,146.79492200000004,122.69238299999961,106.6665039999998,91.53857400000015,121.2822270000006,110.51269500000035,111.6665039999998,121.79492200000004,100.64111300000059,131.0258789999998,146.9228520000006,245.89746099999957,109.74365200000011
63,167.3076170000004,143.58984400000008,123.84619099999964,105.51269500000035,94.87158199999976,119.87158199999976,109.10253900000043,112.17968800000017,120.89746099999957,99.35888699999941,132.43603499999972,143.0771479999994,238.0771479999994,114.74365200000011
64,161.0258789999998,138.0771479999994,123.58984400000008,105.0,96.15380900000036,117.17968800000017,106.9228520000006,111.2822270000006,119.35888699999941,99.35888699999941,130.12841800000024,138.46142599999985,228.58984400000008,113.9741210000002
65,155.51269500000035,132.82031300000017,122.05126999999993,105.38476599999922,94.61523400000078,115.38476599999922,106.0258789999998,109.87158199999976,118.58984400000008,99.74365200000011,125.89746099999957,134.61523400000078,218.0771479999994,108.20507799999996
66,150.38476599999922,127.69238299999961,121.2822270000006,106.9228520000006,89.61523400000078,114.74365200000011,106.79492200000004,108.7177729999994,118.7177729999994,98.0771479999994,122.05126999999993,132.56396500000028,206.79492200000004,107.17968800000017
67,144.87158199999976,121.53857400000015,121.53857400000015,107.94873000000007,83.0771479999994,114.87158199999976,108.84619099999964,108.46142599999985,118.9741210000002,93.9741210000002,120.64111300000059,132.3076170000004,195.89746099999957,111.2822270000006
68,140.6411130000006,115.76904300000024,121.2822270000006,107.17968800000017,80.0,116.6665039999998,111.9228520000006,109.61523400000078,119.87158199999976,91.2822270000006,122.43603499999972,133.46142599999985,188.3334960000002,111.53857400000015
69,138.46142599999985,112.43603499999972,121.0258789999998,105.25634799999989,83.0771479999994,120.64111300000059,115.12841800000024,112.43603499999972,121.79492200000004,93.84619099999964,125.76904300000024,135.6411130000006,184.87158199999976,106.41015599999992
70,135.6411130000006,109.87158199999976,121.15380900000036,103.7177729999994,88.58984400000008,123.84619099999964,116.0258789999998,115.64111300000059,123.9741210000002,99.48730499999965,126.2822270000006,136.15380900000036,181.15380900000036,105.89746099999957
71,128.20507799999996,104.23095699999976,119.48730499999965,102.94873000000007,89.87158199999976,123.3334960000002,113.7177729999994,116.9228520000006,124.10253900000043,102.82031300000017,120.0,131.53857400000015,171.9228520000006,112.94873000000007
72,117.56396500000028,95.64111300000059,114.61523400000078,101.79492200000004,85.51269500000035,120.12841800000024,111.2822270000006,114.74365200000011,121.0258789999998,101.15380900000036,109.74365200000011,121.6665039999998,157.56396500000028,117.17968800000017
73,109.74365200000011,89.10253900000043,109.48730499999965,101.2822270000006,80.51269500000035,119.23095699999976,113.20507799999996,110.76904300000024,116.79492200000004,97.30761700000039,102.43603499999972,112.30761700000039,145.0,112.17968800000017
74,108.46142599999985,87.94873000000007,109.48730499999965,102.94873000000007,79.74365200000011,122.43603499999972,120.0,107.82031300000017,113.58984400000008,94.35888699999941,102.94873000000007,109.35888699999941,138.9741210000002,106.53857400000015
75,111.79492200000004,90.76904300000024,114.74365200000011,106.6665039999998,84.10253900000043,126.53857400000015,126.2822270000006,106.9228520000006,112.43603499999972,93.20507799999996,109.48730499999965,113.46142599999985,138.7177729999994,109.35888699999941
76,115.64111300000059,94.35888699999941,119.23095699999976,109.74365200000011,92.69238299999961,128.20507799999996,127.17968800000017,107.56396500000028,112.94873000000007,93.3334960000002,117.17968800000017,120.25634799999989,140.38476599999922,114.87158199999976
77,117.69238299999961,97.43603499999972,119.10253900000043,110.38476599999922,104.87158199999976,127.05126999999993,121.79492200000004,109.10253900000043,114.74365200000011,95.25634799999989,121.9228520000006,124.74365200000011,140.6411130000006,113.84619099999964
78,116.41015599999992,98.3334960000002,116.0258789999998,109.48730499999965,118.9741210000002,123.58984400000008,113.46142599999985,111.15380900000036,117.05126999999993,98.20507799999996,122.56396500000028,124.61523400000078,137.17968800000017,109.74365200000011
79,109.74365200000011,94.35888699999941,112.69238299999961,108.20507799999996,131.41015599999992,117.43603499999972,105.25634799999989,112.56396500000028,118.0771479999994,100.0,119.48730499999965,119.61523400000078,127.94873000000007,110.76904300000024
80,99.23095699999976,84.48730499999965,109.74365200000011,106.79492200000004,140.2563479999999,109.74365200000011,99.87158199999976,111.9228520000006,116.79492200000004,98.9741210000002,115.25634799999989,111.53857400000015,115.12841800000024,113.84619099999964
81,90.38476599999922,73.0771479999994,107.56396500000028,105.38476599999922,148.3334960000002,104.74365200000011,99.61523400000078,109.61523400000078,113.9741210000002,97.30761700000039,114.48730499999965,105.25634799999989,104.48730499999965,110.89746099999957
82,88.58984400000008,66.15380900000036,108.20507799999996,105.38476599999922,159.61523400000078,106.0258789999998,104.35888699999941,107.82031300000017,111.79492200000004,97.56396500000028,118.7177729999994,104.48730499999965,100.38476599999922,104.48730499999965
83,92.43603499999972,64.87158199999976,112.17968800000017,107.30761700000039,173.9741210000002,111.0258789999998,110.38476599999922,107.82031300000017,111.15380900000036,100.0,124.87158199999976,108.20507799999996,100.64111300000059,104.74365200000011
84,96.15380900000036,65.89746099999957,115.38476599999922,109.23095699999976,187.94873000000007,114.48730499999965,113.0771479999994,108.7177729999994,110.89746099999957,103.0771479999994,128.0771479999994,111.2822270000006,99.61523400000078,110.89746099999957
85,96.15380900000036,66.0258789999998,113.9741210000002,109.35888699999941,199.3588869999994,113.9741210000002,111.6665039999998,109.48730499999965,110.64111300000059,107.30761700000039,127.69238299999961,110.25634799999989,95.12841800000024,112.69238299999961
86,93.58984400000008,64.61523400000078,109.61523400000078,108.58984400000008,208.9741210000002,111.41015599999992,108.20507799999996,109.87158199999976,110.64111300000059,115.0,126.0258789999998,106.2822270000006,89.23095699999976,107.82031300000017
87,90.89746099999957,62.56396500000028,106.9228520000006,108.9741210000002,217.56396500000028,108.84619099999964,104.74365200000011,110.12841800000024,111.0258789999998,126.53857400000015,125.76904300000024,102.56396500000028,84.74365200000011,106.0258789999998
88,90.76904300000024,62.17968800000017,107.56396500000028,110.25634799999989,224.3588869999994,106.2822270000006,101.0258789999998,109.48730499999965,111.41015599999992,140.51269500000035,127.17968800000017,100.89746099999957,82.82031300000017,110.51269500000035
89,95.64111300000059,66.79492200000004,109.35888699999941,111.15380900000036,229.3588869999994,103.84619099999964,97.05126999999993,108.0771479999994,111.15380900000036,156.41015599999992,130.76904300000024,101.79492200000004,85.25634799999989,112.82031300000017
90,105.76904300000024,77.30761700000039,111.41015599999992,111.53857400000015,232.56396500000028,101.9228520000006,93.9741210000002,106.53857400000015,110.76904300000024,175.12841800000024,136.79492200000004,105.64111300000059,92.69238299999961,108.7177729999994
91,116.9228520000006,89.61523400000078,114.35888699999941,112.43603499999972,233.46142599999985,99.74365200000011,91.9228520000006,105.76904300000024,110.51269500000035,196.2822270000006,143.3334960000002,110.89746099999957,102.17968800000017,106.6665039999998
92,121.9228520000006,96.6665039999998,115.64111300000059,113.7177729999994,231.2822270000006,96.2822270000006,89.87158199999976,105.25634799999989,110.0,217.3076170000004,146.6665039999998,113.9741210000002,107.56396500000028,111.79492200000004
93,117.94873000000007,96.53857400000015,111.9228520000006,113.58984400000008,228.84619099999964,92.56396500000028,87.56396500000028,103.58984400000008,108.84619099999964,236.79492200000004,144.7436520000001,111.9228520000006,105.89746099999957,116.0258789999998
94,108.84619099999964,93.3334960000002,104.10253900000043,112.05126999999993,231.0258789999998,91.41015599999992,86.15380900000036,101.15380900000036,107.56396500000028,254.87158199999976,140.51269500000035,105.25634799999989,99.61523400000078,112.05126999999993
95,100.38476599999922,91.79492200000004,97.82031300000017,110.89746099999957,238.7177729999994,92.82031300000017,85.89746099999957,98.7177729999994,106.2822270000006,269.87158199999976,137.56396500000028,97.43603499999972,92.56396500000028,106.79492200000004
96,94.48730499999965,92.05126999999993,96.9228520000006,111.0258789999998,247.17968800000017,93.84619099999964,84.87158199999976,96.6665039999998,104.48730499999965,277.82031300000017,136.9228520000006,90.51269500000035,85.89746099999957,109.61523400000078
97,90.25634799999989,92.05126999999993,98.7177729999994,110.89746099999957,251.2822270000006,91.9228520000006,81.41015599999992,94.61523400000078,102.56396500000028,277.05126999999993,136.53857400000015,85.25634799999989,79.23095699999976,115.76904300000024
98,87.69238299999961,91.53857400000015,99.35888699999941,109.87158199999976,252.05126999999993,88.84619099999964,76.9228520000006,92.94873000000007,102.17968800000017,272.3076170000004,135.6411130000006,82.30761700000039,73.7177729999994,115.0
99,87.56396500000028,90.89746099999957,99.23095699999976,109.35888699999941,252.94873000000007,88.0771479999994,74.10253900000043,93.20507799999996,105.12841800000024,271.15380900000036,135.38476599999922,83.20507799999996,71.0258789999998,109.10253900000043
100,89.10253900000043,90.25634799999989,100.64111300000059,110.64111300000059,255.6411130000006,89.35888699999941,73.9741210000002,95.76904300000024,110.25634799999989,277.05126999999993,137.3076170000004,87.56396500000028,71.41015599999992,108.46142599999985
101,92.17968800000017,90.51269500000035,103.20507799999996,113.3334960000002,258.7177729999994,90.38476599999922,75.64111300000059,99.10253900000043,114.48730499999965,288.0771479999994,143.3334960000002,93.58984400000008,75.25634799999989,113.20507799999996
102,97.05126999999993,93.84619099999964,105.12841800000024,115.38476599999922,261.79492200000004,90.25634799999989,77.56396500000028,101.15380900000036,115.64111300000059,300.12841800000024,154.87158199999976,98.9741210000002,82.94873000000007,113.9741210000002
103,102.82031300000017,100.0,106.15380900000036,116.53857400000015,264.87158199999976,89.74365200000011,79.10253900000043,101.41015599999992,113.7177729999994,308.0771479999994,169.61523400000078,101.79492200000004,92.82031300000017,109.61523400000078
104,104.74365200000011,103.84619099999964,107.05126999999993,116.6665039999998,267.82031300000017,90.0,79.48730499999965,100.25634799999989,109.87158199999976,308.20507799999996,180.76904300000024,100.76904300000024,97.94873000000007,108.3334960000002
105,98.58984400000008,101.0258789999998,106.41015599999992,115.38476599999922,271.4101559999999,91.79492200000004,79.10253900000043,98.58984400000008,106.2822270000006,301.15380900000036,182.43603499999972,95.64111300000059,93.46142599999985,112.17968800000017
106,87.56396500000028,93.7177729999994,103.0771479999994,112.56396500000028,278.46142599999985,96.79492200000004,80.12841800000024,97.94873000000007,105.12841800000024,293.84619099999964,176.0258789999998,89.23095699999976,81.79492200000004,112.56396500000028
107,78.9741210000002,87.82031300000017,99.87158199999976,109.87158199999976,289.6152340000008,104.10253900000043,84.10253900000043,99.35888699999941,107.30761700000039,293.46142599999985,168.46142599999985,86.2822270000006,71.0258789999998,107.69238299999961
108,77.17968800000017,85.51269500000035,101.0258789999998,109.74365200000011,299.23095699999976,110.0,89.48730499999965,102.69238299999961,110.89746099999957,299.3588869999994,165.76904300000024,88.58984400000008,66.6665039999998,106.9228520000006
109,80.0,83.9741210000002,105.64111300000059,111.41015599999992,300.51269500000035,110.76904300000024,92.56396500000028,105.38476599999922,112.30761700000039,304.10253900000043,168.0771479999994,93.20507799999996,67.82031300000017,113.9741210000002
110,84.61523400000078,82.43603499999972,108.84619099999964,112.82031300000017,294.10253900000043,108.46142599999985,92.43603499999972,105.51269500000035,110.89746099999957,302.4360349999997,172.56396500000028,96.9228520000006,72.05126999999993,118.84619099999964
111,89.48730499999965,82.94873000000007,108.58984400000008,113.0771479999994,288.0771479999994,108.58984400000008,92.05126999999993,103.84619099999964,108.84619099999964,295.51269500000035,176.6665039999998,98.9741210000002,77.56396500000028,113.7177729999994
112,91.79492200000004,85.51269500000035,107.30761700000039,113.20507799999996,288.0771479999994,112.43603499999972,93.46142599999985,102.05126999999993,108.7177729999994,288.0771479999994,177.43603499999972,99.35888699999941,80.89746099999957,106.9228520000006
113,88.0771479999994,86.41015599999992,106.0258789999998,113.3334960000002,291.53857400000015,115.0,95.12841800000024,100.76904300000024,110.12841800000024,282.6923829999996,172.94873000000007,96.53857400000015,77.82031300000017,108.3334960000002
114,78.0771479999994,82.94873000000007,103.7177729999994,111.79492200000004,292.17968800000017,110.89746099999957,93.46142599999985,98.7177729999994,110.51269500000035,279.3588869999994,163.84619099999964,89.48730499999965,67.43603499999972,113.7177729999994
115,67.56396500000028,76.9228520000006,99.87158199999976,108.9741210000002,288.20507799999996,101.79492200000004,88.20507799999996,95.89746099999957,109.35888699999941,277.17968800000017,154.7436520000001,80.51269500000035,54.87158199999976,113.3334960000002
116,61.666503999999804,71.6665039999998,97.94873000000007,107.05126999999993,283.3334960000002,93.9741210000002,82.56396500000028,94.10253900000043,107.56396500000028,275.12841800000024,149.87158199999976,74.48730499999965,46.53857400000015,108.9741210000002
117,60.51269500000035,67.30761700000039,99.61523400000078,107.56396500000028,281.2822270000006,92.43603499999972,80.51269500000035,94.87158199999976,106.9228520000006,271.53857400000015,149.61523400000078,73.58984400000008,44.23095699999976,108.84619099999964
118,61.53857400000015,63.589844000000085,102.30761700000039,108.9741210000002,284.10253900000043,97.82031300000017,83.3334960000002,97.56396500000028,107.56396500000028,266.9228520000006,151.2822270000006,75.64111300000059,46.410155999999915,111.41015599999992
119,62.43603499999972,61.2822270000006,102.05126999999993,109.23095699999976,290.89746099999957,106.53857400000015,89.48730499999965,100.64111300000059,108.9741210000002,264.23095699999976,152.6923829999996,77.56396500000028,50.38476599999922,108.84619099999964
120,61.79492200000004,60.25634799999989,99.35888699999941,108.3334960000002,297.6923829999996,113.3334960000002,94.87158199999976,102.17968800000017,109.61523400000078,265.2563479999999,152.43603499999972,77.05126999999993,52.30761700000039,103.46142599999985
121,57.43603499999972,58.20507799999996,96.41015599999992,107.43603499999972,299.10253900000043,113.58984400000008,95.38476599999922,101.0258789999998,108.84619099999964,268.20507799999996,149.48730499999965,73.46142599999985,48.846190999999635,104.61523400000078
122,50.0,53.46142599999985,93.58984400000008,107.05126999999993,293.84619099999964,107.56396500000028,89.87158199999976,97.17968800000017,106.79492200000004,269.7436520000001,145.12841800000024,67.82031300000017,40.38476599999922,111.41015599999992
123,43.974121000000196,48.589844000000085,90.25634799999989,106.53857400000015,287.4360349999997,101.79492200000004,82.69238299999961,93.3334960000002,105.64111300000059,269.23095699999976,143.20507799999996,63.46142599999985,33.20507799999996,113.46142599999985
124,43.0771479999994,46.9228520000006,88.0771479999994,106.41015599999992,286.4101559999999,101.79492200000004,79.35888699999941,93.0771479999994,106.9228520000006,267.94873000000007,146.9228520000006,63.46142599999985,33.589844000000085,108.84619099999964
125,45.0,47.05126999999993,89.10253900000043,107.05126999999993,290.3847659999992,106.6665039999998,81.2822270000006,97.43603499999972,110.0,266.15380900000036,153.84619099999964,66.9228520000006,39.102539000000434,107.69238299999961
126,44.23095699999976,44.61523400000078,91.79492200000004,107.30761700000039,293.3334960000002,110.64111300000059,85.38476599999922,102.82031300000017,112.05126999999993,263.3334960000002,157.94873000000007,69.48730499999965,42.43603499999972,114.10253900000043
127,40.64111300000059,39.61523400000078,93.0771479999994,105.89746099999957,292.05126999999993,111.0258789999998,88.58984400000008,105.12841800000024,111.53857400000015,261.15380900000036,157.05126999999993,68.7177729999994,40.51269500000035,118.20507799999996
128,39.87158199999976,37.69238299999961,93.7177729999994,104.74365200000011,289.3588869999994,110.12841800000024,90.51269500000035,103.3334960000002,109.87158199999976,262.5639650000003,155.0,67.82031300000017,38.974121000000196,113.7177729999994
129,45.38476599999922,42.43603499999972,97.17968800000017,106.2822270000006,289.6152340000008,110.51269500000035,91.53857400000015,100.0,109.10253900000043,266.9228520000006,156.53857400000015,70.89746099999957,43.7177729999994,108.9741210000002
130,53.974121000000196,50.38476599999922,102.94873000000007,110.0,292.6923829999996,111.6665039999998,91.79492200000004,98.0771479999994,109.74365200000011,269.3588869999994,161.15380900000036,77.94873000000007,53.333496000000196,112.05126999999993
131,58.7177729999994,54.61523400000078,106.0258789999998,112.05126999999993,295.2563479999999,111.79492200000004,91.6665039999998,98.46142599999985,110.51269500000035,266.2822270000006,164.10253900000043,84.35888699999941,60.64111300000059,116.79492200000004
132,55.64111300000059,50.64111300000059,103.46142599999985,110.12841800000024,293.20507799999996,110.64111300000059,92.69238299999961,100.76904300000024,110.51269500000035,258.46142599999985,161.79492200000004,85.89746099999957,58.846190999999635,114.61523400000078
133,45.897460999999566,38.974121000000196,98.58984400000008,106.0258789999998,284.23095699999976,108.3334960000002,94.74365200000011,103.46142599999985,109.48730499999965,249.7436520000001,154.3588869999994,82.05126999999993,47.05126999999993,109.61523400000078
134,35.38476599999922,24.615234000000783,95.89746099999957,103.3334960000002,269.6152340000008,105.0,95.51269500000035,104.35888699999941,107.94873000000007,243.20507799999996,145.6411130000006,76.15380900000036,31.025878999999804,110.38476599999922
135,33.46142599999985,17.43603499999972,96.53857400000015,103.9741210000002,256.53857400000015,102.30761700000039,93.46142599999985,102.69238299999961,106.79492200000004,241.2822270000006,141.79492200000004,73.7177729999994,22.82031300000017,113.84619099999964
136,47.17968800000017,26.025878999999804,100.0,108.0771479999994,254.48730499999965,103.3334960000002,90.25634799999989,100.0,107.17968800000017,245.51269500000035,147.56396500000028,79.23095699999976,32.56396500000028,111.2822270000006
137,73.84619099999964,48.589844000000085,106.0258789999998,114.35888699999941,265.89746099999957,108.58984400000008,88.0771479999994,98.46142599999985,109.48730499999965,253.58984400000008,160.89746099999957,92.82031300000017,58.20507799999996,105.38476599999922
138,100.0,71.53857400000015,112.82031300000017,120.12841800000024,281.9228520000006,114.10253900000043,87.30761700000039,98.46142599999985,111.6665039999998,258.7177729999994,173.46142599999985,107.56396500000028,85.0,106.0258789999998
139,112.69238299999961,80.64111300000059,115.76904300000024,121.79492200000004,289.48730499999965,114.87158199999976,86.79492200000004,98.0771479999994,112.05126999999993,255.38476599999922,177.05126999999993,114.87158199999976,97.56396500000028,112.17968800000017
140,110.0,73.58984400000008,112.17968800000017,117.69238299999961,282.4360349999997,111.15380900000036,86.53857400000015,96.41015599999992,110.76904300000024,244.87158199999976,172.05126999999993,112.05126999999993,93.58984400000008,113.3334960000002
141,100.51269500000035,60.51269500000035,105.51269500000035,110.89746099999957,266.79492200000004,106.2822270000006,86.53857400000015,94.48730499999965,109.48730499999965,234.10253900000043,165.0,104.10253900000043,83.0771479999994,107.94873000000007
142,93.7177729999994,52.82031300000017,101.41015599999992,106.2822270000006,253.20507799999996,102.69238299999961,86.0258789999998,93.7177729999994,109.23095699999976,228.0771479999994,161.0258789999998,97.56396500000028,76.41015599999992,105.76904300000024
143,92.94873000000007,54.74365200000011,101.0258789999998,105.89746099999957,249.7436520000001,100.64111300000059,84.48730499999965,94.48730499999965,109.10253900000043,226.9228520000006,160.6411130000006,95.12841800000024,76.6665039999998,110.25634799999989
144,96.79492200000004,63.589844000000085,101.6665039999998,108.9741210000002,257.05126999999993,100.89746099999957,84.10253900000043,96.41015599999992,108.58984400000008,228.46142599999985,162.3076170000004,96.41015599999992,80.76904300000024,112.05126999999993
145,101.41015599999992,72.69238299999961,102.30761700000039,113.84619099999964,268.20507799999996,104.48730499999965,87.30761700000039,98.58984400000008,108.46142599999985,230.38476599999922,165.51269500000035,99.48730499999965,84.10253900000043,106.6665039999998
146,102.17968800000017,75.12841800000024,104.23095699999976,118.46142599999985,272.94873000000007,109.23095699999976,92.69238299999961,99.87158199999976,108.9741210000002,230.2563479999999,168.9741210000002,101.9228520000006,82.30761700000039,102.94873000000007
147,97.05126999999993,68.7177729999994,107.17968800000017,120.12841800000024,265.76904300000024,111.15380900000036,95.64111300000059,99.48730499999965,109.35888699999941,227.05126999999993,170.51269500000035,101.53857400000015,74.48730499999965,107.69238299999961
148,89.74365200000011,59.35888699999941,108.3334960000002,117.05126999999993,251.9228520000006,109.48730499999965,93.9741210000002,98.20507799999996,109.35888699999941,223.0771479999994,168.9741210000002,98.9741210000002,65.76904300000024,113.58984400000008
149,85.89746099999957,55.12841800000024,107.05126999999993,110.89746099999957,243.0771479999994,108.0771479999994,90.89746099999957,99.10253900000043,109.74365200000011,223.20507799999996,165.38476599999922,97.17968800000017,63.20507799999996,112.30761700000039
150,86.53857400000015,57.69238299999961,106.0258789999998,106.15380900000036,244.48730499999965,108.9741210000002,89.74365200000011,103.0771479999994,111.2822270000006,227.82031300000017,160.2563479999999,97.69238299999961,67.17968800000017,108.46142599999985
151,87.05126999999993,61.2822270000006,106.0258789999998,105.25634799999989,250.0,109.87158199999976,90.51269500000035,107.82031300000017,113.0771479999994,231.6665039999998,153.84619099999964,97.94873000000007,71.2822270000006,110.38476599999922
152,83.46142599999985,60.38476599999922,104.61523400000078,106.79492200000004,250.6411130000006,107.94873000000007,90.89746099999957,109.48730499999965,113.84619099999964,229.48730499999965,146.9228520000006,94.61523400000078,69.74365200000011,114.23095699999976
153,76.79492200000004,54.87158199999976,100.51269500000035,108.20507799999996,244.61523400000078,104.48730499999965,89.61523400000078,107.05126999999993,112.94873000000007,221.2822270000006,142.3076170000004,88.20507799999996,63.46142599999985,112.05126999999993
154,70.64111300000059,48.46142599999985,96.41015599999992,109.10253900000043,236.79492200000004,102.30761700000039,87.56396500000028,102.56396500000028,111.15380900000036,211.53857400000015,140.89746099999957,81.6665039999998,56.53857400000015,107.43603499999972
155,66.53857400000015,43.7177729999994,94.87158199999976,109.35888699999941,231.9228520000006,102.69238299999961,86.0258789999998,98.20507799999996,108.84619099999964,203.20507799999996,140.89746099999957,77.56396500000028,51.153809000000365,109.74365200000011
156,64.61523400000078,42.43603499999972,95.0,108.9741210000002,231.15380900000036,104.35888699999941,86.15380900000036,95.25634799999989,106.41015599999992,196.9228520000006,140.12841800000024,75.89746099999957,47.30761700000039,116.2822270000006
157,65.12841800000024,46.53857400000015,94.74365200000011,108.46142599999985,232.6923829999996,106.15380900000036,88.7177729999994,94.35888699999941,104.35888699999941,193.46142599999985,139.61523400000078,76.2822270000006,45.897460999999566,116.2822270000006
158,67.30761700000039,54.35888699999941,95.0,109.23095699999976,233.3334960000002,107.56396500000028,92.56396500000028,95.51269500000035,103.84619099999964,192.94873000000007,141.2822270000006,78.58984400000008,46.9228520000006,109.23095699999976
159,67.56396500000028,59.74365200000011,96.79492200000004,111.0258789999998,230.38476599999922,106.2822270000006,93.84619099999964,97.30761700000039,104.48730499999965,193.0771479999994,144.7436520000001,81.0258789999998,47.17968800000017,106.0258789999998
160,63.333496000000196,57.94873000000007,98.20507799999996,111.2822270000006,224.48730499999965,101.53857400000015,90.64111300000059,97.82031300000017,104.87158199999976,190.38476599999922,147.05126999999993,80.51269500000035,44.102539000000434,110.38476599999922
161,57.94873000000007,51.666503999999804,96.53857400000015,108.7177729999994,219.61523400000078,96.6665039999998,85.51269500000035,96.41015599999992,104.74365200000011,185.0,147.43603499999972,77.05126999999993,40.0,113.0771479999994
162,56.9228520000006,47.43603499999972,93.3334960000002,105.51269500000035,218.9741210000002,96.53857400000015,83.58984400000008,94.87158199999976,104.87158199999976,179.10253900000043,147.56396500000028,73.9741210000002,39.48730499999965,110.12841800000024
163,60.897460999999566,48.589844000000085,92.69238299999961,105.38476599999922,218.58984400000008,100.51269500000035,86.6665039999998,94.87158199999976,105.64111300000059,173.58984400000008,148.0771479999994,73.9741210000002,42.82031300000017,109.10253900000043
164,65.25634799999989,52.82031300000017,94.87158199999976,108.20507799999996,212.05126999999993,103.20507799999996,91.2822270000006,95.25634799999989,106.15380900000036,166.9228520000006,147.56396500000028,75.76904300000024,45.25634799999989,113.84619099999964
165,66.41015599999992,56.666503999999804,96.53857400000015,111.15380900000036,198.46142599999985,101.53857400000015,92.94873000000007,94.48730499999965,105.38476599999922,159.23095699999976,146.41015599999992,76.9228520000006,43.846190999999635,116.0258789999998
166,64.61523400000078,58.846190999999635,96.2822270000006,112.05126999999993,184.10253900000043,97.43603499999972,90.51269500000035,92.43603499999972,103.7177729999994,152.56396500000028,146.53857400000015,76.6665039999998,40.0,110.12841800000024
167,61.2822270000006,57.94873000000007,95.89746099999957,111.2822270000006,176.0258789999998,94.48730499999965,85.64111300000059,90.76904300000024,101.79492200000004,148.20507799999996,148.0771479999994,75.89746099999957,36.79492200000004,104.48730499999965
168,56.79492200000004,53.333496000000196,96.0258789999998,109.61523400000078,175.38476599999922,93.46142599999985,81.2822270000006,90.38476599999922,100.25634799999989,144.48730499999965,148.0771479999994,75.25634799999989,35.64111300000059,107.30761700000039
169,53.333496000000196,47.82031300000017,95.25634799999989,107.17968800000017,178.7177729999994,94.74365200000011,80.38476599999922,91.15380900000036,100.12841800000024,140.38476599999922,144.61523400000078,74.74365200000011,37.56396500000028,112.82031300000017
170,55.12841800000024,48.20507799999996,93.58984400000008,105.25634799999989,181.53857400000015,99.61523400000078,85.64111300000059,93.20507799999996,102.30761700000039,137.6923829999996,141.15380900000036,75.76904300000024,43.0771479999994,111.79492200000004
171,63.7177729999994,57.69238299999961,93.9741210000002,106.53857400000015,179.7436520000001,107.69238299999961,95.89746099999957,97.17968800000017,106.79492200000004,137.6923829999996,142.82031300000017,79.87158199999976,50.51269500000035,107.94873000000007
172,74.87158199999976,71.53857400000015,97.94873000000007,111.15380900000036,171.15380900000036,115.64111300000059,106.53857400000015,102.69238299999961,111.41015599999992,138.84619099999964,149.61523400000078,86.15380900000036,56.025878999999804,110.51269500000035
173,82.56396500000028,82.17968800000017,102.43603499999972,116.0258789999998,157.56396500000028,119.48730499999965,112.56396500000028,107.17968800000017,114.10253900000043,138.58984400000008,155.89746099999957,91.2822270000006,58.589844000000085,116.41015599999992
174,83.9741210000002,85.38476599999922,103.46142599999985,117.17968800000017,142.94873000000007,118.58984400000008,112.69238299999961,108.3334960000002,114.10253900000043,137.05126999999993,155.89746099999957,92.56396500000028,60.64111300000059,115.76904300000024
175,79.87158199999976,81.6665039999998,101.53857400000015,114.61523400000078,129.48730499999965,113.9741210000002,109.48730499999965,106.2822270000006,112.69238299999961,134.7436520000001,148.84619099999964,89.74365200000011,64.10253900000043,109.48730499999965
176,72.30761700000039,72.94873000000007,99.23095699999976,110.76904300000024,114.87158199999976,106.41015599999992,104.87158199999976,102.82031300000017,110.89746099999957,129.3588869999994,139.61523400000078,84.61523400000078,65.51269500000035,107.82031300000017
177,63.46142599999985,62.17968800000017,97.17968800000017,107.69238299999961,97.56396500000028,97.56396500000028,100.38476599999922,99.74365200000011,108.9741210000002,119.35888699999941,134.3588869999994,79.48730499999965,60.25634799999989,112.17968800000017
178,57.82031300000017,55.25634799999989,94.74365200000011,106.0258789999998,81.9228520000006,92.17968800000017,98.3334960000002,98.9741210000002,107.94873000000007,107.82031300000017,136.79492200000004,77.17968800000017,49.23095699999976,113.20507799999996
179,58.20507799999996,57.05126999999993,93.84619099999964,107.05126999999993,74.10253900000043,93.84619099999964,100.0,101.0258789999998,108.7177729999994,100.51269500000035,143.46142599999985,79.35888699999941,38.46142599999985,108.84619099999964
180,62.43603499999972,65.76904300000024,96.41015599999992,110.51269500000035,75.12841800000024,100.51269500000035,103.7177729999994,104.48730499999965,110.76904300000024,99.87158199999976,144.3588869999994,83.9741210000002,33.0771479999994,107.69238299999961
181,65.12841800000024,74.23095699999976,99.87158199999976,113.9741210000002,79.48730499999965,105.89746099999957,105.76904300000024,106.79492200000004,112.17968800000017,102.30761700000039,131.53857400000015,86.0258789999998,34.35888699999941,113.0771479999994
182,64.61523400000078,77.56396500000028,100.12841800000024,114.10253900000043,82.43603499999972,106.41015599999992,105.51269500000035,106.41015599999992,111.79492200000004,103.7177729999994,109.61523400000078,83.20507799999996,42.17968800000017,115.51269500000035
183,64.23095699999976,76.53857400000015,97.43603499999972,111.53857400000015,82.56396500000028,103.7177729999994,105.0,105.0,110.76904300000024,102.43603499999972,94.87158199999976,79.10253900000043,55.12841800000024,109.48730499999965
184,67.17968800000017,73.9741210000002,96.6665039999998,110.38476599999922,80.0,101.0258789999998,106.53857400000015,104.74365200000011,110.38476599999922,98.3334960000002,101.41015599999992,80.12841800000024,67.43603499999972,103.84619099999964
185,72.94873000000007,71.15380900000036,100.12841800000024,113.58984400000008,74.23095699999976,99.74365200000011,108.9741210000002,105.89746099999957,111.15380900000036,91.79492200000004,126.41015599999992,88.20507799999996,71.15380900000036,106.9228520000006
186,78.3334960000002,68.7177729999994,105.12841800000024,119.10253900000043,67.56396500000028,100.12841800000024,110.64111300000059,107.17968800000017,112.82031300000017,84.87158199999976,150.0,99.61523400000078,62.82031300000017,112.82031300000017
187,80.89746099999957,67.94873000000007,107.69238299999961,123.20507799999996,64.61523400000078,102.30761700000039,110.51269500000035,107.17968800000017,115.0,80.25634799999989,149.7436520000001,107.69238299999961,47.94873000000007,112.30761700000039
188,79.48730499999965,69.10253900000043,107.94873000000007,123.9741210000002,67.82031300000017,104.10253900000043,108.58984400000008,106.53857400000015,116.79492200000004,78.3334960000002,118.7177729999994,108.84619099999964,36.410155999999915,109.23095699999976
189,75.51269500000035,71.6665039999998,107.30761700000039,121.79492200000004,74.48730499999965,103.58984400000008,105.51269500000035,105.64111300000059,117.43603499999972,76.0258789999998,71.15380900000036,103.58984400000008,34.87158199999976,111.6665039999998
190,72.94873000000007,76.53857400000015,105.76904300000024,118.20507799999996,80.25634799999989,101.53857400000015,103.9741210000002,105.12841800000024,116.79492200000004,72.05126999999993,32.82031300000017,97.05126999999993,44.61523400000078,116.15380900000036
191,76.41015599999992,86.0258789999998,104.10253900000043,114.61523400000078,82.69238299999961,101.53857400000015,107.05126999999993,105.38476599999922,116.53857400000015,68.84619099999964,21.538574000000153,95.12841800000024,63.20507799999996,113.58984400000008
192,85.0,98.46142599999985,104.61523400000078,112.69238299999961,80.38476599999922,104.74365200000011,114.23095699999976,107.17968800000017,117.94873000000007,68.3334960000002,34.35888699999941,99.35888699999941,83.46142599999985,106.6665039999998
193,91.79492200000004,106.41015599999992,107.30761700000039,112.05126999999993,72.69238299999961,107.56396500000028,120.25634799999989,108.84619099999964,120.12841800000024,67.30761700000039,51.53857400000015,104.87158199999976,95.38476599999922,105.89746099999957
194,90.12841800000024,103.0771479999994,108.58984400000008,111.2822270000006,60.76904300000024,105.64111300000059,119.87158199999976,108.7177729999994,120.64111300000059,60.25634799999989,54.48730499999965,104.48730499999965,92.82031300000017,111.2822270000006
195,80.64111300000059,89.87158199999976,105.25634799999989,110.51269500000035,50.76904300000024,98.84619099999964,112.69238299999961,106.2822270000006,118.58984400000008,45.51269500000035,40.38476599999922,96.53857400000015,79.48730499999965,112.69238299999961
196,70.38476599999922,74.35888699999941,100.51269500000035,111.53857400000015,48.846190999999635,91.15380900000036,103.20507799999996,103.46142599999985,114.74365200000011,26.922852000000603,21.025878999999804,86.6665039999998,64.87158199999976,108.0771479999994
197,64.87158199999976,65.0,99.48730499999965,115.25634799999989,56.53857400000015,86.9228520000006,97.56396500000028,101.6665039999998,111.0258789999998,11.025878999999804,9.102539000000434,81.6665039999998,55.76904300000024,106.0258789999998
198,66.15380900000036,66.79492200000004,102.69238299999961,118.9741210000002,69.10253900000043,88.0771479999994,98.46142599999985,101.0258789999998,108.84619099999964,3.077147999999397,8.589844000000085,83.7177729999994,53.46142599999985,109.35888699999941
199,73.84619099999964,80.89746099999957,105.89746099999957,119.10253900000043,80.12841800000024,94.87158199999976,105.51269500000035,101.41015599999992,109.10253900000043,5.128418000000238,15.769043000000238,90.12841800000024,56.79492200000004,110.0
200,85.25634799999989,102.17968800000017,106.9228520000006,115.38476599999922,83.84619099999964,104.87158199999976,114.87158199999976,102.82031300000017,111.2822270000006,15.0,24.230956999999762,97.82031300000017,64.23095699999976,104.87158199999976
201,94.23095699999976,118.3334960000002,107.69238299999961,110.0,76.9228520000006,112.05126999999993,120.64111300000059,105.25634799999989,113.7177729999994,25.0,28.333496000000196,103.84619099999964,73.0771479999994,103.46142599999985
202,94.48730499999965,118.58984400000008,108.58984400000008,105.25634799999989,60.64111300000059,110.51269500000035,118.46142599999985,107.17968800000017,114.23095699999976,27.30761700000039,26.538574000000153,105.89746099999957,78.84619099999964,110.64111300000059
203,86.53857400000015,102.94873000000007,107.82031300000017,102.05126999999993,42.30761700000039,100.76904300000024,108.9741210000002,107.30761700000039,112.94873000000007,19.871581999999762,21.410155999999915,103.9741210000002,79.23095699999976,116.9228520000006
204,77.30761700000039,83.20507799999996,105.12841800000024,101.9228520000006,32.30761700000039,89.61523400000078,99.10253900000043,106.15380900000036,112.05126999999993,8.205077999999958,16.666503999999804,100.76904300000024,76.2822270000006,113.58984400000008
205,73.46142599999985,72.56396500000028,103.58984400000008,105.64111300000059,35.51269500000035,84.10253900000043,95.64111300000059,105.89746099999957,113.46142599999985,0.6411130000005869,12.43603499999972,100.0,73.58984400000008,107.30761700000039
206,76.6665039999998,77.05126999999993,105.38476599999922,111.2822270000006,48.974121000000196,86.15380900000036,100.64111300000059,107.43603499999972,116.6665039999998,1.2822270000006029,7.43603499999972,103.0771479999994,73.7177729999994,108.3334960000002
207,85.38476599999922,93.58984400000008,108.7177729999994,114.74365200000011,65.51269500000035,94.10253900000043,110.64111300000059,110.12841800000024,120.0,8.461425999999847,3.9741210000001956,109.23095699999976,78.0771479999994,113.3334960000002
208,96.53857400000015,114.61523400000078,111.2822270000006,113.9741210000002,78.20507799999996,104.61523400000078,120.12841800000024,112.82031300000017,121.9228520000006,17.30761700000039,6.794922000000042,116.9228520000006,86.0258789999998,112.69238299999961
209,105.12841800000024,128.84619099999964,113.20507799999996,110.12841800000024,80.0,111.9228520000006,123.9741210000002,114.74365200000011,121.53857400000015,20.641113000000587,15.512695000000349,122.82031300000017,92.30761700000039,108.0771479999994
210,104.10253900000043,127.17968800000017,113.58984400000008,105.89746099999957,66.79492200000004,109.35888699999941,119.48730499999965,113.9741210000002,117.94873000000007,12.82031300000017,21.794922000000042,121.79492200000004,89.48730499999965,108.0771479999994
211,91.6665039999998,109.74365200000011,109.48730499999965,102.05126999999993,42.05126999999993,96.0258789999998,108.3334960000002,109.74365200000011,112.17968800000017,-4.230713000000378,16.410155999999915,111.79492200000004,75.51269500000035,111.53857400000015
212,75.38476599999922,88.9741210000002,101.0258789999998,99.23095699999976,18.717772999999397,80.25634799999989,97.69238299999961,103.84619099999964,107.69238299999961,-20.512939000000188,0.256347999999889,97.30761700000039,58.7177729999994,109.87158199999976
213,65.76904300000024,78.84619099999964,94.23095699999976,99.35888699999941,9.358886999999413,73.58984400000008,94.61523400000078,100.64111300000059,107.69238299999961,-26.025634999999966,-17.30761700000039,87.17968800000017,49.74365200000011,103.9741210000002
214,65.76904300000024,82.56396500000028,94.10253900000043,102.94873000000007,14.871581999999762,78.84619099999964,99.61523400000078,102.17968800000017,111.9228520000006,-20.38452099999995,-26.923095999999987,86.53857400000015,51.9228520000006,103.7177729999994
215,69.61523400000078,90.25634799999989,99.10253900000043,107.69238299999961,25.384765999999217,88.84619099999964,106.53857400000015,106.41015599999992,116.53857400000015,-11.28198199999997,-25.38452099999995,92.17968800000017,59.35888699999941,110.0
216,71.41015599999992,92.05126999999993,102.94873000000007,110.76904300000024,31.025878999999804,94.35888699999941,108.7177729999994,110.12841800000024,117.94873000000007,-6.153809000000365,-15.256347999999889,97.94873000000007,64.61523400000078,112.17968800000017
217,69.61523400000078,85.76904300000024,102.94873000000007,111.9228520000006,29.102539000000434,91.79492200000004,105.12841800000024,110.64111300000059,115.38476599999922,-7.307617000000391,-3.2050779999999577,99.48730499999965,65.38476599999922,106.41015599999992
218,66.2822270000006,76.2822270000006,101.0258789999998,112.43603499999972,22.56396500000028,83.46142599999985,98.46142599999985,108.20507799999996,110.89746099999957,-12.820557000000008,4.102539000000434,96.79492200000004,62.56396500000028,102.56396500000028
219,63.7177729999994,70.12841800000024,99.10253900000043,112.17968800000017,15.897460999999566,75.25634799999989,93.20507799999996,104.10253900000043,106.79492200000004,-19.8718259999996,3.846190999999635,92.05126999999993,59.61523400000078,106.79492200000004
220,65.0,72.17968800000017,97.30761700000039,109.61523400000078,14.358886999999413,73.7177729999994,92.82031300000017,101.0258789999998,105.76904300000024,-23.974365000000034,0.8974609999995664,89.23095699999976,61.410155999999915,111.2822270000006
221,71.0258789999998,82.69238299999961,96.9228520000006,105.38476599999922,20.641113000000587,81.9228520000006,98.0771479999994,101.2822270000006,108.7177729999994,-21.666747999999643,2.4360349999997197,91.0258789999998,69.87158199999976,109.35888699999941
222,78.20507799999996,95.64111300000059,99.48730499999965,102.82031300000017,31.025878999999804,94.87158199999976,105.64111300000059,105.25634799999989,114.35888699999941,-14.8718259999996,9.871581999999762,96.53857400000015,79.87158199999976,106.79492200000004
223,80.64111300000059,102.94873000000007,103.3334960000002,103.7177729999994,37.43603499999972,103.3334960000002,110.51269500000035,110.0,119.10253900000043,-8.846190999999635,16.794922000000042,100.38476599999922,83.0771479999994,110.25634799999989
224,76.6665039999998,102.30761700000039,104.48730499999965,106.53857400000015,35.0,102.43603499999972,111.53857400000015,112.43603499999972,120.25634799999989,-6.666747999999643,17.43603499999972,99.48730499999965,77.69238299999961,114.23095699999976
225,71.6665039999998,98.84619099999964,102.43603499999972,108.84619099999964,26.666503999999804,96.53857400000015,111.15380900000036,112.30761700000039,118.58984400000008,-6.41015600000037,13.589844000000085,96.2822270000006,70.12841800000024,110.76904300000024
226,71.15380900000036,97.82031300000017,101.15380900000036,109.74365200000011,18.717772999999397,92.43603499999972,111.9228520000006,112.05126999999993,116.15380900000036,-6.281981999999971,11.282227000000603,95.38476599999922,67.17968800000017,105.12841800000024
227,74.61523400000078,98.58984400000008,103.0771479999994,109.23095699999976,14.871581999999762,92.17968800000017,113.0771479999994,112.69238299999961,113.9741210000002,-7.820557000000008,13.846190999999635,98.7177729999994,68.3334960000002,107.05126999999993
228,78.0771479999994,98.7177729999994,106.0258789999998,107.82031300000017,16.153809000000365,93.7177729999994,113.46142599999985,113.46142599999985,112.05126999999993,-12.051270000000386,19.74365200000011,103.3334960000002,69.87158199999976,113.46142599999985
229,79.23095699999976,99.10253900000043,107.05126999999993,106.15380900000036,22.43603499999972,95.38476599999922,113.0771479999994,113.46142599999985,111.2822270000006,-16.025634999999966,24.74365200000011,106.53857400000015,70.51269500000035,113.84619099999964
230,77.94873000000007,100.89746099999957,106.41015599999992,106.15380900000036,30.51269500000035,96.15380900000036,112.30761700000039,112.56396500000028,112.17968800000017,-16.666747999999643,25.128418000000238,107.05126999999993,70.89746099999957,108.58984400000008
231,74.10253900000043,101.53857400000015,106.2822270000006,108.3334960000002,34.102539000000434,94.48730499999965,109.87158199999976,111.15380900000036,113.46142599999985,-16.153809000000365,19.102539000000434,104.35888699999941,69.61523400000078,107.43603499999972
232,68.0771479999994,97.43603499999972,105.76904300000024,110.38476599999922,27.94873000000007,90.12841800000024,105.38476599999922,109.61523400000078,112.82031300000017,-18.974365000000034,8.333496000000196,97.94873000000007,66.0258789999998,111.6665039999998
233,62.94873000000007,88.84619099999964,103.0771479999994,109.48730499999965,15.0,86.15380900000036,101.15380900000036,108.58984400000008,110.12841800000024,-26.025634999999966,-0.512695000000349,90.25634799999989,62.17968800000017,112.17968800000017
234,62.17968800000017,79.87158199999976,99.48730499999965,106.15380900000036,3.4614259999998467,85.89746099999957,99.87158199999976,108.7177729999994,107.43603499999972,-33.20507799999996,-1.153809000000365,85.51269500000035,60.897460999999566,107.05126999999993
235,64.87158199999976,75.25634799999989,98.20507799999996,103.3334960000002,0.256347999999889,89.74365200000011,101.6665039999998,110.0,106.9228520000006,-36.53857400000015,6.538574000000153,86.2822270000006,61.410155999999915,105.51269500000035
236,67.94873000000007,77.94873000000007,99.35888699999941,102.43603499999972,6.666503999999804,95.76904300000024,104.74365200000011,111.15380900000036,108.9741210000002,-35.38452099999995,16.153809000000365,90.76904300000024,61.153809000000365,110.64111300000059
237,70.38476599999922,88.58984400000008,100.76904300000024,103.3334960000002,20.0,102.69238299999961,108.84619099999964,111.9228520000006,112.05126999999993,-30.25634799999989,21.794922000000042,95.38476599999922,60.76904300000024,112.94873000000007
238,73.7177729999994,103.9741210000002,101.79492200000004,105.76904300000024,35.25634799999989,109.35888699999941,114.23095699999976,112.94873000000007,114.74365200000011,-22.820557000000008,22.94873000000007,98.7177729999994,63.333496000000196,107.43603499999972
239,77.94873000000007,115.76904300000024,104.23095699999976,109.74365200000011,44.35888699999941,112.94873000000007,118.84619099999964,114.48730499999965,115.76904300000024,-16.153809000000365,22.30761700000039,101.15380900000036,68.9741210000002,102.82031300000017
240,80.12841800000024,116.6665039999998,106.9228520000006,112.94873000000007,40.38476599999922,110.12841800000024,119.61523400000078,115.64111300000059,114.61523400000078,-13.71801800000003,22.43603499999972,102.17968800000017,73.0771479999994,107.05126999999993
241,78.9741210000002,107.69238299999961,107.05126999999993,112.05126999999993,25.0,102.43603499999972,115.76904300000024,115.51269500000035,112.43603499999972,-15.256347999999889,23.717772999999397,101.41015599999992,72.43603499999972,112.82031300000017
242,77.05126999999993,98.20507799999996,104.35888699999941,107.43603499999972,7.56396500000028,96.53857400000015,111.15380900000036,114.74365200000011,111.53857400000015,-16.794922000000042,26.410155999999915,100.51269500000035,68.7177729999994,111.41015599999992
243,76.6665039999998,95.64111300000059,102.30761700000039,103.84619099999964,-2.9487300000000687,96.79492200000004,109.23095699999976,114.61523400000078,112.94873000000007,-15.38452099999995,28.589844000000085,101.2822270000006,64.74365200000011,107.43603499999972
244,77.17968800000017,99.61523400000078,103.46142599999985,104.74365200000011,-4.61547900000005,100.76904300000024,109.87158199999976,115.25634799999989,114.87158199999976,-12.692382999999609,26.794922000000042,102.94873000000007,61.666503999999804,110.12841800000024
245,76.53857400000015,105.0,105.64111300000059,107.94873000000007,-0.6411130000005869,103.0771479999994,111.0258789999998,115.12841800000024,115.38476599999922,-11.41015600000037,19.871581999999762,103.0771479999994,59.23095699999976,115.51269500000035
246,75.38476599999922,108.58984400000008,105.89746099999957,109.23095699999976,5.256347999999889,101.41015599999992,111.6665039999998,113.7177729999994,114.23095699999976,-11.28198199999997,12.43603499999972,101.15380900000036,58.7177729999994,113.84619099999964
247,74.23095699999976,109.35888699999941,105.51269500000035,107.56396500000028,10.769043000000238,97.05126999999993,111.6665039999998,112.43603499999972,112.69238299999961,-10.38452099999995,11.282227000000603,99.35888699999941,61.410155999999915,107.05126999999993
248,72.43603499999972,106.2822270000006,106.2822270000006,105.51269500000035,13.077147999999397,92.05126999999993,110.25634799999989,112.17968800000017,111.79492200000004,-8.71801800000003,20.25634799999989,100.0,64.87158199999976,105.76904300000024
249,70.0,99.48730499999965,107.30761700000039,105.64111300000059,11.153809000000365,88.3334960000002,106.9228520000006,112.43603499999972,111.2822270000006,-7.307617000000391,36.666503999999804,102.94873000000007,67.05126999999993,110.51269500000035
250,69.48730499999965,92.05126999999993,107.17968800000017,107.94873000000007,6.538574000000153,88.20507799999996,103.58984400000008,112.56396500000028,111.0258789999998,-5.256347999999889,53.20507799999996,107.05126999999993,68.84619099999964,111.79492200000004
251,73.46142599999985,87.82031300000017,107.17968800000017,110.89746099999957,1.5385740000001533,92.05126999999993,102.69238299999961,112.94873000000007,111.2822270000006,-1.5385740000001533,62.17968800000017,111.41015599999992,73.3334960000002,107.82031300000017
252,79.87158199999976,88.20507799999996,109.23095699999976,112.17968800000017,-3.3334960000001956,96.2822270000006,104.48730499999965,113.58984400000008,111.79492200000004,2.9487300000000687,58.46142599999985,114.35888699999941,80.89746099999957,106.6665039999998
253,84.48730499999965,92.30761700000039,111.0258789999998,109.74365200000011,-8.205077999999958,96.6665039999998,106.79492200000004,113.58984400000008,112.05126999999993,5.897460999999566,43.46142599999985,114.10253900000043,89.23095699999976,110.51269500000035
254,86.0258789999998,99.61523400000078,109.35888699999941,104.10253900000043,-10.0,94.48730499999965,108.84619099999964,112.43603499999972,112.17968800000017,7.56396500000028,25.51269500000035,110.51269500000035,95.76904300000024,110.51269500000035
255,87.05126999999993,109.74365200000011,105.25634799999989,100.0,-4.487060999999812,94.10253900000043,111.41015599999992,111.79492200000004,112.69238299999961,10.0,14.871581999999762,106.6665039999998,100.12841800000024,103.84619099999964
256,89.61523400000078,118.84619099999964,103.3334960000002,102.05126999999993,7.692382999999609,97.56396500000028,115.12841800000024,113.0771479999994,113.9741210000002,13.589844000000085,16.666503999999804,105.89746099999957,101.6665039999998,100.51269500000035
257,92.30761700000039,121.6665039999998,105.64111300000059,109.23095699999976,19.871581999999762,102.30761700000039,118.7177729999994,115.64111300000059,115.0,16.153809000000365,28.077147999999397,108.3334960000002,99.74365200000011,106.6665039999998
258,94.23095699999976,117.69238299999961,109.23095699999976,114.74365200000011,26.025878999999804,105.64111300000059,121.2822270000006,117.56396500000028,115.25634799999989,15.897460999999566,42.69238299999961,112.56396500000028,96.0258789999998,113.58984400000008
259,96.6665039999998,112.17968800000017,111.41015599999992,113.84619099999964,25.51269500000035,107.82031300000017,122.94873000000007,118.46142599999985,115.12841800000024,14.230956999999762,55.12841800000024,117.05126999999993,95.0,112.43603499999972
260,99.35888699999941,110.0,112.82031300000017,108.46142599999985,20.897460999999566,108.9741210000002,123.20507799999996,118.7177729999994,115.38476599999922,12.307617000000391,62.05126999999993,120.38476599999922,98.0771479999994,108.3334960000002
261,99.74365200000011,110.89746099999957,113.58984400000008,103.9741210000002,15.128418000000238,107.94873000000007,120.76904300000024,118.58984400000008,115.25634799999989,9.358886999999413,61.410155999999915,120.25634799999989,101.15380900000036,110.38476599999922
262,97.17968800000017,112.94873000000007,111.79492200000004,103.46142599999985,11.922852000000603,104.35888699999941,115.0,117.05126999999993,114.10253900000043,5.3847659999992175,54.35888699999941,115.76904300000024,100.25634799999989,114.74365200000011
263,94.74365200000011,115.76904300000024,107.17968800000017,106.0258789999998,14.358886999999413,101.6665039999998,108.84619099999964,114.35888699999941,112.69238299999961,3.2050779999999577,45.38476599999922,109.48730499999965,96.41015599999992,112.94873000000007
264,95.64111300000059,118.9741210000002,104.23095699999976,109.35888699999941,22.43603499999972,102.94873000000007,106.79492200000004,112.69238299999961,112.30761700000039,5.256347999999889,40.38476599999922,106.0258789999998,93.0771479999994,108.0771479999994
265,98.46142599999985,119.23095699999976,106.2822270000006,111.79492200000004,30.128418000000238,106.79492200000004,109.61523400000078,113.0771479999994,112.43603499999972,9.358886999999413,41.410155999999915,107.30761700000039,91.2822270000006,109.74365200000011
266,99.87158199999976,113.7177729999994,111.15380900000036,112.17968800000017,31.282227000000603,108.84619099999964,114.23095699999976,114.48730499999965,112.05126999999993,10.897460999999566,45.51269500000035,110.76904300000024,90.0,116.15380900000036
267,98.84619099999964,104.10253900000043,114.10253900000043,111.15380900000036,25.51269500000035,106.79492200000004,117.17968800000017,115.0,110.64111300000059,8.205077999999958,48.0771479999994,113.3334960000002,89.35888699999941,116.79492200000004
268,96.53857400000015,95.51269500000035,113.7177729999994,109.74365200000011,17.56396500000028,102.05126999999993,117.17968800000017,114.74365200000011,109.48730499999965,3.3334960000001956,46.666503999999804,113.46142599999985,90.51269500000035,111.0258789999998
269,93.58984400000008,91.0258789999998,111.2822270000006,108.20507799999996,11.025878999999804,96.41015599999992,115.25634799999989,114.48730499999965,110.0,-0.769043000000238,42.56396500000028,111.2822270000006,92.17968800000017,108.7177729999994
270,90.38476599999922,91.0258789999998,107.56396500000028,105.51269500000035,6.153809000000365,91.9228520000006,112.82031300000017,115.51269500000035,111.41015599999992,-2.8203119999998307,39.61523400000078,107.56396500000028,91.41015599999992,112.30761700000039
271,89.23095699999976,95.12841800000024,103.46142599999985,102.30761700000039,3.2050779999999577,91.41015599999992,112.30761700000039,117.56396500000028,112.69238299999961,-1.9228520000006029,41.666503999999804,104.61523400000078,87.69238299999961,113.20507799999996
272,91.9228520000006,102.43603499999972,101.6665039999998,101.53857400000015,3.4614259999998467,95.89746099999957,114.74365200000011,119.87158199999976,112.94873000000007,1.4101559999999154,48.846190999999635,104.74365200000011,82.82031300000017,108.46142599999985
273,96.15380900000036,108.58984400000008,104.61523400000078,105.38476599999922,6.153809000000365,102.05126999999993,117.82031300000017,120.38476599999922,112.05126999999993,4.743652000000111,55.25634799999989,107.43603499999972,78.3334960000002,107.17968800000017
274,96.9228520000006,109.10253900000043,109.48730499999965,111.0258789999998,8.589844000000085,104.35888699999941,117.30761700000039,117.17968800000017,109.87158199999976,4.743652000000111,54.23095699999976,108.58984400000008,73.3334960000002,113.46142599999985
275,92.82031300000017,104.87158199999976,110.76904300000024,113.3334960000002,10.897460999999566,101.9228520000006,112.30761700000039,111.0258789999998,107.30761700000039,3.3334960000001956,45.25634799999989,105.51269500000035,69.23095699999976,117.82031300000017
276,88.84619099999964,102.17968800000017,107.82031300000017,110.76904300000024,16.666503999999804,99.48730499999965,107.30761700000039,106.15380900000036,106.79492200000004,6.025878999999804,36.2822270000006,101.2822270000006,70.25634799999989,113.20507799999996
277,89.10253900000043,105.0,105.64111300000059,106.6665039999998,27.17968800000017,101.15380900000036,107.30761700000039,106.41015599999992,110.12841800000024,15.769043000000238,35.51269500000035,100.76904300000024,77.94873000000007,107.17968800000017
278,93.0771479999994,110.64111300000059,107.43603499999972,105.25634799999989,38.589844000000085,106.15380900000036,113.0771479999994,111.2822270000006,115.38476599999922,27.82031300000017,43.20507799999996,105.25634799999989,88.0771479999994,108.20507799999996
279,96.41015599999992,113.7177729999994,110.64111300000059,107.69238299999961,43.974121000000196,109.74365200000011,120.12841800000024,116.53857400000015,119.35888699999941,34.35888699999941,52.94873000000007,110.51269500000035,94.35888699999941,112.05126999999993
280,96.2822270000006,112.05126999999993,111.6665039999998,112.69238299999961,39.35888699999941,108.7177729999994,123.3334960000002,117.94873000000007,119.48730499999965,31.410155999999915,57.05126999999993,111.79492200000004,93.9741210000002,110.25634799999989
281,93.20507799999996,108.20507799999996,110.64111300000059,117.17968800000017,26.153809000000365,102.94873000000007,120.64111300000059,115.0,116.0258789999998,20.769043000000238,52.69238299999961,108.84619099999964,89.10253900000043,106.53857400000015
282,89.87158199999976,105.38476599999922,109.23095699999976,117.69238299999961,10.256347999999889,95.12841800000024,113.3334960000002,110.38476599999922,110.76904300000024,9.102539000000434,42.69238299999961,104.23095699999976,83.3334960000002,108.9741210000002
283,90.12841800000024,106.6665039999998,107.94873000000007,113.0771479999994,-0.38476599999921746,89.74365200000011,106.41015599999992,107.56396500000028,106.6665039999998,4.358886999999413,34.87158199999976,102.17968800000017,80.51269500000035,113.9741210000002
284,96.79492200000004,112.69238299999961,107.82031300000017,106.53857400000015,-0.12841800000023795,90.64111300000059,105.38476599999922,109.10253900000043,106.2822270000006,11.282227000000603,36.410155999999915,105.64111300000059,82.94873000000007,112.05126999999993
285,107.56396500000028,120.12841800000024,111.53857400000015,103.58984400000008,8.589844000000085,97.05126999999993,111.6665039999998,114.23095699999976,109.61523400000078,26.794922000000042,47.30761700000039,114.10253900000043,88.46142599999985,105.38476599999922
286,115.0,123.46142599999985,118.46142599999985,105.76904300000024,17.69238299999961,103.7177729999994,120.38476599999922,118.9741210000002,114.23095699999976,40.64111300000059,59.35888699999941,122.56396500000028,92.30761700000039,104.35888699999941
287,113.9741210000002,120.38476599999922,122.69238299999961,109.23095699999976,21.153809000000365,105.76904300000024,125.12841800000024,119.48730499999965,116.6665039999998,43.974121000000196,63.333496000000196,125.25634799999989,92.05126999999993,109.87158199999976
288,107.43603499999972,115.76904300000024,119.87158199999976,110.51269500000035,21.025878999999804,104.61523400000078,123.9741210000002,115.89746099999957,115.89746099999957,37.17968800000017,58.46142599999985,121.6665039999998,91.2822270000006,111.79492200000004
289,102.94873000000007,116.15380900000036,113.0771479999994,110.12841800000024,22.30761700000039,104.10253900000043,119.23095699999976,111.9228520000006,113.46142599999985,27.56396500000028,50.76904300000024,116.53857400000015,94.61523400000078,107.17968800000017
290,103.9741210000002,121.2822270000006,108.84619099999964,111.15380900000036,26.025878999999804,105.12841800000024,113.84619099999964,111.0258789999998,111.41015599999992,21.794922000000042,46.53857400000015,114.48730499999965,100.89746099999957,105.12841800000024
291,108.0771479999994,126.15380900000036,109.23095699999976,113.7177729999994,29.230956999999762,105.12841800000024,109.61523400000078,112.82031300000017,110.25634799999989,20.769043000000238,48.0771479999994,116.0258789999998,104.74365200000011,109.61523400000078
292,112.30761700000039,127.94873000000007,111.2822270000006,114.61523400000078,30.641113000000587,103.7177729999994,107.94873000000007,114.87158199999976,110.51269500000035,23.846190999999635,54.74365200000011,119.10253900000043,104.74365200000011,112.17968800000017
293,116.2822270000006,128.58984400000008,112.94873000000007,112.43603499999972,32.05126999999993,102.94873000000007,110.38476599999922,116.2822270000006,112.17968800000017,29.871581999999762,64.74365200000011,122.30761700000039,103.84619099999964,107.94873000000007
294,119.35888699999941,129.61523400000078,114.74365200000011,108.84619099999964,33.589844000000085,103.9741210000002,114.74365200000011,117.56396500000028,113.9741210000002,36.410155999999915,73.7177729999994,124.87158199999976,104.23095699999976,105.12841800000024
295,119.74365200000011,130.12841800000024,116.41015599999992,106.41015599999992,32.43603499999972,104.74365200000011,117.30761700000039,118.58984400000008,114.23095699999976,39.74365200000011,76.6665039999998,125.64111300000059,104.48730499999965,110.12841800000024
296,117.94873000000007,129.3588869999994,115.76904300000024,105.89746099999957,27.17968800000017,104.10253900000043,117.05126999999993,118.84619099999964,112.82031300000017,39.102539000000434,72.17968800000017,124.23095699999976,103.84619099999964,115.25634799999989
297,117.30761700000039,128.20507799999996,113.20507799999996,107.17968800000017,20.51269500000035,103.9741210000002,116.53857400000015,118.46142599999985,111.79492200000004,37.05126999999993,65.51269500000035,122.69238299999961,103.7177729999994,111.79492200000004
298,118.84619099999964,126.6665039999998,111.6665039999998,110.12841800000024,16.410155999999915,105.0,117.94873000000007,118.3334960000002,112.94873000000007,35.76904300000024,62.43603499999972,122.82031300000017,105.25634799999989,105.25634799999989
299,120.76904300000024,124.23095699999976,112.94873000000007,114.10253900000043,17.69238299999961,105.89746099999957,119.87158199999976,118.46142599999985,115.25634799999989,34.48730499999965,64.10253900000043,124.35888699999941,107.17968800000017,105.76904300000024
300,122.69238299999961,123.7177729999994,115.0,117.30761700000039,25.51269500000035,105.51269500000035,119.87158199999976,118.3334960000002,116.9228520000006,32.82031300000017,68.46142599999985,126.79492200000004,109.48730499999965,110.76904300000024
301,126.9228520000006,129.10253900000043,116.9228520000006,118.9741210000002,38.7177729999994,106.2822270000006,118.3334960000002,118.0771479999994,117.30761700000039,32.94873000000007,73.84619099999964,130.6411130000006,114.10253900000043,111.15380900000036
302,133.3334960000002,138.9741210000002,120.25634799999989,119.61523400000078,51.79492200000004,109.35888699999941,116.41015599999992,118.58984400000008,117.17968800000017,35.76904300000024,78.58984400000008,135.51269500000035,120.0,107.82031300000017
303,136.6665039999998,144.48730499999965,124.74365200000011,119.35888699999941,55.51269500000035,111.2822270000006,114.10253900000043,119.10253900000043,116.53857400000015,38.20507799999996,79.10253900000043,137.94873000000007,121.53857400000015,109.35888699999941
304,132.3076170000004,139.3588869999994,126.15380900000036,116.41015599999992,46.153809000000365,108.20507799999996,110.38476599999922,118.20507799999996,114.74365200000011,36.666503999999804,73.46142599999985,134.23095699999976,115.38476599999922,113.7177729999994
305,123.7177729999994,128.58984400000008,121.9228520000006,110.12841800000024,32.05126999999993,102.43603499999972,107.30761700000039,115.76904300000024,112.43603499999972,32.30761700000039,65.25634799999989,126.6665039999998,106.41015599999992,111.53857400000015
306,118.7177729999994,122.82031300000017,115.64111300000059,103.84619099999964,27.17968800000017,100.12841800000024,107.69238299999961,113.7177729999994,110.76904300000024,29.48730499999965,61.79492200000004,121.53857400000015,103.0771479999994,103.3334960000002
307,120.12841800000024,127.43603499999972,113.58984400000008,101.9228520000006,37.17968800000017,103.58984400000008,111.6665039999998,113.84619099999964,110.51269500000035,29.615234000000783,65.89746099999957,123.0771479999994,106.2822270000006,101.0258789999998
308,125.0,138.3334960000002,116.2822270000006,105.51269500000035,54.74365200000011,109.48730499999965,116.0258789999998,115.12841800000024,110.89746099999957,30.51269500000035,73.20507799999996,128.7177729999994,110.0,107.82031300000017
309,129.61523400000078,148.7177729999994,119.35888699999941,111.79492200000004,67.05126999999993,113.84619099999964,117.82031300000017,116.2822270000006,111.53857400000015,31.153809000000365,77.94873000000007,133.3334960000002,109.48730499999965,112.94873000000007
310,133.0771479999994,154.23095699999976,120.64111300000059,117.69238299999961,66.9228520000006,115.38476599999922,117.43603499999972,117.05126999999993,112.82031300000017,33.46142599999985,78.46142599999985,135.12841800000024,106.79492200000004,109.74365200000011
311,135.6411130000006,153.46142599999985,122.05126999999993,120.89746099999957,56.2822270000006,113.84619099999964,116.2822270000006,117.94873000000007,114.61523400000078,38.20507799999996,76.79492200000004,135.38476599999922,106.53857400000015,105.76904300000024
312,136.15380900000036,147.94873000000007,123.84619099999964,119.74365200000011,42.94873000000007,109.87158199999976,115.38476599999922,119.23095699999976,115.25634799999989,43.333496000000196,73.9741210000002,135.38476599999922,109.87158199999976,107.56396500000028
313,134.10253900000043,141.79492200000004,123.46142599999985,113.9741210000002,35.38476599999922,105.25634799999989,115.0,119.48730499999965,113.7177729999994,45.51269500000035,70.0,134.48730499999965,113.9741210000002,109.61523400000078
314,130.89746099999957,138.0771479999994,120.38476599999922,107.43603499999972,37.43603499999972,102.43603499999972,114.74365200000011,118.3334960000002,110.51269500000035,42.69238299999961,65.64111300000059,132.43603499999972,115.0,106.2822270000006
315,127.43603499999972,136.0258789999998,118.0771479999994,105.12841800000024,45.25634799999989,101.79492200000004,113.58984400000008,116.0258789999998,107.43603499999972,35.12841800000024,62.17968800000017,129.7436520000001,110.25634799999989,103.84619099999964
316,123.84619099999964,132.17968800000017,118.58984400000008,108.20507799999996,51.53857400000015,102.17968800000017,111.41015599999992,113.46142599999985,105.76904300000024,25.897460999999566,59.74365200000011,127.05126999999993,100.76904300000024,109.23095699999976
317,121.0258789999998,126.15380900000036,120.0,113.0771479999994,52.05126999999993,103.0771479999994,109.35888699999941,111.53857400000015,105.89746099999957,20.0,58.20507799999996,124.87158199999976,92.30761700000039,116.0258789999998
318,120.64111300000059,121.9228520000006,120.51269500000035,116.15380900000036,47.94873000000007,104.74365200000011,108.7177729999994,111.2822270000006,107.05126999999993,21.025878999999804,58.0771479999994,124.23095699999976,91.0258789999998,114.61523400000078
319,121.79492200000004,122.30761700000039,121.2822270000006,116.15380900000036,42.82031300000017,106.15380900000036,108.84619099999964,112.56396500000028,108.3334960000002,27.30761700000039,59.87158199999976,125.51269500000035,96.79492200000004,108.58984400000008
320,121.41015599999992,125.0,123.20507799999996,112.82031300000017,38.20507799999996,104.48730499999965,107.69238299999961,113.9741210000002,108.7177729999994,32.82031300000017,63.20507799999996,127.69238299999961,102.82031300000017,108.58984400000008
321,117.69238299999961,126.15380900000036,123.84619099999964,106.41015599999992,35.76904300000024,100.51269500000035,104.87158199999976,114.10253900000043,108.20507799999996,33.333496000000196,66.9228520000006,128.3334960000002,102.56396500000028,113.7177729999994
322,113.58984400000008,126.15380900000036,121.0258789999998,99.74365200000011,38.7177729999994,98.46142599999985,103.7177729999994,113.9741210000002,108.0771479999994,30.897460999999566,70.64111300000059,127.17968800000017,97.17968800000017,113.7177729999994
323,112.82031300000017,128.0771479999994,116.9228520000006,97.94873000000007,48.846190999999635,102.17968800000017,106.79492200000004,115.38476599999922,109.35888699999941,30.51269500000035,74.10253900000043,126.0258789999998,92.17968800000017,107.82031300000017
324,115.12841800000024,133.0771479999994,115.51269500000035,102.94873000000007,61.666503999999804,109.48730499999965,112.82031300000017,118.46142599999985,111.6665039999998,33.846190999999635,75.12841800000024,126.0258789999998,91.41015599999992,105.89746099999957
325,117.05126999999993,138.84619099999964,116.0258789999998,110.38476599999922,69.74365200000011,115.38476599999922,117.56396500000028,121.0258789999998,113.58984400000008,39.23095699999976,71.2822270000006,125.38476599999922,94.35888699999941,110.0
326,116.6665039999998,142.6923829999996,115.76904300000024,114.10253900000043,69.48730499999965,116.9228520000006,118.46142599999985,121.15380900000036,114.23095699999976,43.974121000000196,63.846190999999635,122.82031300000017,98.84619099999964,111.41015599999992
327,115.12841800000024,143.7177729999994,114.61523400000078,112.69238299999961,63.20507799999996,114.48730499999965,115.89746099999957,119.23095699999976,114.10253900000043,47.17968800000017,57.94873000000007,120.0,103.3334960000002,107.17968800000017
328,114.74365200000011,142.43603499999972,114.87158199999976,110.12841800000024,55.25634799999989,109.74365200000011,111.9228520000006,116.9228520000006,113.84619099999964,48.7177729999994,59.23095699999976,120.0,106.0258789999998,105.64111300000059
329,117.05126999999993,140.89746099999957,116.79492200000004,109.87158199999976,49.74365200000011,105.25634799999989,108.7177729999994,115.64111300000059,113.3334960000002,49.35888699999941,68.3334960000002,123.84619099999964,107.30761700000039,110.89746099999957
330,123.58984400000008,143.20507799999996,118.0771479999994,111.9228520000006,50.0,104.74365200000011,108.58984400000008,116.0258789999998,113.3334960000002,51.79492200000004,81.41015599999992,130.38476599999922,110.25634799999989,114.35888699999941
331,133.0771479999994,150.6411130000006,118.20507799999996,114.48730499999965,57.43603499999972,109.48730499999965,111.9228520000006,117.82031300000017,114.10253900000043,56.9228520000006,91.53857400000015,136.79492200000004,117.05126999999993,109.87158199999976
332,140.6411130000006,157.82031300000017,119.10253900000043,116.2822270000006,68.46142599999985,115.64111300000059,115.51269500000035,120.12841800000024,114.87158199999976,61.410155999999915,93.3334960000002,140.12841800000024,123.84619099999964,105.25634799999989
333,140.76904300000024,157.82031300000017,121.15380900000036,116.15380900000036,76.41015599999992,117.30761700000039,115.51269500000035,120.89746099999957,114.10253900000043,60.25634799999989,86.15380900000036,137.94873000000007,124.35888699999941,108.46142599999985
334,133.9741210000002,150.12841800000024,121.53857400000015,113.20507799999996,77.30761700000039,113.0771479999994,112.05126999999993,119.10253900000043,111.79492200000004,53.846190999999635,75.76904300000024,131.15380900000036,117.69238299999961,113.3334960000002
335,125.76904300000024,141.53857400000015,118.7177729999994,109.10253900000043,71.79492200000004,106.9228520000006,108.7177729999994,116.2822270000006,109.35888699999941,47.05126999999993,69.23095699999976,123.20507799999996,108.9741210000002,111.15380900000036
336,119.35888699999941,136.9228520000006,114.10253900000043,107.43603499999972,62.05126999999993,101.79492200000004,106.9228520000006,113.58984400000008,108.0771479999994,42.69238299999961,67.43603499999972,116.6665039999998,102.43603499999972,106.53857400000015
337,113.46142599999985,134.61523400000078,109.74365200000011,109.61523400000078,49.102539000000434,97.30761700000039,105.0,111.2822270000006,107.43603499999972,38.974121000000196,65.64111300000059,111.41015599999992,97.43603499999972,109.23095699999976
338,107.82031300000017,132.56396500000028,106.15380900000036,112.43603499999972,37.82031300000017,93.9741210000002,102.43603499999972,109.35888699999941,107.43603499999972,35.51269500000035,62.30761700000039,107.43603499999972,94.35888699999941,116.2822270000006
339,106.79492200000004,134.23095699999976,104.48730499999965,111.6665039999998,37.69238299999961,96.15380900000036,103.0771479999994,109.61523400000078,109.23095699999976,37.56396500000028,62.69238299999961,107.82031300000017,97.43603499999972,116.41015599999992
340,113.9741210000002,144.10253900000043,107.56396500000028,107.30761700000039,53.846190999999635,106.6665039999998,110.38476599999922,114.10253900000043,113.9741210000002,49.35888699999941,72.56396500000028,115.25634799999989,109.61523400000078,110.0
341,126.0258789999998,159.23095699999976,115.0,103.9741210000002,78.84619099999964,120.89746099999957,121.41015599999992,121.15380900000036,119.48730499999965,66.79492200000004,89.10253900000043,126.6665039999998,124.48730499999965,106.9228520000006
342,135.0,170.38476599999922,121.9228520000006,106.15380900000036,97.43603499999972,129.3588869999994,128.3334960000002,125.76904300000024,121.9228520000006,79.74365200000011,103.20507799999996,134.7436520000001,131.79492200000004,109.74365200000011
343,137.17968800000017,171.0258789999998,123.20507799999996,114.10253900000043,99.87158199999976,127.17968800000017,126.79492200000004,124.48730499999965,119.87158199999976,81.41015599999992,107.82031300000017,135.38476599999922,127.56396500000028,110.25634799999989
344,134.10253900000043,162.3076170000004,119.61523400000078,123.0771479999994,88.3334960000002,117.94873000000007,118.9741210000002,118.9741210000002,115.25634799999989,74.23095699999976,102.05126999999993,130.12841800000024,116.79492200000004,106.6665039999998
345,128.46142599999985,150.0,115.89746099999957,126.79492200000004,71.9228520000006,107.94873000000007,110.0,113.7177729999994,111.53857400000015,64.74365200000011,89.61523400000078,123.84619099999964,107.05126999999993,107.05126999999993
346,121.9228520000006,141.0258789999998,113.7177729999994,121.2822270000006,59.23095699999976,101.15380900000036,103.7177729999994,111.53857400000015,110.51269500000035,58.46142599999985,77.05126999999993,119.48730499999965,102.56396500000028,112.94873000000007
347,116.2822270000006,141.15380900000036,111.2822270000006,108.46142599999985,55.12841800000024,98.9741210000002,100.89746099999957,112.43603499999972,111.6665039999998,57.94873000000007,71.2822270000006,117.82031300000017,103.7177729999994,115.0
348,113.20507799999996,150.2563479999999,107.94873000000007,96.41015599999992,58.0771479999994,100.38476599999922,100.38476599999922,114.35888699999941,113.58984400000008,62.17968800000017,76.0258789999998,118.58984400000008,108.20507799999996,108.58984400000008
349,111.9228520000006,160.6411130000006,105.89746099999957,93.0771479999994,61.9228520000006,102.30761700000039,100.25634799999989,115.51269500000035,114.61523400000078,66.53857400000015,86.41015599999992,120.0,110.89746099999957,103.9741210000002
350,110.0,162.82031300000017,106.0258789999998,99.35888699999941,61.9228520000006,102.05126999999993,99.35888699999941,114.87158199999976,113.46142599999985,67.05126999999993,92.94873000000007,119.74365200000011,107.94873000000007,108.7177729999994
351,108.3334960000002,155.38476599999922,107.30761700000039,108.7177729999994,61.153809000000365,101.0258789999998,99.10253900000043,113.46142599999985,111.2822270000006,65.0,90.64111300000059,118.0771479999994,102.17968800000017,115.0
352,110.51269500000035,146.53857400000015,108.7177729999994,114.35888699999941,66.41015599999992,103.0771479999994,101.9228520000006,113.20507799999996,110.51269500000035,65.76904300000024,83.7177729999994,117.69238299999961,100.89746099999957,112.82031300000017
353,117.17968800000017,145.0,110.76904300000024,114.61523400000078,77.56396500000028,108.58984400000008,107.17968800000017,115.0,112.17968800000017,71.2822270000006,78.3334960000002,119.87158199999976,106.9228520000006,106.15380900000036
354,123.3334960000002,150.76904300000024,112.56396500000028,111.0258789999998,85.89746099999957,112.69238299999961,110.76904300000024,117.05126999999993,114.10253900000043,76.9228520000006,76.53857400000015,122.05126999999993,114.48730499999965,105.25634799999989
355,123.46142599999985,158.20507799999996,111.41015599999992,106.0258789999998,84.10253900000043,111.2822270000006,109.74365200000011,116.53857400000015,113.58984400000008,77.43603499999972,77.05126999999993,121.15380900000036,116.2822270000006,108.58984400000008
356,118.20507799999996,162.3076170000004,107.30761700000039,102.69238299999961,73.9741210000002,106.15380900000036,105.64111300000059,113.46142599999985,111.0258789999998,73.46142599999985,78.20507799999996,117.82031300000017,111.53857400000015,108.46142599999985
357,112.56396500000028,161.41015599999992,104.48730499999965,103.9741210000002,63.0771479999994,101.6665039999998,102.82031300000017,110.38476599999922,108.9741210000002,69.48730499999965,79.10253900000043,115.64111300000059,105.89746099999957,106.15380900000036
358,109.48730499999965,156.0258789999998,106.2822270000006,109.87158199999976,56.53857400000015,100.0,103.58984400000008,109.74365200000011,109.23095699999976,68.46142599999985,78.9741210000002,116.2822270000006,103.46142599999985,108.7177729999994
359,109.23095699999976,147.56396500000028,110.64111300000059,116.41015599999992,54.35888699999941,100.89746099999957,106.15380900000036,110.64111300000059,110.76904300000024,68.7177729999994,78.3334960000002,117.94873000000007,103.46142599999985,113.58984400000008
360,111.15380900000036,139.7436520000001,113.20507799999996,119.74365200000011,55.0,103.0771479999994,108.46142599999985,111.2822270000006,111.79492200000004,68.20507799999996,80.51269500000035,118.9741210000002,102.82031300000017,111.53857400000015
361,114.10253900000043,136.79492200000004,113.58984400000008,119.61523400000078,57.82031300000017,106.79492200000004,109.35888699999941,111.15380900000036,111.2822270000006,66.2822270000006,87.05126999999993,119.61523400000078,98.9741210000002,103.9741210000002
362,116.41015599999992,139.7436520000001,113.7177729999994,116.9228520000006,63.20507799999996,111.41015599999992,109.87158199999976,110.89746099999957,110.0,64.10253900000043,94.48730499999965,120.64111300000059,92.82031300000017,102.05126999999993
363,116.6665039999998,147.56396500000028,114.10253900000043,111.79492200000004,72.17968800000017,116.6665039999998,111.53857400000015,111.41015599999992,108.58984400000008,63.7177729999994,96.9228520000006,122.05126999999993,88.7177729999994,108.20507799999996
364,117.56396500000028,158.20507799999996,114.10253900000043,105.25634799999989,85.51269500000035,122.30761700000039,115.38476599999922,112.82031300000017,108.7177729999994,67.82031300000017,93.3334960000002,123.9741210000002,93.46142599999985,112.17968800000017
365,122.30761700000039,169.61523400000078,115.0,102.43603499999972,100.25634799999989,128.0771479999994,121.2822270000006,114.87158199999976,110.89746099999957,76.41015599999992,89.23095699999976,127.30761700000039,108.84619099999964,108.46142599999985
366,130.12841800000024,177.82031300000017,118.3334960000002,107.17968800000017,109.61523400000078,131.0258789999998,126.15380900000036,116.53857400000015,114.10253900000043,85.12841800000024,89.87158199999976,131.79492200000004,127.43603499999972,105.64111300000059
367,135.6411130000006,179.3588869999994,121.9228520000006,116.53857400000015,106.6665039999998,128.46142599999985,126.15380900000036,116.41015599999992,115.64111300000059,87.82031300000017,94.61523400000078,134.7436520000001,137.17968800000017,109.61523400000078
368,135.0,175.12841800000024,121.2822270000006,122.94873000000007,92.43603499999972,121.2822270000006,121.0258789999998,114.74365200000011,114.35888699999941,82.94873000000007,98.7177729999994,133.58984400000008,132.3076170000004,112.94873000000007
369,130.6411130000006,169.3588869999994,116.53857400000015,121.6665039999998,75.64111300000059,113.9741210000002,114.35888699999941,113.3334960000002,111.53857400000015,75.51269500000035,98.58984400000008,129.61523400000078,118.84619099999964,108.58984400000008
370,126.79492200000004,165.51269500000035,113.0771479999994,115.64111300000059,65.76904300000024,110.12841800000024,110.38476599999922,113.84619099999964,109.74365200000011,71.9228520000006,94.23095699999976,126.41015599999992,107.56396500000028,102.69238299999961
371,125.64111300000059,163.46142599999985,114.23095699999976,110.25634799999989,65.64111300000059,108.7177729999994,110.51269500000035,115.89746099999957,109.74365200000011,73.84619099999964,88.46142599999985,125.76904300000024,104.61523400000078,103.7177729999994
372,127.05126999999993,162.17968800000017,117.30761700000039,109.23095699999976,71.79492200000004,108.0771479999994,113.3334960000002,117.43603499999972,110.76904300000024,78.58984400000008,85.51269500000035,126.79492200000004,108.9741210000002,107.69238299999961
373,130.0,162.17968800000017,118.58984400000008,112.82031300000017,79.23095699999976,108.7177729999994,117.43603499999972,117.17968800000017,112.05126999999993,82.82031300000017,88.84619099999964,128.3334960000002,116.2822270000006,106.53857400000015
374,132.17968800000017,162.82031300000017,117.94873000000007,118.7177729999994,83.58984400000008,110.76904300000024,120.25634799999989,116.0258789999998,112.82031300000017,83.46142599999985,96.79492200000004,129.61523400000078,120.0,103.3334960000002
375,130.51269500000035,161.53857400000015,116.9228520000006,122.82031300000017,82.17968800000017,112.56396500000028,119.35888699999941,115.25634799999989,112.30761700000039,78.7177729999994,103.0771479999994,129.61523400000078,115.76904300000024,106.53857400000015
376,125.12841800000024,157.43603499999972,115.12841800000024,121.79492200000004,76.79492200000004,112.30761700000039,114.61523400000078,114.74365200000011,110.64111300000059,70.51269500000035,102.05126999999993,127.56396500000028,105.89746099999957,112.82031300000017
377,120.51269500000035,154.48730499999965,112.69238299999961,115.76904300000024,73.3334960000002,111.53857400000015,109.87158199999976,114.87158199999976,109.23095699999976,65.25634799999989,95.12841800000024,124.87158199999976,99.61523400000078,112.30761700000039
378,120.76904300000024,156.2822270000006,111.53857400000015,108.3334960000002,75.76904300000024,112.69238299999961,108.58984400000008,116.15380900000036,109.74365200000011,68.20507799999996,88.0771479999994,123.7177729999994,103.0771479999994,106.0258789999998
379,124.10253900000043,161.15380900000036,112.56396500000028,103.3334960000002,81.41015599999992,114.87158199999976,110.64111300000059,117.94873000000007,111.6665039999998,77.30761700000039,85.25634799999989,123.9741210000002,112.94873000000007,105.0
380,125.64111300000059,164.3588869999994,112.94873000000007,102.17968800000017,84.74365200000011,115.64111300000059,113.3334960000002,118.46142599999985,113.20507799999996,85.12841800000024,86.79492200000004,123.58984400000008,120.25634799999989,111.0258789999998
381,124.23095699999976,163.9741210000002,110.38476599999922,104.61523400000078,84.10253900000043,115.89746099999957,115.89746099999957,116.9228520000006,113.0771479999994,86.0258789999998,90.38476599999922,121.53857400000015,120.0,113.7177729999994
382,122.30761700000039,161.53857400000015,107.56396500000028,109.74365200000011,82.94873000000007,118.46142599999985,119.74365200000011,115.0,112.05126999999993,81.0258789999998,94.61523400000078,119.74365200000011,114.74365200000011,109.23095699999976
383,121.6665039999998,158.46142599999985,109.10253900000043,115.38476599999922,84.23095699999976,123.9741210000002,124.87158199999976,114.61523400000078,111.15380900000036,74.10253900000043,98.3334960000002,120.25634799999989,108.7177729999994,105.89746099999957
