,EEG.AF3,EEG.F7,EEG.F3,EEG.FC5,EEG.T7,EEG.P7,EEG.O1,EEG.O2,EEG.P8,EEG.T8,EEG.FC6,EEG.F4,EEG.F8,EEG.AF4
0,82.30761700000039,86.79492200000004,105.0,114.74365200000011,-74.61547900000005,100.38476599999922,102.30761700000039,107.43603499999972,109.87158199999976,5.3847659999992175,51.666503999999804,99.48730499999965,84.61523400000078,102.82031300000017
1,78.84619099999964,84.10253900000043,108.0771479999994,117.30761700000039,-97.05127000000039,94.23095699999976,102.69238299999961,105.25634799999989,108.0771479999994,-7.179442999999992,34.102539000000434,93.7177729999994,80.76904300000024,108.3334960000002
2,82.17968800000017,86.9228520000006,110.76904300000024,114.23095699999976,-101.66674799999964,91.6665039999998,105.76904300000024,105.12841800000024,108.46142599999985,-7.948729999999614,28.333496000000196,93.0771479999994,83.9741210000002,116.0258789999998
3,91.41015599999992,95.12841800000024,108.58984400000008,105.38476599999922,-84.23071300000038,94.74365200000011,110.89746099999957,107.17968800000017,111.15380900000036,2.6923829999996087,38.589844000000085,97.43603499999972,95.25634799999989,114.87158199999976
4,98.84619099999964,102.82031300000017,103.46142599999985,97.69238299999961,-59.61547900000005,101.15380900000036,113.58984400000008,110.38476599999922,114.10253900000043,13.205077999999958,56.53857400000015,103.0771479999994,106.0258789999998,110.25634799999989
5,97.56396500000028,103.20507799999996,100.0,98.46142599999985,-51.153809000000365,104.23095699999976,110.12841800000024,112.56396500000028,115.12841800000024,10.384765999999217,69.23095699999976,105.89746099999957,103.9741210000002,112.30761700000039
6,88.20507799999996,95.89746099999957,100.0,106.9228520000006,-69.10253899999998,99.61523400000078,101.6665039999998,111.2822270000006,113.20507799999996,-7.820557000000008,70.0,104.74365200000011,86.9228520000006,116.9228520000006
7,80.89746099999957,87.82031300000017,103.46142599999985,114.87158199999976,-100.38452099999995,90.12841800000024,95.0,107.69238299999961,109.74365200000011,-28.846190999999635,63.333496000000196,103.46142599999985,67.69238299999961,114.48730499999965
8,86.0258789999998,88.84619099999964,111.9228520000006,116.0258789999998,-117.82055700000001,84.48730499999965,97.69238299999961,105.64111300000059,108.0771479999994,-35.89746100000002,58.589844000000085,107.43603499999972,64.87158199999976,108.58984400000008
9,103.9741210000002,102.82031300000017,123.7177729999994,110.76904300000024,-102.56420900000057,88.84619099999964,110.64111300000059,107.94873000000007,109.74365200000011,-23.461425999999847,60.25634799999989,117.43603499999972,86.15380900000036,110.0
10,124.10253900000043,122.69238299999961,130.51269500000035,103.20507799999996,-60.64111300000013,101.15380900000036,125.76904300000024,113.0771479999994,113.3334960000002,-2.3076170000003913,66.0258789999998,127.05126999999993,120.12841800000024,115.76904300000024
11,133.0771479999994,135.51269500000035,124.10253900000043,98.3334960000002,-19.74365200000011,112.30761700000039,131.15380900000036,116.2822270000006,115.76904300000024,8.589844000000085,71.15380900000036,128.0771479999994,144.7436520000001,113.7177729999994
12,125.64111300000059,132.3076170000004,108.0771479999994,100.0,-6.41015600000037,113.9741210000002,121.0258789999998,115.25634799999989,115.64111300000059,-2.3076170000003913,74.35888699999941,119.74365200000011,144.87158199999976,104.74365200000011
13,108.7177729999994,116.53857400000015,95.76904300000024,108.20507799999996,-25.512939000000188,105.25634799999989,100.76904300000024,111.41015599999992,113.84619099999964,-29.74365200000011,76.41015599999992,109.48730499999965,123.58984400000008,102.43603499999972
14,95.76904300000024,101.6665039999998,96.0258789999998,117.56396500000028,-58.846190999999635,94.48730499999965,84.61523400000078,107.82031300000017,112.30761700000039,-57.17944299999999,76.41015599999992,105.51269500000035,98.84619099999964,109.87158199999976
15,96.2822270000006,100.0,106.0258789999998,121.79492200000004,-81.79492200000004,91.41015599999992,84.74365200000011,106.2822270000006,112.43603499999972,-70.0,71.9228520000006,109.74365200000011,88.9741210000002,114.74365200000011
16,108.84619099999964,112.69238299999961,117.82031300000017,120.64111300000059,-81.66674799999964,98.3334960000002,101.41015599999992,107.17968800000017,113.7177729999994,-66.28198199999997,63.333496000000196,117.94873000000007,97.94873000000007,111.0258789999998
17,124.10253900000043,130.12841800000024,126.79492200000004,118.7177729999994,-63.20507799999996,108.58984400000008,122.94873000000007,109.48730499999965,114.74365200000011,-56.28198199999997,56.666503999999804,125.25634799999989,114.61523400000078,107.94873000000007
18,133.0771479999994,142.3076170000004,129.87158199999976,117.94873000000007,-38.71801800000003,113.0771479999994,134.7436520000001,111.53857400000015,114.74365200000011,-51.153809000000365,57.94873000000007,129.10253900000043,125.89746099999957,111.79492200000004
19,135.51269500000035,149.23095699999976,125.64111300000059,115.38476599999922,-13.205077999999958,110.0,131.6665039999998,112.56396500000028,114.74365200000011,-52.435790999999426,68.46142599999985,130.0,129.10253900000043,114.10253900000043
20,137.6923829999996,159.61523400000078,116.79492200000004,110.12841800000024,18.589844000000085,106.0258789999998,119.61523400000078,113.9741210000002,116.53857400000015,-53.46142599999985,81.79492200000004,130.2563479999999,133.20507799999996,108.3334960000002
21,143.7177729999994,178.84619099999964,111.0258789999998,106.41015599999992,58.46142599999985,107.69238299999961,108.46142599999985,117.05126999999993,120.12841800000024,-50.25634799999989,88.7177729999994,131.79492200000004,144.7436520000001,103.7177729999994
22,149.3588869999994,200.38476599999922,111.2822270000006,109.23095699999976,91.2822270000006,114.10253900000043,103.58984400000008,120.12841800000024,122.05126999999993,-49.10253899999998,83.3334960000002,132.82031300000017,157.94873000000007,108.84619099999964
23,146.53857400000015,210.6411130000006,112.30761700000039,115.89746099999957,94.23095699999976,118.0771479999994,104.10253900000043,120.12841800000024,119.35888699999941,-60.64111300000013,67.69238299999961,129.87158199999976,159.10253900000043,115.64111300000059
24,133.84619099999964,203.7177729999994,109.10253900000043,119.23095699999976,63.333496000000196,114.61523400000078,107.17968800000017,116.0258789999998,113.3334960000002,-84.23071300000038,51.2822270000006,122.69238299999961,143.20507799999996,112.94873000000007
25,119.74365200000011,189.3588869999994,104.23095699999976,115.64111300000059,26.282227000000603,106.2822270000006,111.2822270000006,111.79492200000004,108.58984400000008,-103.97436500000003,43.0771479999994,116.53857400000015,121.53857400000015,106.2822270000006
26,115.51269500000035,185.6411130000006,104.10253900000043,109.10253900000043,20.641113000000587,100.89746099999957,115.64111300000059,111.53857400000015,108.84619099999964,-103.58984399999963,45.12841800000024,116.79492200000004,112.43603499999972,107.94873000000007
27,125.76904300000024,202.3076170000004,108.84619099999964,106.9228520000006,56.2822270000006,103.9741210000002,118.58984400000008,114.87158199999976,112.82031300000017,-84.23071300000038,51.2822270000006,123.9741210000002,124.48730499999965,115.38476599999922
28,144.23095699999976,230.51269500000035,114.61523400000078,114.10253900000043,101.79492200000004,112.94873000000007,118.58984400000008,117.82031300000017,115.76904300000024,-67.17944299999999,53.974121000000196,133.3334960000002,147.56396500000028,116.2822270000006
29,158.46142599999985,249.3588869999994,120.38476599999922,128.46142599999985,111.15380900000036,119.23095699999976,115.0,116.9228520000006,113.84619099999964,-75.38452099999995,49.74365200000011,139.7436520000001,160.51269500000035,110.51269500000035
30,160.6411130000006,245.89746099999957,128.20507799999996,140.12841800000024,68.3334960000002,116.41015599999992,110.25634799999989,113.0771479999994,108.0771479999994,-110.0,40.897460999999566,142.56396500000028,150.89746099999957,109.35888699999941
31,155.38476599999922,230.76904300000024,137.17968800000017,137.3076170000004,7.179688000000169,109.10253900000043,110.76904300000024,109.61523400000078,103.7177729999994,-145.1281740000004,33.589844000000085,145.0,129.61523400000078,113.9741210000002
32,156.41015599999992,231.79492200000004,142.94873000000007,118.20507799999996,-13.205077999999958,110.51269500000035,122.17968800000017,110.12841800000024,106.79492200000004,-147.3076170000004,34.102539000000434,151.79492200000004,123.46142599999985,113.9741210000002
33,171.6665039999998,265.89746099999957,143.84619099999964,96.6665039999998,39.23095699999976,128.84619099999964,142.56396500000028,115.64111300000059,117.69238299999961,-106.41015600000037,43.0771479999994,162.94873000000007,148.58984400000008,107.43603499999972
34,193.0771479999994,319.3588869999994,140.89746099999957,91.9228520000006,138.3334960000002,155.38476599999922,159.7436520000001,122.94873000000007,130.0,-48.20507799999996,53.0771479999994,172.05126999999993,192.43603499999972,105.51269500000035
35,203.9741210000002,357.94873000000007,133.9741210000002,109.61523400000078,221.41015599999992,171.79492200000004,159.87158199999976,126.53857400000015,134.87158199999976,-13.846190999999635,55.38476599999922,170.76904300000024,223.9741210000002,111.9228520000006
36,196.6665039999998,359.48730499999965,122.94873000000007,135.6411130000006,241.79492200000004,167.6923829999996,139.87158199999976,122.82031300000017,129.7436520000001,-25.0,49.23095699999976,158.0771479999994,223.0771479999994,115.25634799999989
37,176.41015599999992,330.6411130000006,110.89746099999957,149.87158199999976,202.17968800000017,148.9741210000002,110.0,114.23095699999976,118.84619099999964,-69.74365200000011,38.974121000000196,141.53857400000015,194.61523400000078,109.23095699999976
38,152.56396500000028,296.4101559999999,103.20507799999996,143.84619099999964,143.0771479999994,130.0,85.0,106.2822270000006,109.35888699999941,-117.43579099999943,24.102539000000434,128.0771479999994,157.3076170000004,104.87158199999976
39,130.38476599999922,278.84619099999964,99.61523400000078,126.0258789999998,107.30761700000039,120.64111300000059,72.94873000000007,102.43603499999972,104.74365200000011,-144.7436520000001,0.6411130000005869,117.82031300000017,126.15380900000036,110.76904300000024
40,114.35888699999941,285.51269500000035,96.15380900000036,111.0258789999998,110.38476599999922,120.89746099999957,72.82031300000017,102.17968800000017,103.9741210000002,-147.56420900000057,-27.948729999999614,108.0771479999994,107.94873000000007,117.82031300000017
41,111.41015599999992,310.3847659999992,93.3334960000002,108.46142599999985,136.0258789999998,125.89746099999957,80.38476599999922,103.3334960000002,105.12841800000024,-135.76928699999962,-44.23071300000038,101.9228520000006,107.82031300000017,114.61523400000078
42,127.43603499999972,341.6665039999998,99.35888699999941,117.82031300000017,154.23095699999976,132.17968800000017,93.3334960000002,105.38476599999922,106.9228520000006,-121.41015600000037,-29.358886999999868,109.23095699999976,128.84619099999964,107.17968800000017
43,159.23095699999976,367.4360349999997,118.20507799999996,131.2822270000006,148.46142599999985,140.0,110.76904300000024,108.84619099999964,109.35888699999941,-110.51293900000019,16.025878999999804,134.7436520000001,166.6665039999998,107.17968800000017
44,193.20507799999996,381.0258789999998,140.12841800000024,138.84619099999964,128.9741210000002,150.12841800000024,128.58984400000008,112.82031300000017,111.9228520000006,-102.94872999999961,62.17968800000017,168.3334960000002,205.2563479999999,111.6665039999998
45,210.51269500000035,381.2822270000006,148.9741210000002,137.6923829999996,118.9741210000002,161.41015599999992,138.20507799999996,115.76904300000024,113.0771479999994,-96.66674799999964,68.84619099999964,189.3588869999994,223.20507799999996,110.0
46,199.61523400000078,371.79492200000004,137.94873000000007,135.2563479999999,129.10253900000043,169.3588869999994,132.05126999999993,116.0258789999998,110.89746099999957,-92.43579099999943,20.0,181.41015599999992,208.58984400000008,104.61523400000078
47,165.0,358.46142599999985,114.87158199999976,140.0,148.3334960000002,169.61523400000078,109.61523400000078,113.20507799999996,105.38476599999922,-92.30761700000039,-57.17944299999999,146.6665039999998,168.46142599999985,106.2822270000006
48,126.9228520000006,347.82031300000017,93.0771479999994,150.38476599999922,157.6923829999996,161.2822270000006,79.87158199999976,107.43603499999972,97.94873000000007,-96.92309599999999,-109.61547900000005,104.61523400000078,126.15380900000036,113.3334960000002
49,107.30761700000039,344.87158199999976,82.43603499999972,154.23095699999976,147.94873000000007,147.17968800000017,55.64111300000059,100.51269500000035,91.9228520000006,-103.58984399999963,-101.41015600000037,79.61523400000078,103.9741210000002,113.20507799999996
50,114.10253900000043,349.7436520000001,87.30761700000039,143.84619099999964,124.74365200000011,132.3076170000004,47.43603499999972,95.89746099999957,90.38476599999922,-109.48706099999981,-43.33325200000036,84.87158199999976,107.05126999999993,105.12841800000024
51,136.15380900000036,358.5898440000001,104.48730499999965,124.61523400000078,101.6665039999998,123.46142599999985,57.56396500000028,96.79492200000004,94.23095699999976,-112.56420900000057,15.256347999999889,114.23095699999976,122.82031300000017,102.05126999999993
52,155.2563479999999,368.0771479999994,123.20507799999996,110.89746099999957,91.0258789999998,126.53857400000015,80.25634799999989,102.82031300000017,101.53857400000015,-111.28198199999997,26.153809000000365,146.53857400000015,136.15380900000036,107.94873000000007
53,162.56396500000028,380.12841800000024,131.79492200000004,113.7177729999994,98.0771479999994,143.20507799999996,104.23095699999976,110.25634799999989,108.46142599999985,-102.17944299999999,-21.923095999999987,161.41015599999992,143.9741210000002,111.6665039999998
54,162.43603499999972,398.20507799999996,128.84619099999964,134.10253900000043,117.17968800000017,167.3076170000004,118.7177729999994,114.87158199999976,111.6665039999998,-83.71801800000003,-97.17944299999999,153.7177729999994,153.46142599999985,107.17968800000017
55,164.7436520000001,422.5639650000003,123.58984400000008,162.82031300000017,135.6411130000006,187.94873000000007,119.74365200000011,115.0,110.51269500000035,-58.974365000000034,-151.28198199999997,135.2563479999999,170.2563479999999,103.84619099999964
56,173.3334960000002,446.79492200000004,123.20507799999996,184.23095699999976,142.82031300000017,196.6665039999998,111.2822270000006,111.41015599999992,106.79492200000004,-35.0,-156.02563499999997,122.43603499999972,190.76904300000024,108.3334960000002
57,181.6665039999998,460.0,124.10253900000043,184.7436520000001,138.0771479999994,191.79492200000004,100.76904300000024,106.79492200000004,102.30761700000039,-19.358886999999868,-122.82055700000001,121.15380900000036,204.87158199999976,111.53857400000015
58,178.7177729999994,453.46142599999985,119.10253900000043,163.0771479999994,130.51269500000035,178.46142599999985,91.2822270000006,103.7177729999994,98.20507799999996,-16.153809000000365,-89.23071300000038,123.58984400000008,202.6923829999996,106.0258789999998
59,159.61523400000078,430.76904300000024,108.20507799999996,132.82031300000017,132.05126999999993,164.23095699999976,81.6665039999998,103.46142599999985,94.87158199999976,-23.974365000000034,-84.48706099999981,119.23095699999976,183.20507799999996,100.64111300000059
60,133.46142599999985,410.89746099999957,98.0771479999994,111.79492200000004,147.6923829999996,156.53857400000015,72.17968800000017,104.61523400000078,92.56396500000028,-35.0,-106.15380900000036,106.79492200000004,158.58984400000008,105.51269500000035
61,117.94873000000007,416.2822270000006,93.20507799999996,110.12841800000024,171.15380900000036,159.3588869999994,66.2822270000006,104.61523400000078,91.9228520000006,-38.846190999999635,-127.94872999999961,94.74365200000011,145.6411130000006,113.9741210000002
62,123.84619099999964,449.23095699999976,94.61523400000078,127.05126999999993,185.89746099999957,168.7177729999994,66.2822270000006,102.30761700000039,92.43603499999972,-31.538574000000153,-127.94872999999961,92.82031300000017,150.12841800000024,113.7177729999994
63,143.84619099999964,485.89746099999957,101.53857400000015,152.94873000000007,174.23095699999976,174.10253900000043,69.35888699999941,99.10253900000043,92.69238299999961,-19.61547900000005,-110.51293900000019,101.2822270000006,160.51269500000035,107.82031300000017
64,158.3334960000002,494.48730499999965,110.25634799999989,173.7177729999994,132.82031300000017,166.2822270000006,69.35888699999941,97.05126999999993,91.53857400000015,-13.71801800000003,-100.51293900000019,111.15380900000036,159.7436520000001,107.82031300000017
65,152.56396500000028,465.3847659999992,113.0771479999994,176.9228520000006,80.38476599999922,147.82031300000017,62.56396500000028,96.0258789999998,89.10253900000043,-17.179442999999992,-117.69238299999961,111.0258789999998,143.0771479999994,112.69238299999961
66,128.9741210000002,421.0258789999998,104.10253900000043,160.89746099999957,48.589844000000085,131.6665039999998,51.153809000000365,95.12841800000024,86.9228520000006,-22.69238299999961,-154.8718259999996,97.17968800000017,123.0771479999994,111.79492200000004
67,103.3334960000002,395.12841800000024,88.3334960000002,138.3334960000002,59.87158199999976,129.7436520000001,40.76904300000024,93.84619099999964,86.9228520000006,-20.1281740000004,-183.84619099999964,77.94873000000007,115.25634799999989,105.89746099999957
68,90.38476599999922,405.2563479999999,77.43603499999972,125.89746099999957,108.7177729999994,141.41015599999992,35.897460999999566,93.46142599999985,89.10253900000043,-7.179442999999992,-181.79492200000004,66.0258789999998,124.10253900000043,106.15380900000036
69,93.84619099999964,443.7177729999994,77.05126999999993,129.61523400000078,163.9741210000002,154.87158199999976,37.82031300000017,94.10253900000043,91.2822270000006,9.615234000000783,-153.71801800000003,67.69238299999961,141.53857400000015,113.3334960000002
70,107.56396500000028,487.5639650000003,82.94873000000007,142.94873000000007,190.51269500000035,159.3588869999994,44.48730499999965,95.12841800000024,91.2822270000006,22.82031300000017,-127.30761700000039,78.46142599999985,157.3076170000004,114.87158199999976
71,120.76904300000024,512.5639650000003,89.87158199999976,156.41015599999992,174.7436520000001,152.94873000000007,50.76904300000024,95.89746099999957,88.9741210000002,27.30761700000039,-128.20507799999996,87.82031300000017,165.38476599999922,107.69238299999961
72,125.0,506.2822270000006,95.51269500000035,164.61523400000078,133.20507799999996,140.89746099999957,52.17968800000017,96.0258789999998,85.38476599999922,21.794922000000042,-159.8718259999996,88.46142599999985,165.76904300000024,103.58984400000008
73,119.61523400000078,479.48730499999965,98.3334960000002,165.2563479999999,99.10253900000043,130.38476599999922,48.46142599999985,95.25634799999989,82.17968800000017,9.871581999999762,-201.15380900000036,81.0258789999998,163.3334960000002,108.84619099999964
74,112.69238299999961,462.17968800000017,96.53857400000015,158.7177729999994,95.64111300000059,127.94873000000007,45.25634799999989,94.23095699999976,81.41015599999992,2.0512699999999313,-221.28198199999997,74.48730499999965,165.38476599999922,113.0771479999994
75,115.64111300000059,477.3076170000004,93.9741210000002,151.53857400000015,117.82031300000017,135.89746099999957,49.23095699999976,94.35888699999941,84.23095699999976,7.307617000000391,-201.28198199999997,79.87158199999976,177.05126999999993,108.20507799999996
76,132.56396500000028,515.7690430000002,99.35888699999941,153.7177729999994,137.17968800000017,149.48730499999965,61.53857400000015,97.43603499999972,90.12841800000024,24.358886999999413,-149.8718259999996,101.79492200000004,195.12841800000024,103.0771479999994
77,155.6411130000006,541.6665039999998,114.48730499999965,166.41015599999992,127.82031300000017,158.58984400000008,76.2822270000006,102.30761700000039,96.0258789999998,41.153809000000365,-102.56420900000057,131.0258789999998,208.7177729999994,106.9228520000006
78,168.58984400000008,526.0258789999998,128.46142599999985,178.84619099999964,90.51269500000035,155.38476599999922,82.56396500000028,105.38476599999922,98.20507799999996,44.61523400000078,-97.05127000000039,148.0771479999994,206.79492200000004,112.94873000000007
79,159.23095699999976,473.9741210000002,127.94873000000007,178.0771479999994,52.56396500000028,140.38476599999922,73.0771479999994,103.7177729999994,94.35888699999941,32.05126999999993,-141.28198199999997,138.58984400000008,188.84619099999964,110.89746099999957
80,130.0,421.4101559999999,112.56396500000028,163.3334960000002,44.74365200000011,123.20507799999996,51.025878999999804,98.7177729999994,86.2822270000006,13.717772999999397,-206.28198199999997,106.2822270000006,167.43603499999972,105.89746099999957
81,98.0771479999994,406.0258789999998,94.10253900000043,147.3076170000004,75.89746099999957,115.0,30.641113000000587,94.23095699999976,79.48730499999965,6.922852000000603,-250.1281740000004,71.53857400000015,158.9741210000002,108.0771479999994
82,83.46142599999985,440.89746099999957,83.58984400000008,142.43603499999972,127.56396500000028,121.41015599999992,26.794922000000042,93.58984400000008,78.3334960000002,22.94873000000007,-251.79492200000004,55.51269500000035,171.2822270000006,113.0771479999994
83,93.84619099999964,508.3334960000002,83.9741210000002,150.6411130000006,169.3588869999994,139.23095699999976,42.69238299999961,97.05126999999993,84.35888699999941,57.05126999999993,-223.58984399999963,65.0,197.56396500000028,110.0
84,117.82031300000017,571.5385740000002,91.79492200000004,163.9741210000002,179.10253900000043,157.3076170000004,66.41015599999992,101.6665039999998,93.3334960000002,89.10253900000043,-195.1281740000004,88.46142599999985,222.43603499999972,101.9228520000006
85,133.84619099999964,596.6665039999998,100.76904300000024,171.9228520000006,154.10253900000043,162.6923829999996,79.87158199999976,103.7177729999994,98.84619099999964,96.79492200000004,-187.9487299999996,106.15380900000036,230.89746099999957,102.05126999999993
86,127.69238299999961,572.8203130000002,102.17968800000017,168.46142599999985,111.41015599999992,149.7436520000001,72.17968800000017,100.76904300000024,96.41015599999992,73.84619099999964,-204.4870609999998,103.58984400000008,217.94873000000007,110.51269500000035
87,100.76904300000024,518.7177729999994,91.0258789999998,156.9228520000006,75.64111300000059,124.35888699999941,46.666503999999804,93.7177729999994,87.30761700000039,35.0,-234.10253899999998,79.61523400000078,189.7436520000001,113.84619099999964
88,66.41015599999992,468.20507799999996,72.17968800000017,147.82031300000017,63.0771479999994,99.48730499999965,16.025878999999804,86.2822270000006,77.17968800000017,3.4614259999998467,-265.2563479999999,46.153809000000365,158.46142599999985,107.94873000000007
89,39.48730499999965,448.84619099999964,57.43603499999972,150.89746099999957,70.0,85.76904300000024,-5.256347999999889,82.82031300000017,71.41015599999992,-6.923095999999987,-291.15380900000036,19.615234000000783,134.87158199999976,103.7177729999994
90,31.025878999999804,466.4101559999999,55.76904300000024,165.12841800000024,78.46142599999985,86.79492200000004,-8.076904000000013,84.35888699999941,71.6665039999998,2.0512699999999313,-305.7692869999996,12.43603499999972,127.43603499999972,106.6665039999998
91,45.64111300000059,505.12841800000024,68.7177729999994,179.61523400000078,73.20507799999996,98.7177729999994,7.948730000000069,88.46142599999985,76.41015599999992,19.102539000000434,-300.2563479999999,28.589844000000085,140.89746099999957,107.82031300000017
92,77.05126999999993,539.7436520000001,91.41015599999992,184.23095699999976,55.0,114.10253900000043,34.23095699999976,92.56396500000028,81.9228520000006,33.46142599999985,-271.66674799999964,60.76904300000024,172.17968800000017,102.69238299999961
93,108.3334960000002,552.0512699999999,114.48730499999965,178.7177729999994,37.94873000000007,125.38476599999922,56.9228520000006,95.12841800000024,85.76904300000024,40.38476599999922,-232.0512700000004,93.20507799999996,207.05126999999993,100.38476599999922
94,122.94873000000007,540.8974609999996,125.64111300000059,170.76904300000024,36.9228520000006,128.9741210000002,65.51269500000035,96.2822270000006,87.17968800000017,41.79492200000004,-204.8718259999996,108.84619099999964,227.3076170000004,106.79492200000004
95,116.41015599999992,521.794922,116.79492200000004,167.3076170000004,56.53857400000015,126.79492200000004,59.102539000000434,96.41015599999992,87.69238299999961,41.9228520000006,-205.38452099999995,100.89746099999957,224.7436520000001,111.53857400000015
96,98.46142599999985,515.8974609999996,93.0771479999994,169.48730499999965,88.84619099999964,123.46142599999985,45.0,96.53857400000015,88.7177729999994,42.82031300000017,-228.33325200000036,77.82031300000017,207.05126999999993,105.76904300000024
97,82.43603499999972,533.0771479999994,71.6665039999998,174.61523400000078,117.69238299999961,121.2822270000006,31.666503999999804,97.43603499999972,90.76904300000024,42.69238299999961,-253.84619099999964,56.666503999999804,190.76904300000024,98.0771479999994
98,77.30761700000039,562.8203130000002,66.79492200000004,180.6411130000006,126.79492200000004,119.23095699999976,23.589844000000085,98.58984400000008,92.17968800000017,39.87158199999976,-262.6923829999996,50.76904300000024,188.0771479999994,100.64111300000059
99,84.61523400000078,581.794922,78.46142599999985,187.3076170000004,111.79492200000004,116.0258789999998,21.538574000000153,98.46142599999985,91.41015599999992,37.17968800000017,-247.43579099999943,61.53857400000015,200.51269500000035,108.58984400000008
100,100.25634799999989,575.1284180000002,96.15380900000036,195.12841800000024,85.51269500000035,112.69238299999961,25.384765999999217,96.53857400000015,88.9741210000002,40.897460999999566,-216.41015600000037,81.53857400000015,220.76904300000024,109.23095699999976
101,115.89746099999957,549.8715819999998,109.48730499999965,203.20507799999996,67.56396500000028,111.15380900000036,33.0771479999994,94.74365200000011,87.17968800000017,53.974121000000196,-188.84619099999964,99.35888699999941,237.94873000000007,103.9741210000002
102,120.64111300000059,529.2309569999998,112.69238299999961,207.05126999999993,67.17968800000017,111.15380900000036,40.12841800000024,94.61523400000078,86.9228520000006,69.61523400000078,-181.923096,106.2822270000006,244.7436520000001,103.7177729999994
103,110.76904300000024,532.6923829999996,103.9741210000002,201.41015599999992,78.3334960000002,111.53857400000015,42.56396500000028,95.64111300000059,87.30761700000039,77.56396500000028,-198.58984399999963,99.74365200000011,242.43603499999972,108.0771479999994
104,93.84619099999964,560.1284180000002,88.0771479999994,186.53857400000015,88.0771479999994,112.94873000000007,40.64111300000059,96.0258789999998,87.30761700000039,74.87158199999976,-226.79492200000004,85.51269500000035,239.48730499999965,106.9228520000006
105,81.41015599999992,592.8203130000002,75.64111300000059,171.15380900000036,88.84619099999964,116.6665039999998,37.17968800000017,95.51269500000035,87.30761700000039,68.7177729999994,-251.53857400000015,72.43603499999972,241.2822270000006,100.89746099999957
106,77.05126999999993,608.7177729999994,73.84619099999964,166.15380900000036,79.87158199999976,119.48730499999965,31.922852000000603,94.35888699999941,87.05126999999993,65.64111300000059,-265.2563479999999,64.61523400000078,241.9228520000006,101.0258789999998
107,75.25634799999989,599.4873049999997,78.7177729999994,173.58984400000008,63.46142599999985,114.87158199999976,21.153809000000365,91.53857400000015,84.61523400000078,64.10253900000043,-267.179443,58.846190999999635,230.6411130000006,108.3334960000002
108,71.0258789999998,576.4101559999999,81.0258789999998,185.38476599999922,44.35888699999941,100.76904300000024,3.846190999999635,86.9228520000006,78.9741210000002,57.94873000000007,-257.820557,52.05126999999993,205.51269500000035,110.64111300000059
109,68.20507799999996,559.7436520000001,79.10253900000043,192.82031300000017,32.05126999999993,85.25634799999989,-12.692382999999609,82.94873000000007,72.82031300000017,47.17968800000017,-238.46142599999985,48.974121000000196,180.6411130000006,104.35888699999941
110,74.87158199999976,561.1538090000004,80.89746099999957,194.7436520000001,35.64111300000059,80.12841800000024,-15.897461000000021,83.7177729999994,71.15380900000036,40.12841800000024,-215.0,57.30761700000039,175.51269500000035,101.41015599999992
111,92.30761700000039,573.8461909999996,90.12841800000024,195.51269500000035,54.74365200000011,90.25634799999989,0.769043000000238,89.61523400000078,76.2822270000006,45.38476599999922,-197.9487299999996,76.9228520000006,198.0771479999994,108.46142599999985
112,110.25634799999989,580.5126950000003,99.74365200000011,197.43603499999972,74.74365200000011,107.82031300000017,30.128418000000238,96.6665039999998,85.25634799999989,61.79492200000004,-197.3076170000004,95.89746099999957,235.6411130000006,114.35888699999941
113,114.87158199999976,570.3847659999992,101.0258789999998,199.3588869999994,77.30761700000039,119.10253900000043,55.25634799999989,99.87158199999976,91.9228520000006,78.3334960000002,-215.5129390000002,99.61523400000078,262.4360349999997,109.87158199999976
114,100.76904300000024,550.2563479999999,94.10253900000043,199.10253900000043,57.30761700000039,116.15380900000036,61.025878999999804,98.0771479999994,92.05126999999993,82.94873000000007,-243.97436500000003,84.35888699999941,259.3588869999994,103.20507799999996
115,76.41015599999992,537.8203130000002,85.64111300000059,194.87158199999976,29.74365200000011,101.9228520000006,46.025878999999804,93.46142599999985,86.6665039999998,73.20507799999996,-265.5129390000002,61.025878999999804,230.0,104.74365200000011
116,58.0771479999994,545.3847659999992,79.74365200000011,185.6411130000006,17.82031300000017,87.56396500000028,22.05126999999993,89.61523400000078,80.38476599999922,58.0771479999994,-265.38452099999995,45.25634799999989,197.05126999999993,108.7177729999994
117,56.666503999999804,567.9487300000001,77.82031300000017,173.9741210000002,31.794922000000042,83.0771479999994,5.897460999999566,88.9741210000002,78.58984400000008,50.51269500000035,-243.076904,46.025878999999804,182.94873000000007,105.64111300000059
118,70.76904300000024,587.4360349999997,82.05126999999993,167.82031300000017,60.12841800000024,90.76904300000024,7.820313000000169,92.56396500000028,82.82031300000017,56.53857400000015,-213.84619099999964,60.25634799999989,192.82031300000017,100.51269500000035
119,89.48730499999965,590.6411130000006,92.56396500000028,173.58984400000008,80.89746099999957,103.84619099999964,24.615234000000783,98.3334960000002,90.12841800000024,70.0,-193.84619099999964,77.30761700000039,215.76904300000024,104.10253900000043
120,102.30761700000039,580.7690430000002,102.82031300000017,188.0771479999994,82.17968800000017,113.20507799999996,44.23095699999976,102.05126999999993,95.38476599999922,79.23095699999976,-188.20507799999996,86.79492200000004,237.94873000000007,111.79492200000004
121,104.48730499999965,571.1538090000004,105.12841800000024,200.38476599999922,69.35888699999941,114.74365200000011,54.23095699999976,101.0258789999998,95.76904300000024,76.79492200000004,-190.38452099999995,85.51269500000035,253.0771479999994,110.89746099999957
122,97.82031300000017,569.2309569999998,99.74365200000011,202.05126999999993,56.025878999999804,110.38476599999922,51.025878999999804,96.41015599999992,92.05126999999993,63.589844000000085,-192.179443,78.20507799999996,259.7436520000001,102.56396500000028
123,87.05126999999993,570.8974609999996,92.82031300000017,193.58984400000008,50.38476599999922,103.58984400000008,39.74365200000011,92.30761700000039,87.30761700000039,47.05126999999993,-191.79492200000004,71.79492200000004,256.53857400000015,100.25634799999989
124,78.0771479999994,568.5898440000001,88.7177729999994,181.15380900000036,51.153809000000365,97.43603499999972,28.717772999999397,91.53857400000015,84.10253900000043,35.897460999999566,-190.89746100000002,69.74365200000011,242.82031300000017,106.53857400000015
125,76.53857400000015,561.2822270000006,87.30761700000039,171.53857400000015,51.9228520000006,93.7177729999994,23.846190999999635,93.20507799999996,83.7177729999994,35.64111300000059,-189.61547900000005,71.41015599999992,223.3334960000002,110.12841800000024
126,84.35888699999941,554.4873049999997,89.87158199999976,169.61523400000078,47.94873000000007,93.7177729999994,27.05126999999993,95.64111300000059,86.53857400000015,45.897460999999566,-186.923096,76.15380900000036,207.94873000000007,106.2822270000006
127,97.82031300000017,553.8461909999996,98.0771479999994,176.15380900000036,41.2822270000006,97.82031300000017,37.17968800000017,97.43603499999972,91.41015599999992,61.666503999999804,-184.35888699999987,83.46142599999985,205.38476599999922,104.48730499999965
128,109.87158199999976,560.1284180000002,108.46142599999985,185.89746099999957,39.102539000000434,104.61523400000078,51.025878999999804,97.94873000000007,95.76904300000024,76.6665039999998,-183.97436500000003,91.53857400000015,217.43603499999972,108.84619099999964
129,113.9741210000002,568.5898440000001,111.79492200000004,191.0258789999998,47.30761700000039,111.2822270000006,62.56396500000028,97.05126999999993,97.43603499999972,85.38476599999922,-184.35888699999987,96.15380900000036,237.3076170000004,109.61523400000078
130,106.41015599999992,569.4873049999997,103.9741210000002,187.56396500000028,62.30761700000039,112.43603499999972,64.61523400000078,95.25634799999989,95.25634799999989,82.82031300000017,-181.02563499999997,93.58984400000008,251.53857400000015,102.05126999999993
131,87.56396500000028,554.1025390000004,89.87158199999976,178.58984400000008,71.41015599999992,103.7177729999994,52.56396500000028,93.20507799999996,89.35888699999941,65.64111300000059,-172.3076170000004,83.0771479999994,247.17968800000017,97.17968800000017
132,64.10253900000043,524.7436520000001,77.05126999999993,168.46142599999985,64.48730499999965,86.15380900000036,29.102539000000434,90.38476599999922,82.17968800000017,38.333496000000196,-162.56420900000057,67.82031300000017,222.56396500000028,103.20507799999996
133,46.666503999999804,497.6923829999996,69.35888699999941,159.3588869999994,45.25634799999989,68.46142599999985,5.128418000000238,86.2822270000006,77.94873000000007,13.846190999999635,-159.10253899999998,53.20507799999996,191.0258789999998,110.64111300000059
134,44.23095699999976,490.89746099999957,67.30761700000039,153.9741210000002,27.69238299999961,61.025878999999804,-6.666747999999643,81.9228520000006,78.9741210000002,5.512695000000349,-165.5129390000002,44.87158199999976,172.56396500000028,108.20507799999996
135,55.64111300000059,508.0771479999994,71.6665039999998,157.17968800000017,21.922852000000603,66.41015599999992,-0.38476599999921746,79.87158199999976,84.61523400000078,16.282227000000603,-178.71801800000003,44.87158199999976,175.76904300000024,101.79492200000004
136,71.53857400000015,535.1284180000002,80.25634799999989,170.2563479999999,27.05126999999993,79.48730499999965,19.358886999999413,82.30761700000039,90.76904300000024,36.153809000000365,-191.66674799999964,50.0,192.6923829999996,103.3334960000002
137,82.43603499999972,553.5898440000001,86.41015599999992,185.6411130000006,35.51269500000035,92.56396500000028,41.153809000000365,87.69238299999961,93.46142599999985,51.666503999999804,-197.0512700000004,55.25634799999989,207.6923829999996,109.48730499999965
138,86.79492200000004,555.3847659999992,86.15380900000036,193.0771479999994,41.79492200000004,100.89746099999957,54.23095699999976,93.20507799999996,92.05126999999993,56.666503999999804,-188.97436500000003,58.974121000000196,213.0771479999994,108.7177729999994
139,89.48730499999965,545.6411130000006,84.23095699999976,188.3334960000002,44.48730499999965,102.69238299999961,54.48730499999965,96.41015599999992,89.23095699999976,53.46142599999985,-166.923096,63.846190999999635,213.46142599999985,102.05126999999993
140,94.23095699999976,534.8715819999998,86.2822270000006,176.15380900000036,45.25634799999989,97.43603499999972,45.0,96.41015599999992,87.69238299999961,47.56396500000028,-139.23071300000038,70.76904300000024,216.2822270000006,100.25634799999989
141,98.9741210000002,530.5126950000003,90.0,165.0,46.666503999999804,87.56396500000028,32.43603499999972,93.3334960000002,87.56396500000028,42.94873000000007,-120.64111300000013,75.38476599999922,222.6923829999996,103.3334960000002
142,101.9228520000006,532.9487300000001,88.84619099999964,162.17968800000017,50.64111300000059,79.10253900000043,24.102539000000434,88.84619099999964,87.43603499999972,40.38476599999922,-118.46142599999985,73.9741210000002,228.0771479999994,101.2822270000006
143,105.12841800000024,537.5639650000003,85.12841800000024,170.89746099999957,56.153809000000365,78.0771479999994,25.51269500000035,86.41015599999992,86.9228520000006,40.0,-124.35888699999987,71.0258789999998,228.3334960000002,95.0
144,112.94873000000007,540.6411130000006,88.84619099999964,185.12841800000024,59.102539000000434,85.64111300000059,39.102539000000434,88.7177729999994,86.9228520000006,42.30761700000039,-123.07690400000001,76.41015599999992,224.23095699999976,95.89746099999957
145,126.15380900000036,541.6665039999998,102.69238299999961,191.41015599999992,57.69238299999961,98.20507799999996,61.2822270000006,94.48730499999965,89.10253900000043,49.23095699999976,-108.97436500000003,93.20507799999996,219.3588869999994,105.0
146,139.48730499999965,541.794922,116.41015599999992,181.15380900000036,55.12841800000024,108.46142599999985,81.41015599999992,99.48730499999965,93.3334960000002,59.61523400000078,-91.02563499999997,111.9228520000006,216.41015599999992,108.58984400000008
147,144.87158199999976,539.1025390000004,117.94873000000007,162.56396500000028,56.153809000000365,110.25634799999989,85.76904300000024,100.25634799999989,97.17968800000017,67.94873000000007,-83.33325200000036,117.82031300000017,215.2563479999999,101.79492200000004
148,137.82031300000017,529.1025390000004,106.0258789999998,154.10253900000043,61.025878999999804,101.15380900000036,69.48730499999965,97.05126999999993,97.94873000000007,66.9228520000006,-91.79492200000004,105.0,213.46142599999985,96.6665039999998
149,121.6665039999998,511.4101559999999,88.7177729999994,164.61523400000078,65.51269500000035,85.76904300000024,42.82031300000017,92.43603499999972,94.74365200000011,56.2822270000006,-111.66674799999964,81.0258789999998,210.12841800000024,101.53857400000015
150,106.9228520000006,493.0771479999994,75.89746099999957,183.46142599999985,65.76904300000024,74.61523400000078,24.74365200000011,89.23095699999976,90.0,44.87158199999976,-130.76928699999962,61.2822270000006,207.6923829999996,107.56396500000028
151,104.35888699999941,483.9741210000002,75.12841800000024,193.46142599999985,62.94873000000007,76.2822270000006,28.333496000000196,88.84619099999964,87.69238299999961,43.846190999999635,-136.923096,57.94873000000007,209.61523400000078,105.25634799999989
152,115.38476599999922,488.0771479999994,88.58984400000008,187.56396500000028,59.35888699999941,89.74365200000011,49.23095699999976,91.53857400000015,89.87158199999976,55.38476599999922,-124.35888699999987,73.20507799999996,216.6665039999998,101.6665039999998
153,130.6411130000006,499.10253900000043,107.69238299999961,170.6411130000006,55.64111300000059,103.9741210000002,69.61523400000078,95.25634799999989,94.35888699999941,69.23095699999976,-98.97436500000003,95.76904300000024,223.3334960000002,105.89746099999957
154,136.2822270000006,505.12841800000024,115.76904300000024,151.15380900000036,52.05126999999993,108.0771479999994,72.17968800000017,96.6665039999998,96.53857400000015,71.79492200000004,-76.41015600000037,108.3334960000002,221.53857400000015,111.6665039999998
155,126.53857400000015,498.9741210000002,103.7177729999994,137.43603499999972,52.17968800000017,101.0258789999998,55.12841800000024,94.48730499999965,93.9741210000002,59.35888699999941,-70.64111300000013,101.2822270000006,207.6923829999996,108.3334960000002
156,108.3334960000002,483.46142599999985,81.6665039999998,136.2822270000006,59.87158199999976,92.05126999999993,33.20507799999996,91.2822270000006,89.23095699999976,42.05126999999993,-83.07690400000001,81.2822270000006,186.79492200000004,100.89746099999957
157,95.0,468.0771479999994,69.48730499999965,147.6923829999996,73.3334960000002,91.2822270000006,25.897460999999566,90.25634799999989,87.17968800000017,35.38476599999922,-100.1281740000004,65.12841800000024,170.12841800000024,102.05126999999993
158,95.89746099999957,460.89746099999957,76.41015599999992,162.17968800000017,85.38476599999922,100.25634799999989,40.897460999999566,92.69238299999961,90.64111300000059,46.9228520000006,-104.23071300000038,65.0,166.9228520000006,109.48730499999965
159,108.84619099999964,462.6923829999996,94.23095699999976,167.17968800000017,87.94873000000007,111.79492200000004,68.0771479999994,96.79492200000004,97.69238299999961,70.12841800000024,-87.17944299999999,79.35888699999941,177.3076170000004,110.12841800000024
160,121.2822270000006,465.76904300000024,108.46142599999985,158.9741210000002,77.94873000000007,115.51269500000035,86.9228520000006,99.87158199999976,103.58984400000008,88.20507799999996,-57.82055700000001,95.0,190.12841800000024,103.0771479999994
161,119.74365200000011,461.15380900000036,110.0,145.2563479999999,59.102539000000434,106.53857400000015,83.20507799999996,99.87158199999976,103.58984400000008,86.0258789999998,-35.1281740000004,98.84619099999964,190.6411130000006,100.76904300000024
162,101.9228520000006,447.82031300000017,98.7177729999994,135.0,42.43603499999972,89.87158199999976,59.74365200000011,96.6665039999998,96.9228520000006,63.589844000000085,-33.07690400000001,86.6665039999998,173.3334960000002,106.15380900000036
163,79.74365200000011,435.0,81.0258789999998,131.2822270000006,41.025878999999804,77.56396500000028,34.87158199999976,92.30761700000039,87.94873000000007,36.666503999999804,-50.1281740000004,66.2822270000006,147.82031300000017,108.3334960000002
164,66.79492200000004,431.6665039999998,66.9228520000006,132.94873000000007,59.102539000000434,77.69238299999961,25.25634799999989,89.23095699999976,83.0771479999994,24.358886999999413,-73.46142599999985,49.74365200000011,129.7436520000001,103.20507799999996
165,66.53857400000015,434.6152340000008,63.589844000000085,137.82031300000017,85.76904300000024,87.30761700000039,34.23095699999976,89.35888699999941,85.25634799999989,32.94873000000007,-88.97436500000003,43.846190999999635,126.15380900000036,100.64111300000059
166,72.05126999999993,431.79492200000004,69.61523400000078,143.84619099999964,101.79492200000004,95.64111300000059,51.53857400000015,91.53857400000015,92.17968800000017,52.82031300000017,-89.61547900000005,46.9228520000006,132.3076170000004,105.25634799999989
167,77.05126999999993,417.82031300000017,77.69238299999961,148.58984400000008,96.53857400000015,95.64111300000059,65.76904300000024,93.58984400000008,98.3334960000002,69.87158199999976,-75.1281740000004,55.0,140.12841800000024,106.79492200000004
168,81.53857400000015,401.2822270000006,83.58984400000008,150.51269500000035,78.0771479999994,89.74365200000011,72.05126999999993,95.0,100.51269500000035,76.53857400000015,-51.28198199999997,65.12841800000024,145.0,99.74365200000011
169,87.43603499999972,395.89746099999957,88.9741210000002,150.6411130000006,64.87158199999976,86.41015599999992,73.0771479999994,96.79492200000004,98.7177729999994,73.84619099999964,-27.69238299999961,76.0258789999998,146.79492200000004,94.48730499999965
170,94.48730499999965,405.6411130000006,94.48730499999965,150.2563479999999,69.23095699999976,91.0258789999998,72.43603499999972,98.7177729999994,95.38476599999922,67.30761700000039,-13.461425999999847,84.61523400000078,146.0258789999998,100.89746099999957
171,99.61523400000078,421.9228520000006,96.53857400000015,148.9741210000002,87.05126999999993,100.38476599999922,72.05126999999993,99.48730499999965,93.0771479999994,62.05126999999993,-12.564209000000574,87.30761700000039,143.84619099999964,110.12841800000024
172,99.48730499999965,431.15380900000036,92.69238299999961,146.2822270000006,102.94873000000007,106.2822270000006,71.41015599999992,98.3334960000002,92.94873000000007,61.153809000000365,-22.435790999999426,82.82031300000017,140.89746099999957,109.35888699999941
173,92.94873000000007,427.05126999999993,86.6665039999998,143.0771479999994,104.35888699999941,102.82031300000017,69.48730499999965,96.2822270000006,94.23095699999976,63.589844000000085,-36.79492200000004,74.10253900000043,136.15380900000036,102.69238299999961
174,83.3334960000002,413.3334960000002,84.87158199999976,141.0258789999998,91.15380900000036,91.41015599999992,67.05126999999993,94.61523400000078,95.38476599999922,66.41015599999992,-47.82055700000001,66.6665039999998,129.23095699999976,102.17968800000017
175,78.3334960000002,400.12841800000024,88.46142599999985,140.12841800000024,75.0,80.89746099999957,67.43603499999972,93.9741210000002,95.12841800000024,68.58984400000008,-48.33325200000036,65.12841800000024,123.46142599999985,106.6665039999998
176,83.58984400000008,393.9741210000002,94.10253900000043,138.9741210000002,67.82031300000017,79.61523400000078,73.0771479999994,94.48730499999965,93.84619099999964,71.2822270000006,-36.28198199999997,71.53857400000015,122.56396500000028,106.0258789999998
177,96.0258789999998,392.6923829999996,99.10253900000043,137.05126999999993,72.05126999999993,87.82031300000017,81.79492200000004,96.0258789999998,93.20507799999996,74.61523400000078,-18.205077999999958,82.30761700000039,124.87158199999976,101.53857400000015
178,103.84619099999964,388.3334960000002,101.6665039999998,134.3588869999994,80.12841800000024,96.2822270000006,86.6665039999998,97.82031300000017,93.84619099999964,75.64111300000059,-5.641113000000132,89.48730499999965,123.0771479999994,102.82031300000017
179,98.46142599999985,375.76904300000024,98.84619099999964,130.38476599999922,82.17968800000017,95.38476599999922,82.43603499999972,97.94873000000007,94.61523400000078,70.76904300000024,-5.38452099999995,86.41015599999992,111.9228520000006,108.46142599999985
180,81.9228520000006,358.3334960000002,89.23095699999976,125.0,74.35888699999941,83.46142599999985,70.0,95.51269500000035,94.23095699999976,60.51269500000035,-13.461425999999847,73.84619099999964,94.48730499999965,107.17968800000017
181,65.51269500000035,343.9741210000002,79.10253900000043,120.89746099999957,61.53857400000015,67.94873000000007,56.025878999999804,92.30761700000039,92.69238299999961,50.25634799999989,-20.1281740000004,60.0,80.12841800000024,98.7177729999994
182,59.61523400000078,339.10253900000043,77.17968800000017,120.64111300000059,53.589844000000085,58.846190999999635,48.974121000000196,91.0258789999998,91.9228520000006,46.9228520000006,-19.487060999999812,54.48730499999965,76.6665039999998,96.41015599999992
183,67.69238299999961,345.12841800000024,84.74365200000011,123.7177729999994,59.23095699999976,61.410155999999915,54.102539000000434,92.56396500000028,93.3334960000002,55.12841800000024,-13.076904000000013,60.64111300000059,86.9228520000006,104.61523400000078
184,85.38476599999922,358.20507799999996,95.0,126.79492200000004,78.84619099999964,73.58984400000008,70.12841800000024,94.87158199999976,97.05126999999993,73.7177729999994,-4.358886999999868,74.74365200000011,106.0258789999998,110.38476599999922
185,103.9741210000002,369.48730499999965,102.17968800000017,129.10253900000043,102.43603499999972,87.69238299999961,88.9741210000002,96.53857400000015,101.2822270000006,94.23095699999976,5.0,89.87158199999976,122.82031300000017,106.15380900000036
186,114.35888699999941,369.6152340000008,107.17968800000017,132.82031300000017,116.0258789999998,94.48730499999965,100.89746099999957,97.82031300000017,103.20507799999996,105.25634799999989,14.102539000000434,100.51269500000035,125.51269500000035,101.41015599999992
187,111.6665039999998,354.48730499999965,110.38476599999922,137.3076170000004,111.53857400000015,89.23095699999976,99.74365200000011,98.46142599999985,101.53857400000015,100.25634799999989,20.51269500000035,103.0771479999994,109.74365200000011,104.35888699999941
188,98.46142599999985,330.12841800000024,108.3334960000002,137.05126999999993,93.7177729999994,75.12841800000024,86.79492200000004,97.94873000000007,97.05126999999993,84.23095699999976,21.153809000000365,96.41015599999992,83.46142599999985,107.69238299999961
189,83.20507799999996,307.82031300000017,100.25634799999989,129.48730499999965,77.05126999999993,61.025878999999804,70.51269500000035,95.76904300000024,93.0771479999994,69.74365200000011,15.384765999999217,83.9741210000002,62.69238299999961,103.0771479999994
190,75.38476599999922,296.79492200000004,92.94873000000007,120.64111300000059,74.74365200000011,55.25634799999989,61.666503999999804,93.9741210000002,92.30761700000039,68.20507799999996,7.43603499999972,73.9741210000002,59.35888699999941,98.3334960000002
191,79.87158199999976,298.84619099999964,94.23095699999976,118.84619099999964,90.12841800000024,59.74365200000011,67.05126999999993,94.10253900000043,95.0,82.05126999999993,3.2050779999999577,74.61523400000078,74.35888699999941,103.3334960000002
192,94.10253900000043,308.3334960000002,102.17968800000017,124.61523400000078,113.7177729999994,69.23095699999976,83.58984400000008,96.15380900000036,98.7177729999994,103.20507799999996,5.769043000000238,86.0258789999998,97.43603499999972,111.53857400000015
193,108.46142599999985,315.3847659999992,108.46142599999985,131.0258789999998,130.38476599999922,75.89746099999957,99.48730499999965,98.0771479999994,100.0,118.7177729999994,11.794922000000042,99.23095699999976,113.3334960000002,110.38476599999922
194,112.56396500000028,310.89746099999957,108.0771479999994,132.56396500000028,129.23095699999976,73.0771479999994,102.94873000000007,98.9741210000002,97.43603499999972,118.58984400000008,15.128418000000238,103.58984400000008,111.41015599999992,103.20507799999996
195,102.94873000000007,292.94873000000007,102.43603499999972,128.58984400000008,111.6665039999998,61.153809000000365,91.53857400000015,98.58984400000008,92.56396500000028,103.9741210000002,12.692382999999609,95.89746099999957,92.30761700000039,102.82031300000017
196,86.9228520000006,270.89746099999957,95.12841800000024,121.2822270000006,91.41015599999992,46.666503999999804,75.12841800000024,97.30761700000039,89.10253900000043,87.17968800000017,8.205077999999958,82.30761700000039,68.3334960000002,109.10253900000043
197,77.56396500000028,259.10253900000043,89.10253900000043,113.58984400000008,83.9741210000002,38.7177729999994,67.17968800000017,95.76904300000024,89.61523400000078,81.41015599999992,8.717772999999397,73.84619099999964,55.38476599999922,110.12841800000024
198,81.41015599999992,263.0771479999994,88.7177729999994,109.87158199999976,93.0771479999994,40.51269500000035,73.46142599999985,95.12841800000024,93.84619099999964,90.0,17.43603499999972,77.17968800000017,59.74365200000011,104.35888699999941
199,92.94873000000007,273.5898440000001,95.64111300000059,113.0771479999994,107.94873000000007,46.410155999999915,86.9228520000006,96.2822270000006,98.3334960000002,102.56396500000028,29.74365200000011,89.10253900000043,72.94873000000007,101.9228520000006
200,101.15380900000036,276.6665039999998,103.9741210000002,119.87158199999976,115.64111300000059,48.46142599999985,95.12841800000024,98.20507799999996,99.74365200000011,107.05126999999993,37.82031300000017,99.48730499999965,81.15380900000036,105.51269500000035
201,100.38476599999922,266.79492200000004,105.25634799999989,122.82031300000017,113.20507799999996,44.23095699999976,91.6665039999998,98.9741210000002,97.69238299999961,100.64111300000059,37.43603499999972,100.0,78.46142599999985,105.25634799999989
202,93.3334960000002,250.0,98.7177729999994,118.7177729999994,107.94873000000007,37.82031300000017,80.51269500000035,97.56396500000028,94.48730499999965,90.76904300000024,31.538574000000153,91.0258789999998,69.87158199999976,99.10253900000043
203,85.89746099999957,234.23095699999976,91.6665039999998,110.89746099999957,106.2822270000006,33.974121000000196,70.76904300000024,95.25634799999989,92.30761700000039,85.64111300000059,26.538574000000153,80.0,62.94873000000007,98.3334960000002
204,81.6665039999998,222.94873000000007,90.25634799999989,104.61523400000078,108.3334960000002,34.102539000000434,68.84619099999964,93.46142599999985,91.53857400000015,87.94873000000007,26.282227000000603,73.9741210000002,60.38476599999922,106.79492200000004
205,81.9228520000006,216.0258789999998,93.20507799999996,101.0258789999998,111.15380900000036,37.05126999999993,75.0,92.69238299999961,91.41015599999992,95.51269500000035,31.153809000000365,75.64111300000059,61.410155999999915,111.6665039999998
206,86.2822270000006,213.58984400000008,96.79492200000004,100.51269500000035,113.7177729999994,41.025878999999804,85.25634799999989,93.46142599999985,92.17968800000017,104.23095699999976,38.7177729999994,83.3334960000002,65.0,104.48730499999965
207,92.69238299999961,213.7177729999994,101.15380900000036,103.84619099999964,116.53857400000015,44.23095699999976,94.35888699999941,96.0258789999998,94.48730499999965,110.38476599999922,46.9228520000006,93.0771479999994,68.84619099999964,95.89746099999957
208,98.7177729999994,212.3076170000004,105.76904300000024,110.0,118.7177729999994,45.12841800000024,97.94873000000007,98.84619099999964,97.69238299999961,111.41015599999992,54.87158199999976,100.89746099999957,69.87158199999976,98.58984400000008
209,103.20507799999996,205.6411130000006,107.30761700000039,114.35888699999941,118.46142599999985,43.589844000000085,95.64111300000059,99.87158199999976,100.0,108.7177729999994,63.0771479999994,104.23095699999976,67.69238299999961,106.41015599999992
210,106.6665039999998,194.23095699999976,103.9741210000002,113.58984400000008,115.38476599999922,41.53857400000015,90.38476599999922,98.46142599999985,100.12841800000024,106.79492200000004,71.41015599999992,103.7177729999994,65.51269500000035,107.43603499999972
211,108.46142599999985,181.41015599999992,99.87158199999976,108.46142599999985,110.25634799999989,40.51269500000035,86.15380900000036,96.0258789999998,98.7177729999994,108.46142599999985,77.94873000000007,101.9228520000006,66.15380900000036,103.9741210000002
212,106.2822270000006,169.87158199999976,99.48730499999965,102.05126999999993,103.84619099999964,40.38476599999922,85.0,94.61523400000078,97.17968800000017,111.9228520000006,79.61523400000078,100.0,68.7177729999994,105.89746099999957
213,100.12841800000024,161.15380900000036,101.2822270000006,96.15380900000036,99.48730499999965,40.51269500000035,86.9228520000006,94.61523400000078,96.9228520000006,114.48730499999965,76.9228520000006,98.0771479999994,70.25634799999989,110.64111300000059
214,94.87158199999976,156.6665039999998,101.53857400000015,91.53857400000015,101.0258789999998,42.05126999999993,91.6665039999998,95.64111300000059,98.46142599999985,116.53857400000015,74.10253900000043,97.43603499999972,71.0258789999998,108.20507799999996
215,95.76904300000024,156.15380900000036,101.15380900000036,90.64111300000059,109.74365200000011,45.76904300000024,98.84619099999964,98.0771479999994,101.9228520000006,121.15380900000036,77.05126999999993,100.38476599999922,73.58984400000008,100.89746099999957
216,103.0771479999994,156.79492200000004,103.84619099999964,94.74365200000011,120.89746099999957,50.38476599999922,106.41015599999992,101.53857400000015,105.64111300000059,129.23095699999976,87.05126999999993,107.43603499999972,78.3334960000002,100.89746099999957
217,111.79492200000004,155.12841800000024,108.3334960000002,100.0,127.82031300000017,52.94873000000007,111.15380900000036,104.23095699999976,107.82031300000017,137.05126999999993,100.12841800000024,115.0,82.56396500000028,108.3334960000002
218,117.17968800000017,150.6411130000006,109.74365200000011,101.15380900000036,127.17968800000017,52.82031300000017,110.76904300000024,104.35888699999941,107.43603499999972,140.76904300000024,110.89746099999957,118.3334960000002,83.7177729999994,110.64111300000059
219,117.69238299999961,145.2563479999999,107.05126999999993,97.56396500000028,121.2822270000006,51.53857400000015,105.76904300000024,102.30761700000039,105.51269500000035,139.10253900000043,117.05126999999993,116.41015599999992,81.41015599999992,104.74365200000011
220,114.23095699999976,140.51269500000035,105.12841800000024,93.3334960000002,115.12841800000024,50.51269500000035,98.9741210000002,100.25634799999989,103.9741210000002,133.7177729999994,119.74365200000011,112.05126999999993,76.79492200000004,102.17968800000017
221,109.23095699999976,136.9228520000006,106.15380900000036,90.64111300000059,112.82031300000017,50.25634799999989,93.9741210000002,99.35888699999941,103.46142599999985,128.0771479999994,120.51269500000035,108.84619099999964,72.30761700000039,107.56396500000028
222,106.6665039999998,135.12841800000024,107.05126999999993,87.94873000000007,116.6665039999998,51.410155999999915,93.3334960000002,99.48730499999965,103.9741210000002,126.6665039999998,119.74365200000011,108.0771479999994,70.76904300000024,110.51269500000035
223,109.10253900000043,135.51269500000035,106.41015599999992,84.74365200000011,125.64111300000059,55.38476599999922,97.94873000000007,100.64111300000059,105.12841800000024,131.41015599999992,118.7177729999994,109.48730499999965,74.10253900000043,104.48730499999965
224,115.76904300000024,136.53857400000015,107.17968800000017,83.58984400000008,136.15380900000036,62.56396500000028,106.41015599999992,103.20507799999996,106.79492200000004,140.6411130000006,119.35888699999941,113.3334960000002,81.0258789999998,99.61523400000078
225,123.20507799999996,135.38476599999922,111.2822270000006,86.41015599999992,143.46142599999985,70.76904300000024,116.6665039999998,106.6665039999998,108.7177729999994,149.10253900000043,123.0771479999994,118.84619099999964,87.94873000000007,104.48730499999965
226,128.0771479999994,131.9228520000006,115.12841800000024,89.35888699999941,145.6411130000006,76.79492200000004,125.89746099999957,109.10253900000043,110.0,152.3076170000004,129.48730499999965,124.10253900000043,91.53857400000015,110.51269500000035
227,129.61523400000078,128.0771479999994,114.74365200000011,88.58984400000008,143.46142599999985,78.3334960000002,130.76904300000024,109.74365200000011,110.12841800000024,150.6411130000006,136.2822270000006,126.6665039999998,90.89746099999957,107.43603499999972
228,128.0771479999994,124.48730499999965,111.6665039999998,85.64111300000059,137.6923829999996,74.48730499999965,129.10253900000043,109.48730499999965,109.48730499999965,146.53857400000015,140.89746099999957,126.2822270000006,86.41015599999992,100.76904300000024
229,125.25634799999989,119.23095699999976,110.64111300000059,85.12841800000024,130.0,67.17968800000017,122.43603499999972,109.48730499999965,108.46142599999985,142.6923829999996,142.05126999999993,124.74365200000011,79.61523400000078,101.9228520000006
230,124.10253900000043,111.53857400000015,112.30761700000039,88.3334960000002,123.20507799999996,60.76904300000024,117.05126999999993,110.0,107.94873000000007,141.15380900000036,141.9228520000006,124.10253900000043,74.10253900000043,107.30761700000039
231,127.82031300000017,103.7177729999994,115.0,91.53857400000015,120.76904300000024,59.61523400000078,117.94873000000007,110.0,108.58984400000008,142.94873000000007,143.7177729999994,125.76904300000024,73.7177729999994,107.05126999999993
232,134.7436520000001,98.0771479999994,118.3334960000002,91.79492200000004,123.46142599999985,64.23095699999976,124.74365200000011,109.48730499999965,110.51269500000035,147.17968800000017,148.7177729999994,129.48730499999965,78.0771479999994,103.0771479999994
233,139.10253900000043,94.61523400000078,122.56396500000028,89.10253900000043,127.82031300000017,70.25634799999989,132.82031300000017,108.46142599999985,112.69238299999961,150.89746099999957,154.61523400000078,133.3334960000002,82.69238299999961,105.64111300000059
234,136.15380900000036,91.53857400000015,124.35888699999941,85.51269500000035,129.87158199999976,72.82031300000017,137.05126999999993,107.05126999999993,113.58984400000008,151.9228520000006,157.17968800000017,133.84619099999964,83.46142599999985,112.30761700000039
235,126.41015599999992,87.05126999999993,120.25634799999989,81.79492200000004,127.56396500000028,70.38476599999922,135.0,105.0,112.69238299999961,150.51269500000035,154.48730499999965,128.84619099999964,79.61523400000078,111.0258789999998
236,114.87158199999976,79.87158199999976,112.05126999999993,79.35888699999941,122.69238299999961,65.38476599999922,127.82031300000017,103.20507799999996,111.0258789999998,148.7177729999994,148.84619099999964,120.25634799999989,73.84619099999964,102.30761700000039
237,107.17968800000017,70.76904300000024,106.53857400000015,80.25634799999989,118.58984400000008,61.53857400000015,119.74365200000011,103.3334960000002,109.74365200000011,148.46142599999985,145.2563479999999,113.46142599999985,69.10253900000043,98.9741210000002
238,106.6665039999998,63.46142599999985,106.6665039999998,83.84619099999964,118.9741210000002,61.53857400000015,116.41015599999992,105.76904300000024,109.48730499999965,150.76904300000024,147.3076170000004,112.82031300000017,68.46142599999985,104.74365200000011
239,112.17968800000017,61.79492200000004,108.9741210000002,85.64111300000059,124.87158199999976,65.38476599999922,119.74365200000011,109.10253900000043,110.0,154.87158199999976,153.58984400000008,117.82031300000017,72.82031300000017,107.82031300000017
240,118.3334960000002,64.74365200000011,109.74365200000011,83.0771479999994,132.43603499999972,69.48730499999965,125.89746099999957,111.53857400000015,110.12841800000024,157.43603499999972,159.23095699999976,123.46142599999985,78.46142599999985,102.94873000000007
241,118.46142599999985,65.64111300000059,109.87158199999976,78.46142599999985,134.3588869999994,69.61523400000078,127.94873000000007,111.9228520000006,109.48730499999965,154.10253900000043,159.10253900000043,124.48730499999965,78.84619099999964,100.12841800000024
242,111.9228520000006,60.12841800000024,110.64111300000059,76.53857400000015,127.05126999999993,64.87158199999976,123.84619099999964,110.25634799999989,108.0771479999994,145.38476599999922,153.84619099999964,120.38476599999922,70.89746099999957,105.64111300000059
243,106.2822270000006,52.43603499999972,110.76904300000024,78.46142599999985,116.41015599999992,60.0,119.35888699999941,107.56396500000028,106.6665039999998,138.3334960000002,150.0,116.15380900000036,60.12841800000024,110.12841800000024
244,109.74365200000011,50.0,110.51269500000035,82.82031300000017,113.46142599999985,61.025878999999804,121.9228520000006,106.0258789999998,106.6665039999998,140.38476599999922,153.58984400000008,117.56396500000028,56.410155999999915,105.0
245,121.6665039999998,54.61523400000078,112.30761700000039,87.56396500000028,122.05126999999993,68.20507799999996,132.3076170000004,106.9228520000006,107.94873000000007,150.76904300000024,163.58984400000008,125.51269500000035,62.94873000000007,98.9741210000002
246,131.79492200000004,58.974121000000196,115.51269500000035,90.51269500000035,133.9741210000002,75.0,142.6923829999996,109.23095699999976,108.9741210000002,160.12841800000024,172.94873000000007,133.3334960000002,73.3334960000002,102.56396500000028
247,131.0258789999998,54.87158199999976,114.23095699999976,88.9741210000002,137.17968800000017,74.61523400000078,143.7177729999994,109.74365200000011,107.94873000000007,159.61523400000078,175.38476599999922,132.43603499999972,77.69238299999961,110.0
248,120.12841800000024,41.666503999999804,105.89746099999957,83.3334960000002,126.9228520000006,67.05126999999993,132.56396500000028,107.05126999999993,105.25634799999989,148.84619099999964,172.3076170000004,121.53857400000015,72.43603499999972,109.87158199999976
249,108.7177729999994,26.282227000000603,97.82031300000017,78.20507799999996,109.87158199999976,58.20507799999996,115.76904300000024,103.0771479999994,102.82031300000017,136.0258789999998,169.61523400000078,109.35888699999941,62.30761700000039,105.25634799999989
250,106.41015599999992,17.94873000000007,99.10253900000043,78.3334960000002,97.82031300000017,54.87158199999976,104.35888699999941,101.2822270000006,102.82031300000017,130.76904300000024,171.53857400000015,106.2822270000006,55.25634799999989,106.53857400000015
251,115.76904300000024,21.410155999999915,108.9741210000002,82.82031300000017,99.10253900000043,60.0,105.25634799999989,103.3334960000002,105.12841800000024,136.6665039999998,177.6923829999996,115.89746099999957,56.79492200000004,111.15380900000036
252,131.6665039999998,34.74365200000011,119.35888699999941,86.79492200000004,113.46142599999985,71.6665039999998,118.3334960000002,107.94873000000007,108.3334960000002,149.61523400000078,184.23095699999976,132.3076170000004,67.56396500000028,108.46142599999985
253,145.76904300000024,50.12841800000024,124.23095699999976,87.43603499999972,132.6923829999996,84.10253900000043,135.6411130000006,112.94873000000007,111.2822270000006,161.0258789999998,187.17968800000017,145.38476599999922,83.0771479999994,100.25634799999989
254,151.15380900000036,57.43603499999972,124.23095699999976,85.89746099999957,145.6411130000006,91.0258789999998,147.43603499999972,116.41015599999992,113.0771479999994,163.7177729999994,186.0258789999998,148.84619099999964,94.74365200000011,99.23095699999976
255,146.6665039999998,52.17968800000017,121.2822270000006,83.7177729999994,145.76904300000024,89.48730499999965,148.7177729999994,116.79492200000004,113.20507799999996,157.56396500000028,184.23095699999976,143.46142599999985,96.41015599999992,106.9228520000006
256,137.82031300000017,38.0771479999994,116.0258789999998,81.53857400000015,135.2563479999999,81.9228520000006,141.6665039999998,113.84619099999964,112.17968800000017,149.10253900000043,185.6411130000006,134.87158199999976,87.43603499999972,110.38476599999922
257,130.76904300000024,23.077147999999397,111.2822270000006,80.51269500000035,121.9228520000006,74.10253900000043,132.94873000000007,110.0,111.15380900000036,144.87158199999976,190.0,129.48730499999965,73.46142599999985,105.0
258,127.43603499999972,12.692382999999609,111.41015599999992,82.05126999999993,113.0771479999994,69.48730499999965,128.20507799999996,108.0771479999994,111.0258789999998,145.76904300000024,192.17968800000017,129.3588869999994,60.64111300000059,101.15380900000036
259,126.0258789999998,7.820313000000169,115.89746099999957,85.64111300000059,111.41015599999992,68.58984400000008,127.94873000000007,108.7177729999994,111.2822270000006,148.7177729999994,188.58984400000008,132.56396500000028,53.0771479999994,105.25634799999989
260,125.64111300000059,7.56396500000028,119.48730499999965,87.82031300000017,116.0258789999998,70.0,130.6411130000006,110.0,111.0258789999998,151.6665039999998,182.56396500000028,135.38476599999922,53.589844000000085,108.7177729999994
261,127.69238299999961,11.025878999999804,119.10253900000043,87.30761700000039,124.23095699999976,73.0771479999994,135.12841800000024,110.64111300000059,110.76904300000024,155.38476599999922,181.41015599999992,137.05126999999993,62.30761700000039,104.87158199999976
262,132.6923829999996,16.282227000000603,118.3334960000002,85.89746099999957,132.43603499999972,76.6665039999998,140.38476599999922,111.15380900000036,111.0258789999998,160.6411130000006,188.9741210000002,139.48730499999965,75.25634799999989,101.9228520000006
263,138.3334960000002,18.974121000000196,120.25634799999989,85.76904300000024,137.3076170000004,79.35888699999941,145.2563479999999,112.56396500000028,112.17968800000017,165.6411130000006,200.51269500000035,143.84619099999964,85.64111300000059,107.17968800000017
264,141.15380900000036,16.410155999999915,122.30761700000039,86.15380900000036,137.3076170000004,80.38476599999922,147.82031300000017,113.9741210000002,113.20507799999996,167.43603499999972,207.05126999999993,147.56396500000028,87.69238299999961,112.17968800000017
265,139.7436520000001,9.102539000000434,121.0258789999998,85.76904300000024,132.82031300000017,80.51269500000035,146.0258789999998,114.10253900000043,113.3334960000002,164.48730499999965,203.46142599999985,147.6923829999996,80.51269500000035,107.30761700000039
266,134.3588869999994,-0.512695000000349,117.94873000000007,85.25634799999989,124.48730499999965,79.74365200000011,139.7436520000001,112.94873000000007,112.30761700000039,157.05126999999993,192.3076170000004,143.58984400000008,66.79492200000004,99.87158199999976
267,126.15380900000036,-10.769286999999622,116.2822270000006,85.64111300000059,113.58984400000008,77.56396500000028,130.51269500000035,110.89746099999957,110.38476599999922,147.17968800000017,180.38476599999922,137.05126999999993,51.79492200000004,101.9228520000006
268,117.30761700000039,-20.38452099999995,115.25634799999989,84.35888699999941,103.0771479999994,74.10253900000043,121.79492200000004,108.58984400000008,107.69238299999961,138.7177729999994,173.84619099999964,130.76904300000024,41.025878999999804,109.87158199999976
269,111.0258789999998,-27.564209000000574,112.69238299999961,79.48730499999965,96.9228520000006,71.15380900000036,116.9228520000006,106.79492200000004,105.38476599999922,136.41015599999992,175.2563479999999,127.05126999999993,38.974121000000196,111.2822270000006
270,109.23095699999976,-30.512939000000188,110.51269500000035,72.82031300000017,97.30761700000039,71.6665039999998,117.56396500000028,106.6665039999998,104.74365200000011,141.41015599999992,182.05126999999993,127.05126999999993,44.35888699999941,106.2822270000006
271,110.51269500000035,-29.358886999999868,111.9228520000006,69.35888699999941,102.05126999999993,76.0258789999998,123.3334960000002,108.9741210000002,106.2822270000006,150.6411130000006,189.10253900000043,130.2563479999999,51.79492200000004,105.38476599999922
272,112.82031300000017,-25.89746100000002,115.38476599999922,70.76904300000024,107.05126999999993,82.56396500000028,131.9228520000006,111.9228520000006,109.10253900000043,159.48730499999965,191.0258789999998,134.10253900000043,55.76904300000024,109.35888699999941
273,114.61523400000078,-22.69238299999961,116.9228520000006,74.23095699999976,110.12841800000024,88.7177729999994,139.61523400000078,113.46142599999985,111.79492200000004,165.0,187.17968800000017,135.89746099999957,55.38476599999922,108.20507799999996
274,116.0258789999998,-21.41015600000037,116.41015599999992,77.69238299999961,112.17968800000017,92.94873000000007,143.58984400000008,113.0771479999994,113.46142599999985,166.53857400000015,181.53857400000015,135.51269500000035,53.0771479999994,101.79492200000004
275,117.17968800000017,-22.30761700000039,117.82031300000017,81.53857400000015,114.74365200000011,94.61523400000078,143.58984400000008,112.69238299999961,113.84619099999964,165.89746099999957,178.9741210000002,135.2563479999999,51.410155999999915,101.15380900000036
276,117.94873000000007,-23.846190999999635,121.15380900000036,84.74365200000011,118.7177729999994,93.9741210000002,141.41015599999992,112.82031300000017,113.20507799999996,166.0258789999998,180.89746099999957,135.6411130000006,51.153809000000365,108.0771479999994
277,118.0771479999994,-23.974365000000034,121.6665039999998,85.12841800000024,123.20507799999996,92.69238299999961,138.7177729999994,113.20507799999996,111.6665039999998,169.10253900000043,185.2563479999999,135.2563479999999,52.56396500000028,110.38476599999922
278,118.20507799999996,-22.435790999999426,117.30761700000039,82.69238299999961,126.6665039999998,92.30761700000039,136.2822270000006,113.20507799999996,110.38476599999922,174.3588869999994,189.48730499999965,133.46142599999985,55.12841800000024,102.94873000000007
279,118.84619099999964,-21.28198199999997,113.20507799999996,81.6665039999998,128.3334960000002,93.20507799999996,134.61523400000078,113.58984400000008,110.89746099999957,178.58984400000008,192.94873000000007,132.43603499999972,57.69238299999961,97.82031300000017
280,120.25634799999989,-22.435790999999426,113.7177729999994,84.35888699999941,128.3334960000002,94.87158199999976,135.6411130000006,114.35888699999941,113.58984400000008,179.7436520000001,196.6665039999998,134.48730499999965,59.48730499999965,103.7177729999994
281,123.0771479999994,-24.74365200000011,116.9228520000006,88.3334960000002,128.20507799999996,97.17968800000017,140.2563479999999,115.25634799999989,117.69238299999961,179.10253900000043,201.0258789999998,139.7436520000001,61.53857400000015,111.53857400000015
282,127.17968800000017,-25.641113000000132,119.35888699999941,90.51269500000035,128.7177729999994,99.74365200000011,146.15380900000036,115.76904300000024,121.15380900000036,179.48730499999965,205.12841800000024,145.76904300000024,64.10253900000043,110.0
283,130.12841800000024,-25.38452099999995,121.15380900000036,91.15380900000036,128.9741210000002,101.2822270000006,149.10253900000043,115.51269500000035,121.9228520000006,181.6665039999998,206.79492200000004,149.87158199999976,65.0,104.74365200000011
284,129.10253900000043,-25.89746100000002,123.3334960000002,91.2822270000006,126.53857400000015,100.25634799999989,146.0258789999998,114.61523400000078,119.35888699999941,183.3334960000002,204.61523400000078,149.23095699999976,61.53857400000015,106.2822270000006
285,124.61523400000078,-27.69238299999961,122.94873000000007,88.9741210000002,121.41015599999992,97.05126999999993,138.84619099999964,112.94873000000007,115.51269500000035,183.3334960000002,199.48730499999965,143.9741210000002,55.51269500000035,110.76904300000024
286,121.53857400000015,-28.461425999999847,118.58984400000008,83.84619099999964,117.56396500000028,95.25634799999989,132.94873000000007,111.79492200000004,113.7177729999994,184.10253900000043,195.51269500000035,137.6923829999996,53.46142599999985,108.84619099999964
287,124.48730499999965,-26.41015600000037,115.0,79.48730499999965,118.9741210000002,97.82031300000017,132.82031300000017,112.94873000000007,116.2822270000006,188.3334960000002,196.41015599999992,136.0258789999998,59.102539000000434,104.10253900000043
288,132.43603499999972,-23.205077999999958,117.30761700000039,80.12841800000024,125.12841800000024,103.7177729999994,138.84619099999964,116.2822270000006,121.41015599999992,195.0,201.6665039999998,141.41015599999992,69.61523400000078,107.30761700000039
289,139.87158199999976,-21.923095999999987,123.20507799999996,84.48730499999965,130.76904300000024,109.23095699999976,146.79492200000004,119.23095699999976,124.61523400000078,199.61523400000078,208.0771479999994,149.61523400000078,77.17968800000017,115.12841800000024
290,141.79492200000004,-24.61547900000005,125.64111300000059,87.05126999999993,131.0258789999998,111.0258789999998,151.53857400000015,119.10253900000043,122.43603499999972,197.82031300000017,211.9228520000006,153.7177729999994,76.79492200000004,114.87158199999976
291,136.6665039999998,-32.051270000000386,122.17968800000017,85.89746099999957,125.0,108.46142599999985,149.7436520000001,116.41015599999992,116.41015599999992,190.2563479999999,211.2822270000006,150.51269500000035,69.35888699999941,106.0258789999998
292,127.17968800000017,-42.435790999999426,117.43603499999972,83.58984400000008,117.05126999999993,103.0771479999994,142.82031300000017,113.3334960000002,111.0258789999998,181.2822270000006,207.05126999999993,142.82031300000017,59.61523400000078,101.9228520000006
293,118.7177729999994,-51.79492200000004,114.87158199999976,82.69238299999961,113.20507799999996,98.20507799999996,135.51269500000035,111.79492200000004,109.61523400000078,177.05126999999993,202.56396500000028,135.76904300000024,53.0771479999994,106.53857400000015
294,116.15380900000036,-55.0,113.46142599999985,82.43603499999972,116.9228520000006,96.53857400000015,132.82031300000017,112.05126999999993,112.05126999999993,180.12841800000024,201.53857400000015,132.17968800000017,52.43603499999972,109.35888699999941
295,119.35888699999941,-50.64111300000013,111.9228520000006,81.9228520000006,125.64111300000059,99.10253900000043,135.51269500000035,113.46142599999985,115.76904300000024,187.3076170000004,203.58984400000008,131.79492200000004,55.12841800000024,105.64111300000059
296,123.3334960000002,-43.58984399999963,112.17968800000017,82.05126999999993,132.6923829999996,103.46142599999985,140.51269500000035,115.12841800000024,117.56396500000028,191.15380900000036,204.48730499999965,132.05126999999993,55.76904300000024,104.35888699999941
297,123.58984400000008,-39.8718259999996,114.61523400000078,83.0771479999994,133.9741210000002,107.43603499999972,144.61523400000078,116.0258789999998,116.0258789999998,186.6665039999998,200.38476599999922,130.89746099999957,51.53857400000015,110.51269500000035
298,122.17968800000017,-40.89746100000002,117.05126999999993,83.9741210000002,130.76904300000024,110.51269500000035,147.56396500000028,115.25634799999989,112.69238299999961,177.17968800000017,193.20507799999996,129.48730499999965,46.53857400000015,113.84619099999964
299,124.74365200000011,-43.33325200000036,118.58984400000008,84.61523400000078,127.82031300000017,113.46142599999985,151.0258789999998,113.7177729999994,110.25634799999989,171.53857400000015,189.23095699999976,131.0258789999998,46.9228520000006,107.43603499999972
300,132.6923829999996,-43.846190999999635,121.53857400000015,86.53857400000015,127.30761700000039,115.64111300000059,154.61523400000078,113.3334960000002,111.15380900000036,174.61523400000078,192.82031300000017,137.43603499999972,54.23095699999976,100.64111300000059
301,141.2822270000006,-42.948729999999614,126.0258789999998,88.9741210000002,128.20507799999996,114.87158199999976,155.89746099999957,114.23095699999976,114.48730499999965,183.3334960000002,202.05126999999993,145.89746099999957,62.82031300000017,103.9741210000002
302,144.48730499999965,-42.564209000000574,127.30761700000039,88.0771479999994,129.48730499999965,110.64111300000059,153.0771479999994,115.12841800000024,117.30761700000039,190.76904300000024,210.6411130000006,150.38476599999922,65.64111300000059,111.0258789999998
303,140.51269500000035,-44.10253899999998,121.9228520000006,82.05126999999993,130.89746099999957,105.89746099999957,146.6665039999998,114.61523400000078,117.56396500000028,191.9228520000006,213.3334960000002,147.43603499999972,60.25634799999989,110.38476599999922
304,131.41015599999992,-48.20507799999996,114.10253900000043,75.64111300000059,131.53857400000015,102.94873000000007,140.0,113.3334960000002,115.64111300000059,186.79492200000004,208.20507799999996,138.9741210000002,50.38476599999922,105.51269500000035
305,121.9228520000006,-54.8718259999996,110.64111300000059,75.0,129.48730499999965,102.30761700000039,136.0258789999998,113.0771479999994,113.20507799999996,179.10253900000043,198.3334960000002,130.89746099999957,42.05126999999993,106.53857400000015
306,117.17968800000017,-61.153809000000365,112.43603499999972,79.87158199999976,125.25634799999989,102.94873000000007,135.76904300000024,113.58984400000008,111.9228520000006,173.7177729999994,190.51269500000035,127.69238299999961,40.25634799999989,111.41015599999992
307,120.12841800000024,-62.564209000000574,115.76904300000024,84.74365200000011,123.20507799999996,104.87158199999976,138.3334960000002,114.10253900000043,112.56396500000028,173.7177729999994,190.89746099999957,130.12841800000024,45.51269500000035,109.87158199999976
308,129.48730499999965,-56.66674799999964,118.84619099999964,85.89746099999957,127.17968800000017,108.84619099999964,142.17968800000017,114.61523400000078,115.0,178.58984400000008,201.0258789999998,136.53857400000015,54.61523400000078,103.46142599999985
309,140.2563479999999,-46.66674799999964,122.94873000000007,85.12841800000024,136.2822270000006,113.9741210000002,146.6665039999998,115.51269500000035,118.0771479999994,185.89746099999957,216.0258789999998,144.23095699999976,62.56396500000028,103.46142599999985
310,147.3076170000004,-38.71801800000003,126.53857400000015,84.87158199999976,145.12841800000024,118.46142599999985,151.41015599999992,116.53857400000015,120.76904300000024,193.3334960000002,228.0771479999994,149.87158199999976,67.69238299999961,109.61523400000078
311,148.3334960000002,-37.564209000000574,125.51269500000035,85.12841800000024,147.6923829999996,120.0,154.48730499999965,117.05126999999993,121.6665039999998,199.87158199999976,231.15380900000036,150.51269500000035,71.2822270000006,110.25634799999989
312,143.3334960000002,-43.974365000000034,119.74365200000011,85.25634799999989,142.17968800000017,117.82031300000017,153.46142599999985,117.05126999999993,120.64111300000059,203.46142599999985,225.2563479999999,145.89746099999957,74.61523400000078,103.0771479999994
313,134.3588869999994,-53.71801800000003,114.61523400000078,85.12841800000024,131.6665039999998,112.82031300000017,147.82031300000017,117.05126999999993,118.46142599999985,202.82031300000017,215.6411130000006,138.58984400000008,77.30761700000039,100.51269500000035
314,126.53857400000015,-59.74365200000011,113.58984400000008,84.74365200000011,123.7177729999994,108.46142599999985,141.53857400000015,117.82031300000017,116.9228520000006,199.3588869999994,209.3588869999994,133.20507799999996,79.61523400000078,107.56396500000028
315,126.2822270000006,-55.51293900000019,115.0,83.3334960000002,125.25634799999989,109.48730499999965,141.15380900000036,119.35888699999941,117.56396500000028,198.20507799999996,210.38476599999922,133.20507799999996,84.10253900000043,113.7177729999994
316,136.41015599999992,-40.38452099999995,117.69238299999961,82.56396500000028,137.82031300000017,117.56396500000028,149.87158199999976,121.53857400000015,120.76904300000024,203.20507799999996,217.82031300000017,139.87158199999976,93.7177729999994,111.15380900000036
317,152.05126999999993,-22.435790999999426,122.69238299999961,85.0,154.48730499999965,128.84619099999964,163.84619099999964,124.61523400000078,124.74365200000011,212.56396500000028,227.56396500000028,150.6411130000006,106.15380900000036,107.94873000000007
318,164.87158199999976,-11.794922000000042,129.10253900000043,90.64111300000059,164.48730499999965,136.0258789999998,174.23095699999976,127.30761700000039,126.9228520000006,219.87158199999976,234.7436520000001,160.2563479999999,116.0258789999998,111.79492200000004
319,169.23095699999976,-12.948729999999614,131.53857400000015,94.74365200000011,162.3076170000004,134.87158199999976,174.10253900000043,127.56396500000028,126.15380900000036,220.51269500000035,237.82031300000017,162.94873000000007,119.23095699999976,115.25634799999989
320,167.17968800000017,-21.153809000000365,127.30761700000039,93.58984400000008,151.9228520000006,127.56396500000028,163.9741210000002,124.74365200000011,123.3334960000002,214.48730499999965,238.46142599999985,157.43603499999972,116.53857400000015,110.0
321,164.61523400000078,-27.948729999999614,121.41015599999992,89.61523400000078,141.9228520000006,119.74365200000011,150.89746099999957,120.51269500000035,120.51269500000035,205.89746099999957,238.9741210000002,148.84619099999964,112.43603499999972,102.94873000000007
322,166.15380900000036,-27.30761700000039,120.0,88.20507799999996,138.3334960000002,115.89746099999957,143.20507799999996,117.30761700000039,118.9741210000002,198.46142599999985,239.48730499999965,144.10253900000043,111.0258789999998,105.0
323,173.46142599999985,-19.230713000000378,122.69238299999961,90.38476599999922,141.15380900000036,116.79492200000004,144.61523400000078,116.2822270000006,119.23095699999976,194.7436520000001,238.9741210000002,145.89746099999957,115.89746099999957,111.15380900000036
324,184.7436520000001,-6.666747999999643,125.25634799999989,93.20507799999996,146.53857400000015,120.89746099999957,152.56396500000028,117.30761700000039,121.0258789999998,195.76904300000024,238.20507799999996,152.82031300000017,128.3334960000002,110.0
325,196.79492200000004,5.0,126.6665039999998,94.23095699999976,149.10253900000043,125.64111300000059,161.0258789999998,119.61523400000078,123.84619099999964,200.0,240.12841800000024,161.53857400000015,145.76904300000024,103.46142599999985
326,205.76904300000024,11.282227000000603,128.7177729999994,93.20507799999996,146.53857400000015,128.0771479999994,164.48730499999965,122.17968800000017,125.89746099999957,204.87158199999976,246.0258789999998,168.3334960000002,161.79492200000004,103.46142599999985
327,211.0258789999998,12.051269999999931,130.38476599999922,91.15380900000036,140.38476599999922,126.6665039999998,161.9228520000006,123.20507799999996,126.2822270000006,207.82031300000017,253.0771479999994,171.15380900000036,171.79492200000004,109.87158199999976
328,216.15380900000036,12.051269999999931,128.9741210000002,89.61523400000078,136.15380900000036,123.20507799999996,156.9228520000006,121.53857400000015,125.25634799999989,209.7436520000001,257.17968800000017,170.51269500000035,176.9228520000006,111.0258789999998
329,225.12841800000024,16.282227000000603,126.6665039999998,91.6665039999998,138.7177729999994,121.41015599999992,154.3588869999994,119.10253900000043,124.61523400000078,212.6923829999996,257.3076170000004,170.76904300000024,182.3076170000004,104.74365200000011
330,237.94873000000007,24.871581999999762,128.7177729999994,98.7177729999994,147.56396500000028,122.82031300000017,156.6665039999998,118.58984400000008,125.51269500000035,216.9228520000006,256.6665039999998,175.89746099999957,191.53857400000015,101.79492200000004
331,251.0258789999998,33.589844000000085,135.38476599999922,106.53857400000015,158.3334960000002,127.43603499999972,163.20507799999996,120.89746099999957,127.43603499999972,221.2822270000006,259.10253900000043,185.51269500000035,203.9741210000002,105.89746099999957
332,260.12841800000024,38.7177729999994,140.6411130000006,107.69238299999961,166.6665039999998,133.3334960000002,171.53857400000015,124.35888699999941,128.9741210000002,224.7436520000001,266.0258789999998,195.12841800000024,216.9228520000006,107.94873000000007
333,263.20507799999996,38.46142599999985,140.76904300000024,100.38476599999922,170.0,138.3334960000002,178.3334960000002,126.79492200000004,129.3588869999994,227.17968800000017,274.48730499999965,199.87158199999976,227.17968800000017,104.48730499999965
334,258.9741210000002,31.922852000000603,137.43603499999972,90.51269500000035,167.17968800000017,139.3588869999994,180.0,127.43603499999972,128.3334960000002,227.05126999999993,278.46142599999985,197.3076170000004,230.12841800000024,105.0
335,248.0771479999994,18.333496000000196,132.94873000000007,85.12841800000024,158.0771479999994,133.9741210000002,173.84619099999964,125.89746099999957,125.89746099999957,221.9228520000006,272.05126999999993,187.6923829999996,223.20507799999996,113.7177729999994
336,234.10253900000043,-0.38476599999921746,126.9228520000006,85.38476599999922,145.51269500000035,123.7177729999994,161.2822270000006,122.56396500000028,122.69238299999961,211.15380900000036,255.89746099999957,174.3588869999994,209.23095699999976,119.35888699999941
337,223.46142599999985,-18.846190999999635,120.51269500000035,88.3334960000002,135.12841800000024,113.46142599999985,148.46142599999985,119.10253900000043,121.15380900000036,199.10253900000043,238.9741210000002,163.46142599999985,196.15380900000036,113.3334960000002
338,220.12841800000024,-31.025634999999966,118.46142599999985,91.15380900000036,131.53857400000015,108.84619099999964,143.3334960000002,117.94873000000007,122.30761700000039,191.53857400000015,232.05126999999993,161.15380900000036,190.51269500000035,104.74365200000011
339,222.3076170000004,-35.64111300000013,123.0771479999994,92.56396500000028,135.12841800000024,111.15380900000036,148.3334960000002,119.61523400000078,125.38476599999922,191.53857400000015,239.3588869999994,167.94873000000007,191.6665039999998,105.89746099999957
340,224.7436520000001,-34.61547900000005,129.10253900000043,90.89746099999957,142.82031300000017,118.20507799999996,159.23095699999976,122.30761700000039,128.0771479999994,197.6923829999996,254.48730499999965,177.94873000000007,194.7436520000001,112.17968800000017
341,223.58984400000008,-31.28198199999997,130.76904300000024,86.6665039999998,151.53857400000015,126.2822270000006,168.0771479999994,123.20507799999996,128.7177729999994,205.89746099999957,266.6665039999998,183.7177729999994,194.87158199999976,112.30761700000039
342,218.46142599999985,-29.487060999999812,128.58984400000008,83.46142599999985,158.46142599999985,132.56396500000028,169.61523400000078,122.30761700000039,127.69238299999961,211.2822270000006,268.9741210000002,182.05126999999993,190.2563479999999,108.3334960000002
343,211.2822270000006,-31.794922000000042,127.17968800000017,84.61523400000078,161.9228520000006,135.38476599999922,164.3588869999994,121.15380900000036,126.15380900000036,210.6411130000006,261.15380900000036,174.87158199999976,181.79492200000004,109.74365200000011
344,204.87158199999976,-37.435790999999426,127.17968800000017,87.94873000000007,162.56396500000028,135.2563479999999,157.94873000000007,120.89746099999957,125.12841800000024,205.2563479999999,249.23095699999976,166.6665039999998,172.82031300000017,114.23095699999976
345,201.2822270000006,-42.30761700000039,126.6665039999998,89.23095699999976,163.0771479999994,135.0,156.53857400000015,121.53857400000015,125.38476599999922,200.0,240.2563479999999,162.05126999999993,166.79492200000004,111.9228520000006
346,200.76904300000024,-43.33325200000036,126.0258789999998,88.0771479999994,165.12841800000024,136.2822270000006,161.6665039999998,123.0771479999994,126.79492200000004,198.58984400000008,238.0771479999994,162.82031300000017,164.87158199999976,104.23095699999976
347,200.2563479999999,-41.92309599999999,127.69238299999961,87.56396500000028,166.6665039999998,138.20507799999996,169.61523400000078,125.25634799999989,128.84619099999964,200.6411130000006,240.0,167.3076170000004,164.10253900000043,103.58984400000008
348,197.3076170000004,-42.051270000000386,130.38476599999922,89.10253900000043,164.23095699999976,138.9741210000002,175.0,127.05126999999993,129.7436520000001,203.0771479999994,240.89746099999957,171.2822270000006,160.51269500000035,110.89746099999957
349,192.43603499999972,-45.38452099999995,130.2563479999999,90.51269500000035,158.20507799999996,138.3334960000002,175.38476599999922,126.9228520000006,128.7177729999994,203.9741210000002,237.82031300000017,171.53857400000015,153.58984400000008,113.9741210000002
350,188.0771479999994,-50.89746100000002,127.82031300000017,89.87158199999976,152.3076170000004,137.43603499999972,172.3076170000004,125.51269500000035,126.41015599999992,202.6923829999996,232.6923829999996,168.58984400000008,145.76904300000024,108.20507799999996
351,185.76904300000024,-56.41015600000037,127.43603499999972,88.3334960000002,150.2563479999999,137.3076170000004,170.12841800000024,124.10253900000043,125.51269500000035,199.23095699999976,229.87158199999976,165.89746099999957,140.2563479999999,104.23095699999976
352,185.38476599999922,-60.64111300000013,130.76904300000024,87.17968800000017,152.43603499999972,138.3334960000002,171.79492200000004,123.9741210000002,127.43603499999972,195.51269500000035,232.17968800000017,166.2822270000006,138.46142599999985,107.94873000000007
353,186.2822270000006,-62.17944299999999,133.7177729999994,86.6665039999998,157.56396500000028,140.51269500000035,177.17968800000017,124.74365200000011,131.79492200000004,195.12841800000024,238.7177729999994,169.48730499999965,141.53857400000015,110.64111300000059
354,187.6923829999996,-61.41015600000037,133.84619099999964,86.6665039999998,163.3334960000002,143.58984400000008,182.82031300000017,125.89746099999957,136.2822270000006,199.87158199999976,245.76904300000024,173.3334960000002,148.20507799999996,106.53857400000015
355,187.56396500000028,-60.89746100000002,132.94873000000007,88.58984400000008,166.9228520000006,145.0,183.84619099999964,127.30761700000039,138.20507799999996,206.79492200000004,247.6923829999996,175.2563479999999,153.84619099999964,103.7177729999994
356,183.0771479999994,-63.71801800000003,133.0771479999994,91.79492200000004,166.15380900000036,142.05126999999993,177.82031300000017,128.3334960000002,136.15380900000036,209.3588869999994,241.53857400000015,173.58984400000008,152.43603499999972,109.61523400000078
357,174.7436520000001,-69.74365200000011,132.05126999999993,92.94873000000007,161.9228520000006,135.12841800000024,167.05126999999993,127.17968800000017,130.76904300000024,203.7177729999994,230.38476599999922,167.6923829999996,143.0771479999994,115.51269500000035
358,166.6665039999998,-76.66674799999964,127.94873000000007,90.12841800000024,156.15380900000036,127.05126999999993,157.17968800000017,123.84619099999964,125.0,192.17968800000017,220.76904300000024,159.7436520000001,130.6411130000006,111.6665039999998
359,161.9228520000006,-83.33325200000036,124.10253900000043,86.2822270000006,150.38476599999922,121.6665039999998,153.0771479999994,120.64111300000059,121.6665039999998,181.2822270000006,216.41015599999992,153.46142599999985,121.79492200000004,105.0
360,160.76904300000024,-89.61547900000005,123.9741210000002,84.74365200000011,145.51269500000035,120.12841800000024,155.89746099999957,119.87158199999976,121.9228520000006,176.41015599999992,216.15380900000036,151.6665039999998,119.61523400000078,107.56396500000028
361,161.41015599999992,-94.74365200000011,125.51269500000035,85.0,143.9741210000002,122.69238299999961,163.3334960000002,121.6665039999998,123.9741210000002,179.61523400000078,218.0771479999994,153.58984400000008,122.56396500000028,115.64111300000059
362,162.05126999999993,-96.41015600000037,125.0,84.61523400000078,148.0771479999994,128.7177729999994,171.6665039999998,124.23095699999976,125.89746099999957,189.10253900000043,221.9228520000006,157.3076170000004,126.53857400000015,116.53857400000015
363,161.41015599999992,-94.61547900000005,123.46142599999985,84.10253900000043,156.0258789999998,135.76904300000024,176.79492200000004,126.2822270000006,126.41015599999992,198.7177729999994,227.94873000000007,160.6411130000006,127.30761700000039,109.74365200000011
364,158.58984400000008,-92.69238299999961,125.12841800000024,86.0258789999998,161.53857400000015,140.12841800000024,177.3076170000004,127.30761700000039,125.64111300000059,202.17968800000017,233.9741210000002,162.6923829999996,123.58984400000008,106.15380900000036
365,154.48730499999965,-93.97436500000003,129.10253900000043,90.0,158.84619099999964,139.48730499999965,174.61523400000078,127.05126999999993,124.48730499999965,197.17968800000017,236.41015599999992,162.6923829999996,117.69238299999961,108.20507799999996
366,151.41015599999992,-98.07690400000001,130.2563479999999,92.30761700000039,148.9741210000002,135.0,171.79492200000004,125.64111300000059,123.84619099999964,187.6923829999996,233.46142599999985,160.2563479999999,114.35888699999941,107.69238299999961
367,150.76904300000024,-103.33325200000036,127.05126999999993,90.64111300000059,138.7177729999994,129.7436520000001,170.38476599999922,124.10253900000043,124.35888699999941,180.38476599999922,226.0258789999998,156.41015599999992,115.0,103.9741210000002
368,150.6411130000006,-108.58984399999963,123.46142599999985,87.05126999999993,133.9741210000002,125.64111300000059,169.10253900000043,123.3334960000002,125.25634799999989,177.82031300000017,216.9228520000006,152.3076170000004,115.76904300000024,105.51269500000035
369,149.10253900000043,-113.71801800000003,122.17968800000017,84.35888699999941,135.89746099999957,123.7177729999994,166.53857400000015,123.3334960000002,125.25634799999989,177.94873000000007,208.84619099999964,148.46142599999985,112.56396500000028,112.56396500000028
370,146.79492200000004,-116.53857400000015,121.41015599999992,83.0771479999994,141.79492200000004,124.48730499999965,163.9741210000002,123.0771479999994,124.23095699999976,177.3076170000004,205.12841800000024,145.12841800000024,106.15380900000036,113.58984400000008
371,146.2822270000006,-115.51293900000019,120.12841800000024,83.46142599999985,147.43603499999972,128.20507799999996,163.0771479999994,123.0771479999994,123.46142599999985,175.6411130000006,207.6923829999996,143.7177729999994,101.53857400000015,105.64111300000059
372,148.46142599999985,-111.92309599999999,120.64111300000059,86.2822270000006,150.2563479999999,133.0771479999994,165.12841800000024,124.23095699999976,124.10253900000043,174.87158199999976,216.0258789999998,146.0258789999998,102.82031300000017,101.53857400000015
373,152.43603499999972,-108.20507799999996,123.9741210000002,90.76904300000024,151.15380900000036,136.53857400000015,168.9741210000002,126.53857400000015,126.6665039999998,177.82031300000017,226.6665039999998,152.17968800000017,110.12841800000024,109.10253900000043
374,157.56396500000028,-104.8718259999996,127.30761700000039,93.7177729999994,153.7177729999994,137.6923829999996,173.46142599999985,128.58984400000008,130.2563479999999,185.6411130000006,236.2822270000006,160.76904300000024,121.79492200000004,117.56396500000028
375,164.87158199999976,-100.1281740000004,129.10253900000043,93.9741210000002,160.51269500000035,137.94873000000007,177.05126999999993,129.3588869999994,133.9741210000002,196.9228520000006,242.3076170000004,169.3588869999994,135.6411130000006,115.38476599999922
376,173.58984400000008,-93.20507799999996,131.9228520000006,93.84619099999964,168.3334960000002,138.3334960000002,179.23095699999976,129.48730499999965,136.41015599999992,207.17968800000017,242.6923829999996,176.15380900000036,147.94873000000007,108.20507799999996
377,180.76904300000024,-86.66674799999964,137.3076170000004,96.0258789999998,170.76904300000024,138.46142599999985,179.87158199999976,129.3588869999994,136.9228520000006,211.9228520000006,237.3076170000004,179.61523400000078,155.0,107.43603499999972
378,183.84619099999964,-84.23071300000038,141.9228520000006,98.46142599999985,164.87158199999976,138.20507799999996,179.87158199999976,129.23095699999976,135.51269500000035,209.7436520000001,229.87158199999976,179.10253900000043,155.89746099999957,110.89746099999957
379,182.6923829999996,-87.69238299999961,141.53857400000015,97.69238299999961,154.7436520000001,138.3334960000002,180.51269500000035,128.84619099999964,133.9741210000002,203.7177729999994,226.2822270000006,176.79492200000004,154.10253900000043,110.12841800000024
380,179.3588869999994,-95.64111300000013,138.58984400000008,93.7177729999994,148.3334960000002,140.0,182.3076170000004,128.9741210000002,134.10253900000043,197.56396500000028,230.76904300000024,176.53857400000015,153.0771479999994,107.56396500000028
381,176.6665039999998,-104.23071300000038,137.94873000000007,90.51269500000035,148.7177729999994,141.9228520000006,184.87158199999976,129.7436520000001,135.76904300000024,193.3334960000002,240.6411130000006,179.87158199999976,153.84619099999964,111.6665039999998
382,178.3334960000002,-106.53857400000015,139.87158199999976,90.12841800000024,152.6923829999996,142.56396500000028,187.05126999999993,129.7436520000001,137.17968800000017,190.6411130000006,247.56396500000028,184.7436520000001,156.15380900000036,118.7177729999994
383,187.6923829999996,-96.66674799999964,140.6411130000006,92.82031300000017,154.87158199999976,141.53857400000015,188.0771479999994,128.20507799999996,136.41015599999992,189.7436520000001,245.51269500000035,187.6923829999996,160.0,117.17968800000017
