,EEG.AF3,EEG.F7,EEG.F3,EEG.FC5,EEG.T7,EEG.P7,EEG.O1,EEG.O2,EEG.P8,EEG.T8,EEG.FC6,EEG.F4,EEG.F8,EEG.AF4
0,-35.89746100000002,-80.25634799999989,-27.69238299999961,19.230956999999762,127.30761700000039,97.69238299999961,-1.0258789999998044,-35.25634799999989,-64.61547900000005,572.1796880000002,36.2822270000006,11.282227000000603,-57.69238299999961,-75.1281740000004
1,-43.07690400000001,-84.61547900000005,-27.051270000000386,21.538574000000153,125.89746099999957,99.23095699999976,-6.41015600000037,-41.28198199999997,-71.28198199999997,577.8203130000002,37.43603499999972,8.333496000000196,-61.28198199999997,-80.89746100000002
2,-46.153809000000365,-82.82055700000001,-23.333252000000357,25.384765999999217,122.82031300000017,100.25634799999989,-10.38452099999995,-43.974365000000034,-73.46142599999985,583.4614259999998,36.2822270000006,7.56396500000028,-61.66674799999964,-82.69238299999961
3,-46.41015600000037,-77.69238299999961,-19.10253899999998,27.05126999999993,121.41015599999992,100.64111300000059,-10.641113000000132,-42.30761700000039,-71.53857400000015,587.4360349999997,32.94873000000007,8.589844000000085,-61.025634999999966,-82.69238299999961
4,-46.66674799999964,-74.35888699999987,-17.69238299999961,22.05126999999993,123.0771479999994,100.76904300000024,-9.102538999999979,-38.974365000000034,-70.64111300000013,587.3076170000004,28.717772999999397,9.615234000000783,-62.564209000000574,-85.0
5,-49.61547900000005,-77.43579099999943,-20.769286999999622,9.358886999999413,124.74365200000011,100.89746099999957,-9.743652000000111,-38.46142599999985,-75.64111300000013,581.2822270000006,24.615234000000783,8.333496000000196,-68.07690400000001,-91.53857400000015
6,-55.64111300000013,-86.41015600000037,-27.435790999999426,-8.333252000000357,121.15380900000036,100.89746099999957,-14.358886999999868,-42.948729999999614,-86.79492200000004,571.4101559999999,20.769043000000238,4.358886999999413,-75.89746100000002,-100.51293900000019
7,-61.66674799999964,-96.41015600000037,-34.10253899999998,-24.487060999999812,110.76904300000024,100.76904300000024,-20.769286999999622,-50.76928699999962,-97.43579099999943,562.3076170000004,16.410155999999915,-0.8974609999995664,-81.28198199999997,-107.56420900000057
8,-63.71801800000003,-100.25634799999989,-37.17944299999999,-33.974365000000034,99.61523400000078,100.25634799999989,-24.487060999999812,-57.435790999999426,-100.1281740000004,560.0,10.769043000000238,-4.487060999999812,-80.38452099999995,-108.58984399999963
9,-60.0,-95.1281740000004,-35.25634799999989,-35.51293900000019,95.64111300000059,100.12841800000024,-22.69238299999961,-59.48706099999981,-93.33325200000036,564.6152340000008,5.769043000000238,-4.230713000000378,-73.33325200000036,-103.71801800000003
10,-52.69238299999961,-84.8718259999996,-30.25634799999989,-33.58984399999963,100.0,100.38476599999922,-17.435790999999426,-56.153809000000365,-83.46142599999985,568.3334960000002,5.3847659999992175,-0.512695000000349,-65.51293900000019,-96.15380900000036
11,-45.89746100000002,-76.41015600000037,-25.641113000000132,-33.846190999999635,106.79492200000004,100.64111300000059,-13.333252000000357,-48.71801800000003,-78.20507799999996,561.2822270000006,13.333496000000196,4.743652000000111,-61.41015600000037,-89.61547900000005
12,-41.41015600000037,-71.79492200000004,-23.205077999999958,-36.92309599999999,112.17968800000017,100.38476599999922,-12.948729999999614,-39.48706099999981,-79.10253899999998,545.1284180000002,28.974121000000196,9.743652000000111,-60.25634799999989,-84.35888699999987
13,-39.10253899999998,-67.82055700000001,-23.205077999999958,-38.71801800000003,118.20507799999996,99.74365200000011,-16.666747999999643,-32.69238299999961,-81.79492200000004,534.4873049999997,45.38476599999922,12.43603499999972,-58.07690400000001,-79.48706099999981
14,-41.41015600000037,-64.74365200000011,-26.923095999999987,-38.07690400000001,121.41015599999992,98.58984400000008,-24.61547900000005,-35.38452099999995,-83.58984399999963,539.3588869999994,51.410155999999915,10.384765999999217,-56.153809000000365,-79.10253899999998
15,-53.846190999999635,-72.17944299999999,-36.92309599999999,-41.41015600000037,104.87158199999976,96.53857400000015,-36.79492200000004,-52.30761700000039,-89.35888699999987,547.4360349999997,40.12841800000024,1.4101559999999154,-64.10253899999998,-90.51293900000019
16,-75.25634799999989,-98.84619099999964,-50.76928699999962,-55.0,52.69238299999961,93.0771479999994,-48.20507799999996,-76.15380900000036,-104.35888699999987,532.1796880000002,18.333496000000196,-11.025634999999966,-88.20507799999996,-114.74365200000011
17,-91.92309599999999,-136.02563499999997,-57.17944299999999,-75.1281740000004,-22.564209000000574,89.61523400000078,-46.92309599999999,-85.76928699999962,-122.69238299999961,482.82031300000017,7.56396500000028,-16.538574000000153,-117.94872999999961,-136.53857400000015
18,-84.35888699999987,-156.41015600000037,-42.82055700000001,-85.25634799999989,-74.23071300000038,88.9741210000002,-22.948729999999614,-61.53857400000015,-127.94872999999961,421.4101559999999,28.717772999999397,-3.9741210000001956,-128.33325200000036,-132.0512700000004
19,-46.025634999999966,-136.02563499999997,-6.538574000000153,-68.97436500000003,-55.25634799999989,92.69238299999961,18.077147999999397,-6.666747999999643,-108.71801800000003,387.3076170000004,80.51269500000035,26.538574000000153,-101.79492200000004,-90.76928699999962
20,4.358886999999413,-79.48706099999981,33.46142599999985,-27.435790999999426,33.974121000000196,98.20507799999996,52.56396500000028,47.82031300000017,-74.74365200000011,402.94873000000007,131.6665039999998,59.102539000000434,-48.71801800000003,-32.051270000000386
21,33.846190999999635,-22.179442999999992,50.51269500000035,17.17968800000017,135.2563479999999,101.0258789999998,54.23095699999976,62.17968800000017,-51.79492200000004,454.6152340000008,142.6923829999996,71.0258789999998,-2.6923829999996087,6.282227000000603
22,21.153809000000365,-2.6923829999996087,30.641113000000587,35.51269500000035,171.0258789999998,98.3334960000002,17.94873000000007,21.538574000000153,-60.51293900000019,499.6152340000008,100.12841800000024,52.05126999999993,5.769043000000238,-3.077147999999397
23,-24.8718259999996,-34.48706099999981,-13.333252000000357,13.974121000000196,101.9228520000006,91.79492200000004,-32.69238299999961,-49.23071300000038,-98.20507799999996,493.5898440000001,28.846190999999635,14.102539000000434,-28.461425999999847,-53.07690400000001
24,-69.35888699999987,-93.84619099999964,-48.20507799999996,-33.58984399999963,-38.33325200000036,85.25634799999989,-58.846190999999635,-101.92309599999999,-137.820557,424.6152340000008,-27.69238299999961,-14.487060999999812,-78.71801800000003,-106.15380900000036
25,-76.02563499999997,-133.076904,-44.35888699999987,-72.43579099999943,-156.66674799999964,82.69238299999961,-36.53857400000015,-99.61547900000005,-146.15380900000036,328.20507799999996,-37.30761700000039,-10.641113000000132,-102.17944299999999,-119.61547900000005
26,-34.23071300000038,-112.82055700000001,0.0,-68.58984399999963,-161.53857400000015,84.74365200000011,22.82031300000017,-43.974365000000034,-107.94872999999961,264.23095699999976,5.641113000000587,26.025878999999804,-69.61547900000005,-76.28198199999997
27,31.794922000000042,-35.38452099999995,56.025878999999804,-14.102538999999979,-38.58984399999963,89.61523400000078,77.69238299999961,25.769043000000238,-41.53857400000015,263.7177729999994,78.0771479999994,71.15380900000036,7.56396500000028,0.0
28,79.23095699999976,49.87158199999976,85.76904300000024,64.74365200000011,124.23095699999976,92.82031300000017,88.58984400000008,60.51269500000035,9.487304999999651,296.4101559999999,138.9741210000002,94.10253900000043,79.10253900000043,60.38476599999922
29,81.15380900000036,81.15380900000036,73.84619099999964,123.9741210000002,197.3076170000004,90.89746099999957,53.0771479999994,39.87158199999976,9.102539000000434,296.2822270000006,152.56396500000028,81.9228520000006,94.74365200000011,67.94873000000007
30,49.35888699999941,35.897460999999566,40.0,133.0771479999994,116.9228520000006,83.9741210000002,9.487304999999651,-11.923095999999987,-39.10253899999998,224.3588869999994,112.94873000000007,50.51269500000035,49.23095699999976,29.102539000000434
31,24.74365200000011,-45.25634799999989,23.333496000000196,96.9228520000006,-52.564209000000574,76.6665039999998,5.897460999999566,-45.76928699999962,-89.74365200000011,107.94873000000007,50.25634799999989,31.025878999999804,-10.0,-10.769286999999622
32,42.05126999999993,-88.07690400000001,47.69238299999961,50.38476599999922,-164.35888699999987,75.76904300000024,57.69238299999961,-26.923095999999987,-91.66674799999964,16.410155999999915,8.077147999999397,45.12841800000024,-22.948729999999614,-4.61547900000005
33,98.3334960000002,-44.10253899999998,100.89746099999957,30.128418000000238,-105.25634799999989,84.23095699999976,132.3076170000004,37.69238299999961,-29.230713000000378,1.0258789999998044,5.512695000000349,86.41015599999992,30.0,55.0
34,154.7436520000001,72.94873000000007,143.3334960000002,48.589844000000085,114.35888699999941,98.58984400000008,174.7436520000001,106.9228520000006,63.7177729999994,56.666503999999804,20.128418000000238,125.0,114.48730499999965,130.0
35,170.38476599999922,200.89746099999957,141.41015599999992,92.17968800000017,371.53857400000015,111.53857400000015,152.05126999999993,137.3076170000004,133.20507799999996,133.46142599999985,10.0,131.41015599999992,176.41015599999992,169.48730499999965
36,136.0258789999998,276.9228520000006,95.89746099999957,136.9228520000006,525.2563479999999,117.43603499999972,79.61523400000078,114.74365200000011,147.6923829999996,176.41015599999992,-39.48706099999981,101.15380900000036,187.43603499999972,152.05126999999993
37,80.0,277.17968800000017,40.12841800000024,165.2563479999999,510.2563479999999,115.25634799999989,7.307617000000391,60.76904300000024,118.0771479999994,153.9741210000002,-96.79492200000004,57.30761700000039,159.61523400000078,100.25634799999989
38,41.2822270000006,220.89746099999957,12.051269999999931,172.3076170000004,365.0,108.20507799999996,-20.25634799999989,14.487304999999651,79.87158199999976,65.25634799999989,-112.56420900000057,32.69238299999961,123.3334960000002,57.56396500000028
39,38.974121000000196,147.17968800000017,25.641113000000587,163.20507799999996,188.84619099999964,100.89746099999957,4.871581999999762,4.871581999999762,60.38476599999922,-64.74365200000011,-71.41015600000037,43.20507799999996,97.69238299999961,52.43603499999972
40,61.79492200000004,89.61523400000078,62.82031300000017,147.6923829999996,74.35888699999941,97.05126999999993,54.102539000000434,32.69238299999961,60.0,-192.0512700000004,-14.102538999999979,77.69238299999961,81.15380900000036,78.84619099999964
41,81.0258789999998,63.46142599999985,90.89746099999957,134.48730499999965,58.589844000000085,97.94873000000007,87.43603499999972,73.58984400000008,61.025878999999804,-269.102539,-9.358886999999868,107.82031300000017,62.82031300000017,107.05126999999993
42,76.53857400000015,66.79492200000004,88.9741210000002,128.84619099999964,114.74365200000011,102.82031300000017,85.0,97.17968800000017,49.23095699999976,-267.820557,-96.41015600000037,110.89746099999957,40.38476599999922,109.61523400000078
43,51.79492200000004,88.0771479999994,63.333496000000196,131.15380900000036,180.6411130000006,108.9741210000002,59.23095699999976,90.51269500000035,30.51269500000035,-194.61547900000005,-250.76928699999962,86.6665039999998,24.615234000000783,84.48730499999965
44,29.230956999999762,114.61523400000078,39.102539000000434,138.58984400000008,204.7436520000001,113.7177729999994,41.153809000000365,65.25634799999989,25.769043000000238,-85.64111300000013,-397.3076170000004,55.0,32.43603499999972,54.102539000000434
45,29.102539000000434,138.0771479999994,37.43603499999972,144.7436520000001,178.58984400000008,116.0258789999998,52.17968800000017,45.897460999999566,52.05126999999993,14.230956999999762,-465.0,39.48730499999965,69.35888699999941,44.74365200000011
46,49.74365200000011,150.89746099999957,56.9228520000006,140.6411130000006,128.20507799999996,115.89746099999957,84.74365200000011,46.2822270000006,102.17968800000017,68.46142599999985,-439.4870609999998,47.05126999999993,117.82031300000017,61.79492200000004
47,67.30761700000039,142.6923829999996,74.61523400000078,118.20507799999996,82.05126999999993,113.84619099999964,108.0771479999994,56.53857400000015,143.9741210000002,59.61523400000078,-375.38452099999995,63.20507799999996,142.3076170000004,82.43603499999972
48,56.2822270000006,107.69238299999961,67.43603499999972,75.38476599999922,50.12841800000024,109.35888699999941,94.87158199999976,52.43603499999972,144.10253900000043,-1.7949220000000423,-350.38452099999995,65.89746099999957,117.56396500000028,76.15380900000036
49,13.333496000000196,56.79492200000004,32.05126999999993,23.974121000000196,31.794922000000042,103.20507799999996,45.51269500000035,20.769043000000238,97.82031300000017,-80.76928699999962,-398.58984399999963,45.76904300000024,53.333496000000196,34.48730499999965
50,-38.46142599999985,16.410155999999915,-11.41015600000037,-14.8718259999996,27.43603499999972,98.20507799999996,-13.076904000000013,-27.30761700000039,34.74365200000011,-138.46142599999985,-483.33325200000036,14.102539000000434,-11.666747999999643,-20.512939000000188
51,-69.8718259999996,6.666503999999804,-37.30761700000039,-25.0,33.974121000000196,96.79492200000004,-49.74365200000011,-64.8718259999996,-6.666747999999643,-159.35888699999987,-537.3076170000004,-7.179442999999992,-43.58984399999963,-56.025634999999966
52,-69.48706099999981,23.077147999999397,-34.74365200000011,-8.333252000000357,38.7177729999994,99.35888699999941,-51.66674799999964,-72.94872999999961,-10.0,-157.179443,-528.205078,-5.512939000000188,-39.23071300000038,-57.435790999999426
53,-49.61547900000005,42.94873000000007,-13.58984399999963,16.922852000000603,28.717772999999397,102.69238299999961,-29.8718259999996,-53.71801800000003,10.641113000000587,-151.79492200000004,-484.7436520000001,12.948730000000069,-19.358886999999868,-36.53857400000015
54,-32.435790999999426,48.7177729999994,5.3847659999992175,31.666503999999804,5.512695000000349,104.10253900000043,-6.41015600000037,-27.179442999999992,29.74365200000011,-147.56420900000057,-461.923096,30.384765999999217,-4.871825999999601,-17.179442999999992
55,-31.923095999999987,40.25634799999989,8.333496000000196,28.974121000000196,-17.051270000000386,102.94873000000007,1.5385740000001533,-15.38452099999995,33.846190999999635,-136.79492200000004,-485.38452099999995,32.82031300000017,-2.0512699999999313,-15.769286999999622
56,-46.66674799999964,27.69238299999961,-4.102538999999979,14.871581999999762,-28.205077999999958,101.0258789999998,-8.58984399999963,-26.794922000000042,27.69238299999961,-120.89746100000002,-531.025635,20.51269500000035,-8.461425999999847,-31.666747999999643
57,-65.64111300000013,17.69238299999961,-20.641113000000132,-0.12841800000023795,-32.435790999999426,100.12841800000024,-27.179442999999992,-51.79492200000004,21.922852000000603,-117.43579099999943,-553.205078,5.3847659999992175,-22.564209000000574,-53.33325200000036
58,-77.05127000000039,9.358886999999413,-29.74365200000011,-7.564209000000574,-41.66674799999964,101.41015599999992,-40.89746100000002,-69.74365200000011,19.48730499999965,-142.0512700000004,-530.1281740000004,-0.6411130000005869,-43.846190999999635,-68.33325200000036
59,-75.76928699999962,1.0258789999998044,-27.179442999999992,-3.5898440000000846,-59.74365200000011,103.58984400000008,-41.53857400000015,-66.28198199999997,14.871581999999762,-188.84619099999964,-480.0,6.282227000000603,-67.05127000000039,-71.15380900000036
60,-64.23071300000038,-4.871825999999601,-16.794922000000042,10.128418000000238,-77.82055700000001,104.35888699999941,-29.358886999999868,-43.20507799999996,3.5898440000000846,-230.76928699999962,-439.7436520000001,20.0,-81.92309599999999,-63.58984399999963
61,-50.38452099999995,-3.4614259999998467,-6.666747999999643,27.69238299999961,-84.10253899999998,102.94873000000007,-12.051270000000386,-17.30761700000039,-10.897461000000021,-240.1281740000004,-434.35888699999987,30.51269500000035,-80.89746100000002,-52.17944299999999
62,-41.92309599999999,7.179688000000169,-2.6923829999996087,41.9228520000006,-75.25634799999989,100.51269500000035,1.7949220000000423,-6.281981999999971,-19.358886999999868,-208.46142599999985,-460.1281740000004,31.410155999999915,-64.48706099999981,-44.23071300000038
63,-41.153809000000365,22.69238299999961,-4.871825999999601,48.46142599999985,-58.71801800000003,99.48730499999965,6.794922000000042,-16.025634999999966,-14.743652000000111,-151.41015600000037,-493.84619099999964,24.102539000000434,-40.76928699999962,-42.82055700000001
64,-46.025634999999966,35.51269500000035,-10.641113000000132,47.30761700000039,-43.846190999999635,101.79492200000004,2.6923829999996087,-38.846190999999635,1.6665039999998044,-99.23071300000038,-511.41015600000037,13.974121000000196,-20.512939000000188,-46.92309599999999
65,-53.33325200000036,41.025878999999804,-16.794922000000042,42.30761700000039,-35.25634799999989,107.17968800000017,-7.820557000000008,-60.64111300000013,18.974121000000196,-78.46142599999985,-506.28198199999997,6.410155999999915,-13.333252000000357,-53.974365000000034
66,-59.74365200000011,41.2822270000006,-21.538574000000153,38.974121000000196,-30.25634799999989,113.84619099999964,-18.846190999999635,-70.76928699999962,26.282227000000603,-94.74365200000011,-490.64111300000013,3.717772999999397,-22.30761700000039,-60.51293900000019
67,-62.69238299999961,41.666503999999804,-22.564209000000574,41.666503999999804,-24.358886999999868,118.58984400000008,-24.487060999999812,-67.05127000000039,22.17968800000017,-128.20507799999996,-480.64111300000013,5.769043000000238,-41.41015600000037,-62.82055700000001
68,-60.51293900000019,44.74365200000011,-18.461425999999847,49.74365200000011,-17.69238299999961,119.48730499999965,-21.794922000000042,-55.89746100000002,14.615234000000783,-150.38452099999995,-480.1281740000004,11.153809000000365,-58.20507799999996,-58.46142599999985
69,-54.74365200000011,46.410155999999915,-10.897461000000021,57.56396500000028,-16.666747999999643,116.53857400000015,-14.102538999999979,-47.051270000000386,12.051269999999931,-147.3076170000004,-478.97436500000003,17.43603499999972,-63.46142599999985,-49.10253899999998
70,-49.35888699999987,39.74365200000011,-3.717772999999397,58.20507799999996,-27.820557000000008,110.76904300000024,-8.974365000000034,-46.41015600000037,14.871581999999762,-130.64111300000013,-466.79492200000004,21.538574000000153,-59.10253899999998,-40.64111300000013
71,-48.07690400000001,22.30761700000039,-0.256347999999889,50.0,-49.74365200000011,104.23095699999976,-10.769286999999622,-51.66674799999964,16.153809000000365,-124.35888699999987,-444.8718259999996,22.30761700000039,-55.1281740000004,-38.974365000000034
72,-50.0,1.9228520000006029,0.0,39.23095699999976,-70.64111300000013,99.35888699999941,-15.641113000000132,-53.846190999999635,12.43603499999972,-138.58984399999963,-425.64111300000013,21.538574000000153,-58.20507799999996,-43.974365000000034
73,-50.25634799999989,-7.435790999999426,0.6411130000005869,35.38476599999922,-74.48706099999981,98.3334960000002,-14.8718259999996,-45.51293900000019,9.358886999999413,-157.56420900000057,-420.2563479999999,22.05126999999993,-63.974365000000034,-48.46142599999985
74,-43.71801800000003,4.6152340000007825,5.641113000000587,43.20507799999996,-53.58984399999963,101.2822270000006,-3.4614259999998467,-27.948729999999614,18.461425999999847,-154.35888699999987,-426.53857400000015,25.51269500000035,-60.1281740000004,-44.10253899999998
75,-29.74365200000011,34.23095699999976,14.871581999999762,58.46142599999985,-16.28198199999997,106.41015599999992,13.589844000000085,-9.358886999999868,44.61523400000078,-115.89746100000002,-429.4870609999998,30.897460999999566,-38.33325200000036,-27.948729999999614
76,-13.076904000000013,66.41015599999992,25.0,71.6665039999998,17.56396500000028,110.51269500000035,26.538574000000153,2.3076170000003913,78.0771479999994,-58.20507799999996,-414.102539,36.153809000000365,-3.4614259999998467,-5.38452099999995
77,0.8974609999995664,86.15380900000036,32.69238299999961,76.53857400000015,31.666503999999804,111.53857400000015,29.230956999999762,7.43603499999972,100.51269500000035,-13.461425999999847,-380.38452099999995,39.87158199999976,30.897460999999566,15.256347999999889
78,8.974121000000196,89.10253900000043,37.17968800000017,73.9741210000002,24.230956999999762,108.9741210000002,25.0,11.794922000000042,100.25634799999989,-4.743652000000111,-343.076904,42.43603499999972,52.17968800000017,27.69238299999961
79,11.794922000000042,79.74365200000011,39.23095699999976,69.61523400000078,6.025878999999804,104.35888699999941,22.05126999999993,18.974121000000196,82.17968800000017,-29.487060999999812,-319.102539,45.64111300000059,56.2822270000006,31.153809000000365
80,10.769043000000238,64.74365200000011,40.12841800000024,66.6665039999998,-10.769286999999622,100.12841800000024,25.641113000000587,26.153809000000365,63.589844000000085,-65.51293900000019,-312.9487299999996,49.74365200000011,48.46142599999985,28.717772999999397
81,8.077147999999397,47.30761700000039,40.12841800000024,64.87158199999976,-20.89746100000002,98.20507799999996,34.23095699999976,28.077147999999397,60.51269500000035,-89.23071300000038,-313.46142599999985,54.23095699999976,37.94873000000007,24.74365200000011
82,6.410155999999915,31.153809000000365,40.12841800000024,61.9228520000006,-25.25634799999989,99.23095699999976,41.9228520000006,23.717772999999397,76.0258789999998,-89.48706099999981,-305.7692869999996,58.0771479999994,33.333496000000196,23.461425999999847
83,7.692382999999609,21.538574000000153,40.897460999999566,56.9228520000006,-25.38452099999995,101.41015599999992,43.7177729999994,17.30761700000039,99.87158199999976,-70.76928699999962,-286.66674799999964,59.87158199999976,37.05126999999993,26.410155999999915
84,10.256347999999889,21.538574000000153,41.666503999999804,49.48730499999965,-21.28198199999997,102.82031300000017,38.46142599999985,13.205077999999958,114.87158199999976,-47.82055700000001,-267.179443,58.20507799999996,44.102539000000434,30.384765999999217
85,9.743652000000111,29.102539000000434,40.51269500000035,40.76904300000024,-14.487060999999812,102.56396500000028,28.077147999999397,11.794922000000042,108.9741210000002,-35.1281740000004,-260.5129390000002,52.56396500000028,45.51269500000035,29.48730499999965
86,4.102539000000434,37.17968800000017,36.2822270000006,33.46142599999985,-8.461425999999847,101.53857400000015,16.922852000000603,10.256347999999889,84.23095699999976,-37.69238299999961,-268.58984399999963,45.0,36.53857400000015,21.666503999999804
87,-3.846190999999635,39.35888699999941,30.51269500000035,30.25634799999989,-7.179442999999992,101.2822270000006,9.487304999999651,7.051269999999931,55.897460999999566,-49.74365200000011,-280.5129390000002,39.61523400000078,21.922852000000603,11.282227000000603
88,-7.692382999999609,34.102539000000434,26.794922000000042,32.05126999999993,-11.666747999999643,102.30761700000039,8.846190999999635,3.846190999999635,41.666503999999804,-61.153809000000365,-282.6923829999996,40.0,11.282227000000603,5.769043000000238
89,-2.6923829999996087,25.769043000000238,28.846190999999635,38.974121000000196,-16.538574000000153,103.9741210000002,15.769043000000238,5.0,49.48730499999965,-66.02563499999997,-270.2563479999999,47.05126999999993,12.43603499999972,10.256347999999889
90,11.282227000000603,22.43603499999972,38.20507799999996,50.64111300000059,-13.58984399999963,105.38476599999922,29.615234000000783,14.743652000000111,74.87158199999976,-63.46142599999985,-248.58984399999963,59.102539000000434,27.43603499999972,24.871581999999762
91,29.48730499999965,29.358886999999413,53.20507799999996,66.15380900000036,1.7949220000000423,105.64111300000059,48.46142599999985,32.94873000000007,106.79492200000004,-53.846190999999635,-227.56420900000057,72.05126999999993,52.43603499999972,45.0
92,45.12841800000024,44.87158199999976,67.69238299999961,81.2822270000006,23.589844000000085,105.0,67.30761700000039,53.589844000000085,132.43603499999972,-37.948729999999614,-214.10253899999998,80.89746099999957,77.82031300000017,62.94873000000007
93,51.025878999999804,59.35888699999941,74.61523400000078,89.35888699999941,38.7177729999994,103.9741210000002,78.7177729999994,66.53857400000015,140.6411130000006,-19.74365200000011,-210.0,81.9228520000006,91.2822270000006,71.2822270000006
94,43.846190999999635,62.56396500000028,69.74365200000011,85.38476599999922,36.666503999999804,103.0771479999994,76.53857400000015,63.974121000000196,126.53857400000015,-6.794922000000042,-212.820557,75.0,84.61523400000078,65.51269500000035
95,27.05126999999993,51.9228520000006,56.025878999999804,71.79492200000004,19.230956999999762,102.69238299999961,61.666503999999804,45.76904300000024,97.05126999999993,-5.256347999999889,-217.56420900000057,64.35888699999941,60.25634799999989,48.333496000000196
96,11.282227000000603,35.25634799999989,42.43603499999972,57.69238299999961,-0.256347999999889,103.3334960000002,43.7177729999994,21.794922000000042,70.51269500000035,-14.358886999999868,-218.33325200000036,56.410155999999915,33.333496000000196,29.74365200000011
97,7.051269999999931,25.128418000000238,38.7177729999994,52.82031300000017,-6.025634999999966,104.35888699999941,35.0,5.769043000000238,64.87158199999976,-27.948729999999614,-212.43579099999943,55.64111300000059,20.384765999999217,21.410155999999915
98,18.077147999999397,28.717772999999397,47.69238299999961,60.64111300000059,7.56396500000028,104.61523400000078,42.05126999999993,6.282227000000603,83.20507799999996,-38.974365000000034,-201.66674799999964,62.05126999999993,28.461425999999847,28.589844000000085
99,37.30761700000039,42.05126999999993,63.7177729999994,75.64111300000059,31.410155999999915,103.58984400000008,60.0,21.282227000000603,111.2822270000006,-43.846190999999635,-191.53857400000015,71.2822270000006,48.974121000000196,45.64111300000059
100,52.30761700000039,54.74365200000011,76.0258789999998,87.17968800000017,48.7177729999994,102.05126999999993,76.15380900000036,40.38476599999922,128.46142599999985,-42.435790999999426,-186.15380900000036,77.43603499999972,65.38476599999922,61.153809000000365
101,55.0,59.102539000000434,78.20507799999996,87.94873000000007,48.0771479999994,101.79492200000004,80.0,52.43603499999972,125.12841800000024,-36.66674799999964,-185.0,77.17968800000017,66.41015599999992,66.41015599999992
102,47.43603499999972,57.56396500000028,71.79492200000004,80.12841800000024,32.82031300000017,104.23095699999976,71.15380900000036,53.333496000000196,108.9741210000002,-27.30761700000039,-183.71801800000003,71.9228520000006,55.64111300000059,62.17968800000017
103,40.76904300000024,58.974121000000196,65.64111300000059,74.61523400000078,18.077147999999397,108.9741210000002,60.0,48.7177729999994,97.43603499999972,-13.58984399999963,-176.66674799999964,67.30761700000039,49.23095699999976,57.69238299999961
104,46.025878999999804,69.10253900000043,68.58984400000008,81.2822270000006,17.94873000000007,114.10253900000043,58.974121000000196,49.35888699999941,103.3334960000002,3.4614259999998467,-161.79492200000004,69.10253900000043,60.76904300000024,62.43603499999972
105,64.48730499999965,85.12841800000024,82.05126999999993,99.48730499999965,33.974121000000196,117.43603499999972,72.56396500000028,61.9228520000006,126.6665039999998,20.384765999999217,-141.923096,78.58984400000008,89.87158199999976,78.3334960000002
106,86.9228520000006,98.20507799999996,98.7177729999994,117.69238299999961,55.25634799999989,117.69238299999961,93.3334960000002,83.20507799999996,156.79492200000004,32.69238299999961,-123.58984399999963,91.2822270000006,121.6665039999998,98.3334960000002
107,101.15380900000036,101.53857400000015,108.3334960000002,123.58984400000008,69.10253900000043,115.51269500000035,108.46142599999985,102.43603499999972,180.38476599999922,37.82031300000017,-112.69238299999961,100.12841800000024,138.3334960000002,111.6665039999998
108,101.2822270000006,96.2822270000006,106.53857400000015,115.64111300000059,72.05126999999993,113.20507799999996,110.38476599999922,111.0258789999998,190.76904300000024,38.20507799999996,-108.33325200000036,101.53857400000015,134.10253900000043,113.0771479999994
109,93.84619099999964,92.30761700000039,99.35888699999941,106.15380900000036,72.56396500000028,113.46142599999985,103.0771479999994,110.76904300000024,191.0258789999998,40.12841800000024,-103.33325200000036,98.0771479999994,119.10253900000043,107.82031300000017
110,90.89746099999957,100.0,97.17968800000017,110.25634799999989,81.2822270000006,116.41015599999992,98.7177729999994,111.6665039999998,189.3588869999994,49.35888699999941,-91.41015600000037,96.41015599999992,111.2822270000006,106.15380900000036
111,98.7177729999994,119.61523400000078,105.0,130.51269500000035,98.58984400000008,119.74365200000011,105.0,121.79492200000004,190.0,63.589844000000085,-75.25634799999989,99.87158199999976,119.61523400000078,113.84619099999964
112,111.6665039999998,138.9741210000002,117.05126999999993,153.7177729999994,112.94873000000007,120.25634799999989,118.7177729999994,138.58984400000008,190.76904300000024,72.82031300000017,-64.74365200000011,106.15380900000036,136.53857400000015,125.12841800000024
113,117.56396500000028,142.6923829999996,122.56396500000028,161.9228520000006,110.51269500000035,116.41015599999992,128.9741210000002,150.38476599999922,187.43603499999972,67.56396500000028,-67.05127000000039,109.10253900000043,146.0258789999998,129.23095699999976
114,108.7177729999994,125.25634799999989,115.38476599999922,147.17968800000017,87.94873000000007,109.10253900000043,126.53857400000015,146.53857400000015,180.12841800000024,48.46142599999985,-80.0,104.48730499999965,138.0771479999994,120.0
115,89.10253900000043,95.12841800000024,98.9741210000002,117.56396500000028,56.2822270000006,101.6665039999998,112.43603499999972,127.30761700000039,174.23095699999976,27.94873000000007,-94.74365200000011,93.84619099999964,118.0771479999994,100.89746099999957
116,71.2822270000006,69.48730499999965,83.3334960000002,90.38476599999922,34.102539000000434,97.30761700000039,96.53857400000015,104.48730499999965,173.7177729999994,20.641113000000587,-102.56420900000057,83.58984400000008,100.0,82.94873000000007
117,65.89746099999957,61.79492200000004,78.46142599999985,80.0,34.102539000000434,97.69238299999961,89.61523400000078,92.30761700000039,176.41015599999992,31.794922000000042,-100.0,80.12841800000024,95.38476599999922,75.76904300000024
118,74.74365200000011,73.20507799999996,87.05126999999993,89.35888699999941,54.74365200000011,102.17968800000017,95.51269500000035,96.9228520000006,177.05126999999993,54.102539000000434,-88.20507799999996,85.64111300000059,105.89746099999957,82.30761700000039
119,91.2822270000006,94.48730499999965,103.58984400000008,110.38476599999922,82.43603499999972,108.7177729999994,109.74365200000011,112.94873000000007,173.84619099999964,73.84619099999964,-71.02563499999997,96.53857400000015,123.7177729999994,98.3334960000002
120,106.41015599999992,112.43603499999972,118.3334960000002,129.87158199999976,102.05126999999993,114.23095699999976,123.58984400000008,128.3334960000002,170.89746099999957,80.64111300000059,-53.07690400000001,106.6665039999998,138.46142599999985,114.74365200000011
121,113.46142599999985,118.58984400000008,124.35888699999941,138.0771479999994,106.0258789999998,116.9228520000006,130.12841800000024,133.46142599999985,171.9228520000006,73.84619099999964,-39.48706099999981,110.64111300000059,143.20507799999996,123.3334960000002
122,111.41015599999992,113.0771479999994,121.0258789999998,133.84619099999964,97.56396500000028,116.53857400000015,127.69238299999961,126.53857400000015,176.53857400000015,60.64111300000059,-34.10253899999998,107.56396500000028,137.82031300000017,121.41015599999992
123,104.23095699999976,102.43603499999972,113.20507799999996,123.0771479999994,86.15380900000036,114.61523400000078,120.0,114.23095699999976,180.2563479999999,50.25634799999989,-36.79492200000004,100.76904300000024,127.43603499999972,111.79492200000004
124,97.56396500000028,94.48730499999965,107.43603499999972,113.7177729999994,80.12841800000024,113.0771479999994,113.20507799999996,106.2822270000006,180.2563479999999,46.79492200000004,-42.564209000000574,95.38476599999922,118.20507799999996,101.41015599999992
125,95.89746099999957,93.58984400000008,107.17968800000017,110.64111300000059,81.41015599999992,113.20507799999996,112.17968800000017,107.30761700000039,177.94873000000007,48.46142599999985,-44.74365200000011,95.0,113.84619099999964,96.41015599999992
126,100.25634799999989,99.10253900000043,111.41015599999992,114.23095699999976,86.9228520000006,113.9741210000002,117.43603499999972,115.25634799999989,176.0258789999998,51.410155999999915,-39.23071300000038,99.23095699999976,115.0,99.48730499999965
127,107.82031300000017,106.41015599999992,116.6665039999998,122.05126999999993,92.05126999999993,114.48730499999965,125.0,123.20507799999996,176.0258789999998,53.20507799999996,-27.69238299999961,105.0,120.38476599999922,108.46142599999985
128,114.10253900000043,111.0258789999998,119.74365200000011,130.2563479999999,94.23095699999976,114.48730499999965,130.2563479999999,126.41015599999992,176.79492200000004,53.589844000000085,-15.0,109.10253900000043,126.9228520000006,118.0771479999994
129,116.0258789999998,110.64111300000059,120.0,135.38476599999922,93.3334960000002,114.74365200000011,130.6411130000006,125.12841800000024,176.79492200000004,53.0771479999994,-6.025634999999966,109.74365200000011,131.53857400000015,123.3334960000002
130,113.3334960000002,106.6665039999998,118.3334960000002,135.38476599999922,90.0,115.12841800000024,126.53857400000015,122.17968800000017,174.7436520000001,51.025878999999804,-2.8203119999998307,107.56396500000028,130.76904300000024,121.79492200000004
131,107.56396500000028,101.2822270000006,115.51269500000035,130.51269500000035,83.84619099999964,115.38476599999922,120.38476599999922,119.35888699999941,169.87158199999976,46.2822270000006,-5.256347999999889,103.7177729999994,123.3334960000002,114.48730499999965
132,101.2822270000006,95.76904300000024,111.41015599999992,122.82031300000017,74.61523400000078,114.61523400000078,114.23095699999976,115.76904300000024,162.6923829999996,37.82031300000017,-10.769286999999622,99.74365200000011,111.15380900000036,104.61523400000078
133,97.30761700000039,91.41015599999992,107.30761700000039,116.41015599999992,64.48730499999965,112.69238299999961,109.61523400000078,110.76904300000024,155.38476599999922,28.333496000000196,-14.8718259999996,97.69238299999961,100.12841800000024,97.30761700000039
134,99.87158199999976,91.6665039999998,106.2822270000006,116.53857400000015,58.846190999999635,110.38476599999922,108.84619099999964,106.79492200000004,152.43603499999972,23.846190999999635,-12.051270000000386,98.84619099999964,97.82031300000017,97.82031300000017
135,111.79492200000004,101.0258789999998,112.82031300000017,127.69238299999961,63.46142599999985,109.48730499999965,115.0,109.35888699999941,158.7177729999994,31.794922000000042,1.6665039999998044,104.48730499999965,108.3334960000002,109.61523400000078
136,132.94873000000007,122.17968800000017,128.58984400000008,151.2822270000006,81.53857400000015,111.2822270000006,128.84619099999964,123.0771479999994,174.87158199999976,55.0,26.025878999999804,114.48730499999965,130.6411130000006,131.9228520000006
137,158.3334960000002,151.53857400000015,149.7436520000001,182.43603499999972,110.12841800000024,115.89746099999957,147.56396500000028,146.15380900000036,196.41015599999992,87.30761700000039,56.410155999999915,127.17968800000017,158.0771479999994,159.7436520000001
138,180.2563479999999,179.61523400000078,168.58984400000008,210.89746099999957,138.9741210000002,121.0258789999998,165.38476599999922,170.12841800000024,215.6411130000006,115.76904300000024,84.87158199999976,138.9741210000002,182.05126999999993,185.12841800000024
139,191.79492200000004,196.53857400000015,178.58984400000008,226.6665039999998,155.38476599999922,123.46142599999985,177.43603499999972,184.87158199999976,226.15380900000036,128.84619099999964,104.48730499999965,146.9228520000006,196.0258789999998,200.51269500000035
140,191.79492200000004,198.46142599999985,178.0771479999994,226.6665039999998,152.94873000000007,121.53857400000015,181.9228520000006,185.38476599999922,226.15380900000036,125.0,113.7177729999994,149.7436520000001,198.7177729999994,203.20507799999996
141,184.87158199999976,190.38476599999922,171.53857400000015,217.05126999999993,136.53857400000015,117.56396500000028,180.76904300000024,175.51269500000035,218.46142599999985,111.9228520000006,117.43603499999972,148.3334960000002,194.10253900000043,196.6665039999998
142,178.7177729999994,182.43603499999972,166.0258789999998,209.23095699999976,121.15380900000036,115.38476599999922,177.6923829999996,165.51269500000035,209.10253900000043,101.41015599999992,124.48730499999965,145.76904300000024,189.10253900000043,188.9741210000002
143,179.7436520000001,182.56396500000028,166.6665039999998,211.9228520000006,121.9228520000006,117.17968800000017,176.2822270000006,164.87158199999976,204.10253900000043,101.6665039999998,141.15380900000036,145.6411130000006,189.10253900000043,187.82031300000017
144,188.84619099999964,191.6665039999998,173.46142599999985,225.0,143.0771479999994,122.17968800000017,177.94873000000007,175.12841800000024,205.89746099999957,113.20507799999996,166.79492200000004,149.48730499999965,195.38476599999922,194.87158199999976
145,200.89746099999957,204.23095699999976,182.17968800000017,240.6411130000006,174.61523400000078,126.79492200000004,181.79492200000004,189.10253900000043,211.15380900000036,129.61523400000078,194.3588869999994,155.12841800000024,205.2563479999999,206.15380900000036
146,209.10253900000043,213.58984400000008,188.3334960000002,250.12841800000024,198.7177729999994,127.56396500000028,186.41015599999992,198.0771479999994,214.3588869999994,142.3076170000004,216.2822270000006,159.23095699999976,214.61523400000078,215.51269500000035
147,210.12841800000024,216.6665039999998,189.7436520000001,249.87158199999976,203.9741210000002,124.23095699999976,190.76904300000024,199.87158199999976,212.17968800000017,147.3076170000004,229.61523400000078,160.0,220.38476599999922,218.9741210000002
148,205.12841800000024,214.61523400000078,187.56396500000028,242.94873000000007,192.6923829999996,119.23095699999976,194.3588869999994,198.3334960000002,207.17968800000017,147.6923829999996,236.0258789999998,157.94873000000007,221.6665039999998,215.89746099999957
149,197.17968800000017,210.0,182.82031300000017,234.61523400000078,177.17968800000017,115.89746099999957,195.38476599999922,198.20507799999996,203.46142599999985,148.20507799999996,237.6923829999996,154.48730499999965,218.7177729999994,208.3334960000002
150,188.20507799999996,203.20507799999996,175.6411130000006,228.46142599999985,166.6665039999998,115.76904300000024,192.05126999999993,199.10253900000043,201.9228520000006,148.9741210000002,235.51269500000035,150.0,211.79492200000004,198.3334960000002
151,179.10253900000043,193.3334960000002,166.41015599999992,224.87158199999976,159.48730499999965,117.43603499999972,184.48730499999965,197.56396500000028,199.3588869999994,144.7436520000001,231.15380900000036,144.61523400000078,202.56396500000028,188.3334960000002
152,172.43603499999972,180.76904300000024,158.46142599999985,223.84619099999964,148.46142599999985,118.84619099999964,176.53857400000015,191.79492200000004,193.3334960000002,131.2822270000006,229.3588869999994,140.12841800000024,194.61523400000078,181.6665039999998
153,171.79492200000004,170.0,155.76904300000024,225.6411130000006,132.17968800000017,118.46142599999985,174.23095699999976,184.48730499999965,185.12841800000024,111.41015599999992,235.6411130000006,138.9741210000002,192.05126999999993,181.6665039999998
154,179.10253900000043,167.3076170000004,160.2563479999999,230.6411130000006,119.87158199999976,116.79492200000004,179.87158199999976,181.6665039999998,178.7177729999994,95.25634799999989,251.6665039999998,142.3076170000004,197.17968800000017,189.61523400000078
155,192.6923829999996,175.76904300000024,169.23095699999976,237.17968800000017,124.35888699999941,115.25634799999989,190.2563479999999,187.17968800000017,177.94873000000007,93.3334960000002,271.9228520000006,148.3334960000002,208.7177729999994,203.20507799999996
156,207.43603499999972,193.46142599999985,177.43603499999972,242.6923829999996,149.7436520000001,115.38476599999922,198.3334960000002,199.87158199999976,183.0771479999994,108.58984400000008,287.05126999999993,154.10253900000043,224.10253900000043,218.20507799999996
157,217.82031300000017,213.58984400000008,181.0258789999998,245.2563479999999,185.51269500000035,117.17968800000017,199.7436520000001,213.58984400000008,190.76904300000024,133.9741210000002,290.6411130000006,156.9228520000006,239.3588869999994,230.0
158,220.6411130000006,227.6923829999996,180.2563479999999,243.84619099999964,211.53857400000015,119.35888699999941,194.3588869999994,220.89746099999957,195.6411130000006,156.41015599999992,282.6923829999996,156.0258789999998,249.61523400000078,235.2563479999999
159,215.6411130000006,229.3588869999994,177.56396500000028,238.3334960000002,212.43603499999972,120.38476599999922,186.0258789999998,217.56396500000028,193.0771479999994,164.48730499999965,269.87158199999976,152.82031300000017,250.38476599999922,232.82031300000017
160,206.0258789999998,218.46142599999985,175.38476599999922,229.61523400000078,189.3588869999994,119.74365200000011,178.9741210000002,205.76904300000024,182.56396500000028,155.6411130000006,260.76904300000024,150.12841800000024,241.41015599999992,225.12841800000024
161,196.9228520000006,201.6665039999998,174.61523400000078,221.41015599999992,158.7177729999994,118.0771479999994,174.87158199999976,192.43603499999972,168.84619099999964,136.41015599999992,261.15380900000036,150.0,227.43603499999972,216.6665039999998
162,193.20507799999996,188.20507799999996,175.76904300000024,218.0771479999994,138.7177729999994,116.6665039999998,174.10253900000043,184.87158199999976,158.84619099999964,117.82031300000017,270.12841800000024,152.56396500000028,216.0258789999998,212.17968800000017
163,196.9228520000006,184.61523400000078,179.48730499999965,222.3076170000004,136.15380900000036,115.89746099999957,176.9228520000006,186.6665039999998,157.3076170000004,108.9741210000002,282.82031300000017,156.79492200000004,213.20507799999996,213.9741210000002
164,206.0258789999998,191.41015599999992,185.89746099999957,231.6665039999998,144.10253900000043,115.76904300000024,183.3334960000002,195.6411130000006,162.3076170000004,111.15380900000036,293.3334960000002,161.41015599999992,219.10253900000043,221.15380900000036
165,215.51269500000035,202.6923829999996,193.20507799999996,240.2563479999999,151.6665039999998,115.89746099999957,191.53857400000015,205.51269500000035,167.3076170000004,118.0771479999994,299.23095699999976,165.2563479999999,228.84619099999964,230.12841800000024
166,220.38476599999922,211.0258789999998,198.0771479999994,242.82031300000017,153.20507799999996,115.89746099999957,197.94873000000007,210.38476599999922,166.41015599999992,121.53857400000015,301.53857400000015,167.3076170000004,235.0,236.53857400000015
167,219.10253900000043,211.6665039999998,197.56396500000028,238.7177729999994,151.15380900000036,115.89746099999957,199.3588869999994,208.46142599999985,159.10253900000043,117.30761700000039,302.05126999999993,166.9228520000006,233.58984400000008,237.17968800000017
168,213.84619099999964,206.41015599999992,192.05126999999993,231.41015599999992,150.6411130000006,115.76904300000024,195.38476599999922,202.43603499999972,149.23095699999976,107.94873000000007,301.15380900000036,163.7177729999994,226.9228520000006,231.9228520000006
169,208.84619099999964,201.41015599999992,185.0,224.87158199999976,153.20507799999996,116.15380900000036,189.10253900000043,196.53857400000015,142.56396500000028,99.74365200000011,298.3334960000002,158.3334960000002,220.89746099999957,224.3588869999994
170,206.79492200000004,201.15380900000036,180.2563479999999,220.76904300000024,156.0258789999998,116.79492200000004,183.7177729999994,193.0771479999994,141.9228520000006,97.43603499999972,293.46142599999985,152.43603499999972,220.2563479999999,218.58984400000008
171,207.43603499999972,206.0258789999998,179.23095699999976,218.20507799999996,155.6411130000006,117.43603499999972,180.89746099999957,191.6665039999998,145.6411130000006,100.76904300000024,288.20507799999996,148.46142599999985,223.84619099999964,216.79492200000004
172,208.20507799999996,211.41015599999992,180.76904300000024,215.12841800000024,152.94873000000007,117.17968800000017,180.12841800000024,189.87158199999976,149.7436520000001,106.53857400000015,285.0,147.56396500000028,226.9228520000006,217.43603499999972
173,207.17968800000017,213.0771479999994,182.05126999999993,211.2822270000006,152.94873000000007,116.41015599999992,180.2563479999999,186.0258789999998,150.89746099999957,110.89746099999957,285.3847659999992,148.84619099999964,226.15380900000036,218.20507799999996
174,204.7436520000001,210.51269500000035,181.9228520000006,207.94873000000007,158.58984400000008,115.38476599999922,181.0258789999998,181.9228520000006,149.48730499999965,112.43603499999972,289.10253900000043,151.0258789999998,223.3334960000002,218.3334960000002
175,203.20507799999996,207.56396500000028,181.15380900000036,206.9228520000006,167.3076170000004,115.0,182.56396500000028,181.6665039999998,148.7177729999994,112.56396500000028,294.10253900000043,152.6923829999996,222.6923829999996,218.84619099999964
176,204.23095699999976,207.43603499999972,181.6665039999998,208.0771479999994,172.3076170000004,115.51269500000035,184.87158199999976,186.9228520000006,151.53857400000015,113.0771479999994,297.4360349999997,152.94873000000007,226.79492200000004,220.12841800000024
177,206.41015599999992,210.6411130000006,183.46142599999985,209.23095699999976,168.9741210000002,116.41015599999992,187.05126999999993,194.7436520000001,157.17968800000017,114.23095699999976,296.6665039999998,151.9228520000006,232.56396500000028,221.53857400000015
178,208.0771479999994,215.2563479999999,185.0,207.3076170000004,159.3588869999994,117.30761700000039,187.43603499999972,199.7436520000001,161.6665039999998,114.10253900000043,292.5639650000003,150.12841800000024,235.38476599999922,221.9228520000006
179,208.0771479999994,218.7177729999994,184.48730499999965,200.89746099999957,149.87158199999976,117.43603499999972,184.87158199999976,198.7177729999994,161.41015599999992,111.0258789999998,288.84619099999964,148.3334960000002,233.0771479999994,221.15380900000036
180,207.56396500000028,219.87158199999976,181.9228520000006,192.56396500000028,146.0258789999998,116.6665039999998,179.87158199999976,193.0771479999994,156.15380900000036,105.12841800000024,288.84619099999964,147.43603499999972,228.20507799999996,219.7436520000001
181,207.56396500000028,217.6923829999996,179.23095699999976,188.0771479999994,147.82031300000017,115.38476599999922,175.2563479999999,187.6923829999996,149.48730499999965,99.87158199999976,292.17968800000017,148.0771479999994,224.7436520000001,218.84619099999964
182,207.6923829999996,212.3076170000004,178.3334960000002,190.51269500000035,151.0258789999998,114.23095699999976,174.23095699999976,186.79492200000004,145.51269500000035,98.20507799999996,294.87158199999976,149.87158199999976,224.3588869999994,218.58984400000008
183,206.2822270000006,205.2563479999999,179.3588869999994,197.94873000000007,150.38476599999922,113.84619099999964,177.82031300000017,190.12841800000024,145.6411130000006,100.0,292.94873000000007,151.2822270000006,224.61523400000078,218.7177729999994
184,202.43603499999972,198.9741210000002,180.89746099999957,204.48730499999965,145.51269500000035,114.48730499999965,183.46142599999985,193.9741210000002,147.43603499999972,101.9228520000006,286.9228520000006,150.89746099999957,222.05126999999993,218.20507799999996
185,197.43603499999972,196.79492200000004,181.2822270000006,206.6665039999998,140.51269500000035,115.76904300000024,187.17968800000017,195.0,148.46142599999985,101.6665039999998,281.2822270000006,148.84619099999964,215.89746099999957,216.9228520000006
186,194.48730499999965,200.51269500000035,180.89746099999957,204.87158199999976,141.0258789999998,117.30761700000039,186.79492200000004,192.94873000000007,148.9741210000002,100.76904300000024,281.4101559999999,147.6923829999996,210.2563479999999,215.76904300000024
187,195.38476599999922,208.7177729999994,181.15380900000036,201.53857400000015,147.82031300000017,118.46142599999985,183.58984400000008,190.12841800000024,150.6411130000006,102.56396500000028,287.82031300000017,149.48730499999965,209.7436520000001,215.38476599999922
188,198.0771479999994,215.89746099999957,182.3076170000004,197.82031300000017,155.0,118.58984400000008,180.2563479999999,187.56396500000028,153.0771479999994,107.56396500000028,295.12841800000024,153.46142599999985,214.48730499999965,215.6411130000006
189,199.10253900000043,216.15380900000036,182.6923829999996,193.84619099999964,154.61523400000078,117.56396500000028,178.58984400000008,185.12841800000024,153.3334960000002,111.53857400000015,296.9228520000006,156.2822270000006,219.7436520000001,214.61523400000078
190,196.41015599999992,207.82031300000017,181.0258789999998,190.38476599999922,144.23095699999976,116.15380900000036,177.94873000000007,182.3076170000004,149.23095699999976,110.0,291.4101559999999,155.76904300000024,219.7436520000001,211.6665039999998
191,191.9228520000006,196.0258789999998,178.46142599999985,189.61523400000078,129.7436520000001,115.25634799999989,177.6923829999996,180.38476599999922,141.79492200000004,103.3334960000002,282.5639650000003,152.94873000000007,213.7177729999994,207.94873000000007
192,189.7436520000001,189.3588869999994,177.3076170000004,193.20507799999996,122.43603499999972,115.51269500000035,177.82031300000017,181.15380900000036,136.41015599999992,97.69238299999961,277.17968800000017,151.15380900000036,206.9228520000006,206.53857400000015
193,192.3076170000004,193.7177729999994,179.87158199999976,200.6411130000006,130.6411130000006,116.53857400000015,178.58984400000008,185.6411130000006,138.3334960000002,99.23095699999976,278.9741210000002,153.0771479999994,205.89746099999957,210.12841800000024
194,197.43603499999972,206.53857400000015,184.61523400000078,208.46142599999985,150.89746099999957,117.69238299999961,179.87158199999976,192.05126999999993,147.6923829999996,107.82031300000017,285.51269500000035,158.0771479999994,211.6665039999998,217.17968800000017
195,200.0,217.17968800000017,187.3076170000004,211.79492200000004,168.9741210000002,118.20507799999996,180.38476599999922,196.0258789999998,157.6923829999996,115.64111300000059,290.3847659999992,162.05126999999993,218.20507799999996,221.53857400000015
196,195.2563479999999,215.6411130000006,184.3588869999994,206.41015599999992,169.3588869999994,118.20507799999996,179.10253900000043,193.58984400000008,159.3588869999994,113.3334960000002,287.82031300000017,160.89746099999957,216.6665039999998,217.05126999999993
197,183.9741210000002,200.89746099999957,176.41015599999992,192.94873000000007,149.7436520000001,117.69238299999961,176.0258789999998,184.7436520000001,149.7436520000001,99.35888699999941,277.82031300000017,153.9741210000002,204.48730499999965,204.3588869999994
198,172.6923829999996,182.56396500000028,168.58984400000008,177.43603499999972,122.94873000000007,117.30761700000039,172.82031300000017,174.7436520000001,135.0,82.17968800000017,267.3076170000004,145.6411130000006,188.7177729999994,190.76904300000024
199,169.3588869999994,173.46142599999985,166.6665039999998,168.58984400000008,107.17968800000017,117.17968800000017,172.17968800000017,170.51269500000035,125.76904300000024,74.10253900000043,264.10253900000043,142.3076170000004,180.6411130000006,185.2563479999999
200,176.6665039999998,178.3334960000002,172.6923829999996,171.9228520000006,111.6665039999998,117.43603499999972,175.38476599999922,174.48730499999965,128.46142599999985,81.2822270000006,270.51269500000035,146.79492200000004,186.15380900000036,191.15380900000036
201,189.87158199999976,191.53857400000015,182.6923829999996,185.0,131.2822270000006,117.94873000000007,180.89746099999957,183.20507799999996,140.51269500000035,98.9741210000002,281.2822270000006,156.15380900000036,200.0,203.3334960000002
202,199.23095699999976,202.56396500000028,190.0,197.82031300000017,151.41015599999992,118.3334960000002,184.10253900000043,189.48730499999965,152.3076170000004,114.87158199999976,288.20507799999996,163.3334960000002,211.15380900000036,212.56396500000028
203,197.94873000000007,204.7436520000001,189.61523400000078,200.89746099999957,159.10253900000043,118.46142599999985,181.15380900000036,188.3334960000002,155.38476599999922,118.9741210000002,286.15380900000036,163.46142599999985,211.79492200000004,211.79492200000004
204,187.56396500000028,198.7177729999994,182.43603499999972,192.56396500000028,151.79492200000004,118.20507799999996,172.82031300000017,181.53857400000015,149.3588869999994,110.64111300000059,276.9228520000006,157.43603499999972,202.94873000000007,202.05126999999993
205,176.2822270000006,191.53857400000015,174.7436520000001,180.76904300000024,138.20507799999996,117.82031300000017,164.23095699999976,176.0258789999998,141.6665039999998,97.69238299999961,267.82031300000017,151.15380900000036,193.58984400000008,192.05126999999993
206,173.0771479999994,190.38476599999922,172.82031300000017,175.6411130000006,130.6411130000006,117.69238299999961,162.05126999999993,177.56396500000028,140.51269500000035,89.74365200000011,265.3847659999992,149.87158199999976,192.05126999999993,189.87158199999976
207,180.12841800000024,196.6665039999998,178.3334960000002,180.38476599999922,135.12841800000024,117.69238299999961,167.94873000000007,185.76904300000024,147.94873000000007,90.89746099999957,270.89746099999957,154.7436520000001,199.61523400000078,197.17968800000017
208,192.17968800000017,205.2563479999999,187.05126999999993,190.0,147.3076170000004,117.69238299999961,177.82031300000017,194.87158199999976,158.3334960000002,98.3334960000002,280.0,161.9228520000006,210.0,207.94873000000007
209,200.6411130000006,209.23095699999976,192.56396500000028,196.2822270000006,156.41015599999992,117.82031300000017,184.23095699999976,198.84619099999964,164.10253900000043,106.15380900000036,287.17968800000017,166.2822270000006,214.87158199999976,214.3588869999994
210,199.87158199999976,205.0,191.2822270000006,194.61523400000078,152.94873000000007,117.56396500000028,182.05126999999993,195.38476599999922,161.79492200000004,109.10253900000043,289.23095699999976,165.12841800000024,210.12841800000024,211.79492200000004
211,190.2563479999999,194.23095699999976,183.84619099999964,186.9228520000006,134.87158199999976,116.79492200000004,171.9228520000006,186.2822270000006,152.94873000000007,105.38476599999922,286.15380900000036,158.9741210000002,197.82031300000017,201.9228520000006
212,177.43603499999972,182.56396500000028,175.0,178.84619099999964,109.74365200000011,115.89746099999957,160.12841800000024,175.2563479999999,142.43603499999972,96.9228520000006,279.6152340000008,150.89746099999957,183.9741210000002,190.0
213,169.3588869999994,177.05126999999993,169.7436520000001,175.6411130000006,92.56396500000028,115.25634799999989,154.3588869999994,167.05126999999993,135.51269500000035,88.9741210000002,272.94873000000007,145.89746099999957,175.0,182.43603499999972
214,171.79492200000004,182.6923829999996,171.9228520000006,179.87158199999976,96.15380900000036,115.64111300000059,158.58984400000008,165.76904300000024,136.0258789999998,88.58984400000008,269.87158199999976,147.05126999999993,176.0258789999998,183.46142599999985
215,184.23095699999976,199.3588869999994,181.0258789999998,189.7436520000001,122.56396500000028,116.6665039999998,171.41015599999992,172.94873000000007,145.0,99.23095699999976,273.20507799999996,153.84619099999964,187.82031300000017,193.3334960000002
216,200.12841800000024,220.2563479999999,192.94873000000007,199.7436520000001,159.3588869999994,118.20507799999996,185.51269500000035,185.38476599999922,158.46142599999985,117.30761700000039,282.4360349999997,162.6923829999996,205.76904300000024,207.94873000000007
217,211.0258789999998,234.87158199999976,200.51269500000035,204.10253900000043,187.43603499999972,119.23095699999976,193.3334960000002,196.2822270000006,168.7177729999994,132.17968800000017,292.94873000000007,168.58984400000008,221.2822270000006,220.0
218,212.43603499999972,235.76904300000024,199.23095699999976,200.38476599999922,193.20507799999996,119.61523400000078,190.89746099999957,199.48730499999965,169.61523400000078,134.3588869999994,298.9741210000002,169.23095699999976,226.53857400000015,222.94873000000007
219,205.51269500000035,224.23095699999976,190.12841800000024,191.9228520000006,178.20507799999996,119.10253900000043,181.6665039999998,193.46142599999985,161.53857400000015,122.82031300000017,298.3334960000002,165.6411130000006,219.61523400000078,216.15380900000036
220,196.2822270000006,209.61523400000078,180.38476599999922,184.87158199999976,156.9228520000006,118.20507799999996,173.3334960000002,183.7177729999994,151.53857400000015,107.43603499999972,293.5898440000001,161.15380900000036,206.6665039999998,205.2563479999999
221,190.76904300000024,201.9228520000006,176.53857400000015,183.58984400000008,145.12841800000024,117.30761700000039,172.56396500000028,178.3334960000002,148.46142599999985,100.25634799999989,290.51269500000035,158.9741210000002,197.3076170000004,197.56396500000028
222,190.89746099999957,203.7177729999994,180.12841800000024,187.82031300000017,148.46142599999985,116.79492200000004,178.9741210000002,181.9228520000006,155.51269500000035,106.15380900000036,292.6923829999996,159.7436520000001,196.79492200000004,196.41015599999992
223,193.9741210000002,209.3588869999994,186.15380900000036,193.84619099999964,159.61523400000078,116.53857400000015,186.6665039999998,192.05126999999993,167.94873000000007,118.9741210000002,298.5898440000001,162.17968800000017,202.82031300000017,199.7436520000001
224,196.15380900000036,210.51269500000035,189.48730499999965,197.94873000000007,166.79492200000004,116.53857400000015,189.48730499999965,201.2822270000006,177.17968800000017,127.82031300000017,303.7177729999994,163.58984400000008,207.94873000000007,202.6923829999996
225,195.2563479999999,204.87158199999976,188.46142599999985,198.84619099999964,163.9741210000002,116.6665039999998,186.15380900000036,203.20507799999996,177.17968800000017,126.9228520000006,305.12841800000024,163.3334960000002,207.3076170000004,202.56396500000028
226,193.3334960000002,198.7177729999994,185.89746099999957,197.6923829999996,155.38476599999922,117.05126999999993,180.38476599999922,197.56396500000028,169.23095699999976,119.48730499999965,303.46142599999985,161.9228520000006,203.3334960000002,201.15380900000036
227,193.0771479999994,200.0,185.51269500000035,196.41015599999992,149.61523400000078,117.30761700000039,177.17968800000017,190.12841800000024,160.51269500000035,114.23095699999976,302.3076170000004,161.53857400000015,202.3076170000004,202.3076170000004
228,195.38476599999922,210.0,188.20507799999996,195.89746099999957,151.79492200000004,117.17968800000017,178.7177729999994,187.17968800000017,157.56396500000028,116.79492200000004,303.5898440000001,162.82031300000017,207.6923829999996,207.05126999999993
229,196.9228520000006,220.76904300000024,190.89746099999957,196.0258789999998,159.3588869999994,116.53857400000015,182.56396500000028,190.6411130000006,161.15380900000036,124.61523400000078,305.76904300000024,164.7436520000001,216.2822270000006,211.6665039999998
230,194.3588869999994,222.56396500000028,190.0,195.51269500000035,165.6411130000006,115.38476599999922,185.0,196.2822270000006,166.15380900000036,129.61523400000078,305.6411130000006,165.51269500000035,220.89746099999957,210.6411130000006
231,187.94873000000007,212.56396500000028,185.51269500000035,193.46142599999985,166.6665039999998,114.48730499999965,183.7177729999994,199.10253900000043,167.56396500000028,126.53857400000015,301.4101559999999,164.3588869999994,217.56396500000028,202.94873000000007
232,181.9228520000006,197.6923829999996,180.6411130000006,189.61523400000078,163.58984400000008,114.48730499999965,180.6411130000006,197.17968800000017,165.0,117.69238299999961,295.76904300000024,162.56396500000028,208.9741210000002,193.58984400000008
233,180.76904300000024,188.7177729999994,179.61523400000078,185.12841800000024,160.76904300000024,115.76904300000024,178.46142599999985,193.58984400000008,162.05126999999993,110.76904300000024,292.82031300000017,161.53857400000015,201.9228520000006,189.87158199999976
234,184.87158199999976,190.6411130000006,183.9741210000002,181.0258789999998,161.0258789999998,117.30761700000039,178.84619099999964,192.17968800000017,162.17968800000017,111.53857400000015,294.3588869999994,162.17968800000017,201.6665039999998,194.7436520000001
235,191.2822270000006,200.12841800000024,190.76904300000024,178.7177729999994,163.58984400000008,117.69238299999961,180.6411130000006,194.48730499999965,165.89746099999957,119.74365200000011,298.46142599999985,164.3588869999994,207.82031300000017,204.7436520000001
236,196.79492200000004,208.0771479999994,195.89746099999957,178.58984400000008,165.12841800000024,116.79492200000004,182.56396500000028,197.94873000000007,169.87158199999976,128.9741210000002,301.4101559999999,167.05126999999993,214.3588869999994,213.0771479999994
237,199.87158199999976,207.82031300000017,196.9228520000006,181.15380900000036,163.20507799999996,115.12841800000024,184.10253900000043,198.9741210000002,170.6411130000006,133.20507799999996,301.53857400000015,169.23095699999976,215.6411130000006,215.0
238,201.53857400000015,200.51269500000035,195.76904300000024,186.41015599999992,159.10253900000043,114.10253900000043,186.2822270000006,197.17968800000017,168.84619099999964,131.6665039999998,301.15380900000036,171.15380900000036,211.41015599999992,211.53857400000015
239,203.20507799999996,193.84619099999964,195.6411130000006,193.3334960000002,156.9228520000006,114.61523400000078,190.51269500000035,195.76904300000024,168.3334960000002,128.9741210000002,304.10253900000043,173.20507799999996,207.17968800000017,207.82031300000017
240,205.0,194.7436520000001,197.6923829999996,199.23095699999976,160.0,116.53857400000015,195.76904300000024,198.3334960000002,172.05126999999993,129.23095699999976,310.2563479999999,175.38476599999922,207.82031300000017,207.82031300000017
241,205.12841800000024,203.0771479999994,199.3588869999994,200.38476599999922,167.94873000000007,118.7177729999994,199.48730499999965,204.7436520000001,179.48730499999965,132.05126999999993,315.6411130000006,176.53857400000015,212.94873000000007,210.76904300000024
242,202.3076170000004,213.20507799999996,198.46142599999985,196.15380900000036,178.0771479999994,120.12841800000024,199.7436520000001,212.17968800000017,187.05126999999993,134.48730499999965,315.6411130000006,175.2563479999999,217.82031300000017,213.0771479999994
243,197.6923829999996,219.10253900000043,195.6411130000006,190.38476599999922,187.3076170000004,120.12841800000024,197.56396500000028,217.6923829999996,192.43603499999972,135.0,310.12841800000024,171.6665039999998,219.23095699999976,213.20507799999996
244,194.3588869999994,219.7436520000001,193.9741210000002,187.94873000000007,193.7177729999994,119.35888699999941,195.89746099999957,220.0,195.12841800000024,135.12841800000024,303.0771479999994,167.56396500000028,218.0771479999994,212.82031300000017
245,194.48730499999965,217.43603499999972,195.0,190.51269500000035,195.2563479999999,118.7177729999994,196.53857400000015,219.10253900000043,195.38476599999922,136.15380900000036,298.3334960000002,165.0,216.79492200000004,213.46142599999985
246,196.2822270000006,213.9741210000002,196.2822270000006,194.10253900000043,190.51269500000035,118.7177729999994,198.0771479999994,215.76904300000024,193.20507799999996,137.3076170000004,296.9228520000006,164.87158199999976,215.51269500000035,213.84619099999964
247,196.15380900000036,209.87158199999976,194.61523400000078,193.46142599999985,180.2563479999999,119.23095699999976,197.56396500000028,210.12841800000024,187.6923829999996,136.53857400000015,296.79492200000004,166.41015599999992,212.05126999999993,211.53857400000015
248,191.2822270000006,204.61523400000078,189.10253900000043,187.05126999999993,167.82031300000017,119.48730499999965,193.0771479999994,202.43603499999972,178.84619099999964,131.6665039999998,295.51269500000035,167.17968800000017,205.0,205.12841800000024
249,183.20507799999996,198.58984400000008,182.3076170000004,178.84619099999964,156.6665039999998,119.48730499999965,185.89746099999957,193.9741210000002,167.94873000000007,123.20507799999996,292.05126999999993,165.6411130000006,196.0258789999998,196.9228520000006
250,176.6665039999998,193.9741210000002,178.46142599999985,175.6411130000006,150.38476599999922,119.23095699999976,179.10253900000043,187.43603499999972,158.7177729999994,113.9741210000002,288.3334960000002,162.43603499999972,190.0,191.53857400000015
251,176.79492200000004,193.9741210000002,180.38476599999922,181.2822270000006,151.0258789999998,119.10253900000043,176.15380900000036,185.12841800000024,155.51269500000035,109.10253900000043,288.0771479999994,160.38476599999922,191.53857400000015,193.58984400000008
252,185.12841800000024,199.61523400000078,187.43603499999972,193.9741210000002,158.0771479999994,119.10253900000043,178.7177729999994,188.46142599999985,160.51269500000035,112.17968800000017,293.5898440000001,162.56396500000028,201.41015599999992,202.82031300000017
253,197.6923829999996,208.9741210000002,196.41015599999992,206.9228520000006,168.46142599999985,119.10253900000043,185.76904300000024,195.51269500000035,171.0258789999998,122.17968800000017,303.46142599999985,168.9741210000002,214.7436520000001,214.87158199999976
254,208.3334960000002,218.20507799999996,202.6923829999996,213.0771479999994,178.0771479999994,119.10253900000043,193.7177729999994,202.17968800000017,180.76904300000024,132.94873000000007,311.79492200000004,176.2822270000006,223.58984400000008,223.3334960000002
255,212.05126999999993,223.58984400000008,203.7177729999994,210.2563479999999,184.10253900000043,119.10253900000043,198.84619099999964,204.48730499999965,184.10253900000043,138.0771479999994,312.94873000000007,179.7436520000001,222.3076170000004,224.7436520000001
256,208.20507799999996,223.84619099999964,200.12841800000024,201.53857400000015,185.89746099999957,119.10253900000043,199.10253900000043,201.79492200000004,179.87158199999976,135.0,306.15380900000036,176.79492200000004,212.43603499999972,219.7436520000001
257,199.7436520000001,220.12841800000024,195.12841800000024,192.94873000000007,184.48730499999965,119.10253900000043,195.2563479999999,196.15380900000036,171.2822270000006,127.05126999999993,295.6411130000006,169.10253900000043,200.89746099999957,212.6923829999996
258,192.05126999999993,214.87158199999976,191.79492200000004,189.23095699999976,181.0258789999998,119.10253900000043,189.87158199999976,191.15380900000036,163.84619099999964,119.35888699999941,287.05126999999993,161.6665039999998,194.61523400000078,207.82031300000017
259,188.84619099999964,210.6411130000006,191.53857400000015,191.53857400000015,176.41015599999992,119.10253900000043,186.0258789999998,188.58984400000008,160.38476599999922,114.74365200000011,283.9741210000002,158.58984400000008,195.38476599999922,206.2822270000006
260,191.0258789999998,208.20507799999996,193.7177729999994,198.20507799999996,171.0258789999998,119.10253900000043,185.89746099999957,188.84619099999964,160.51269500000035,113.20507799999996,286.0258789999998,161.0258789999998,199.87158199999976,207.3076170000004
261,197.05126999999993,208.46142599999985,197.3076170000004,206.41015599999992,166.15380900000036,119.10253900000043,189.7436520000001,191.0258789999998,162.3076170000004,113.9741210000002,291.15380900000036,166.9228520000006,204.10253900000043,209.61523400000078
262,204.3588869999994,212.94873000000007,202.05126999999993,214.10253900000043,164.3588869999994,119.10253900000043,195.38476599999922,195.12841800000024,165.2563479999999,117.30761700000039,298.20507799999996,173.20507799999996,207.6923829999996,213.84619099999964
263,211.2822270000006,221.9228520000006,207.43603499999972,219.61523400000078,167.94873000000007,119.10253900000043,200.2563479999999,200.76904300000024,169.87158199999976,123.7177729999994,306.6665039999998,178.20507799999996,212.43603499999972,220.89746099999957
264,215.51269500000035,231.41015599999992,211.41015599999992,221.41015599999992,175.38476599999922,119.10253900000043,202.3076170000004,206.41015599999992,175.2563479999999,130.6411130000006,313.84619099999964,180.6411130000006,218.0771479999994,228.58984400000008
265,214.87158199999976,234.3588869999994,211.0258789999998,218.0771479999994,181.6665039999998,119.10253900000043,200.6411130000006,209.48730499999965,178.58984400000008,133.84619099999964,315.2563479999999,179.3588869999994,220.6411130000006,231.0258789999998
266,208.84619099999964,226.79492200000004,205.51269500000035,209.61523400000078,183.0771479999994,119.10253900000043,196.6665039999998,207.82031300000017,176.6665039999998,130.6411130000006,308.3334960000002,174.7436520000001,216.2822270000006,224.23095699999976
267,199.3588869999994,211.9228520000006,197.56396500000028,200.0,180.38476599999922,119.10253900000043,192.82031300000017,202.82031300000017,170.12841800000024,123.20507799999996,295.6411130000006,168.7177729999994,206.0258789999998,210.89746099999957
268,190.89746099999957,198.58984400000008,191.41015599999992,193.9741210000002,177.05126999999993,119.10253900000043,192.05126999999993,197.6923829999996,163.0771479999994,116.9228520000006,284.23095699999976,164.23095699999976,195.2563479999999,198.84619099999964
269,187.43603499999972,194.23095699999976,190.12841800000024,193.58984400000008,175.2563479999999,119.10253900000043,194.61523400000078,195.51269500000035,160.12841800000024,115.89746099999957,280.0,163.3334960000002,190.38476599999922,194.10253900000043
270,189.23095699999976,199.10253900000043,192.94873000000007,196.53857400000015,174.48730499999965,119.10253900000043,197.6923829999996,196.41015599999992,162.56396500000028,119.10253900000043,284.10253900000043,165.38476599999922,192.43603499999972,197.17968800000017
271,193.20507799999996,206.79492200000004,196.6665039999998,198.3334960000002,172.82031300000017,119.10253900000043,197.3076170000004,197.94873000000007,167.56396500000028,122.30761700000039,292.4360349999997,168.3334960000002,197.94873000000007,202.82031300000017
272,195.6411130000006,210.6411130000006,197.94873000000007,196.6665039999998,169.87158199999976,119.10253900000043,192.43603499999972,197.43603499999972,170.76904300000024,122.30761700000039,298.0771479999994,170.12841800000024,201.9228520000006,205.51269500000035
273,195.2563479999999,208.9741210000002,196.6665039999998,193.84619099999964,167.3076170000004,119.10253900000043,186.15380900000036,194.61523400000078,169.61523400000078,119.48730499999965,297.17968800000017,170.2563479999999,202.43603499999972,203.9741210000002
274,193.7177729999994,205.89746099999957,195.51269500000035,194.23095699999976,167.94873000000007,119.10253900000043,183.0771479999994,191.53857400000015,166.41015599999992,117.69238299999961,291.53857400000015,170.12841800000024,200.89746099999957,201.2822270000006
275,193.9741210000002,205.89746099999957,196.79492200000004,198.84619099999964,172.17968800000017,119.10253900000043,185.51269500000035,190.51269500000035,164.23095699999976,120.12841800000024,286.2822270000006,170.89746099999957,199.10253900000043,201.41015599999992
276,195.76904300000024,208.84619099999964,199.7436520000001,203.46142599999985,176.15380900000036,119.10253900000043,190.89746099999957,191.53857400000015,164.48730499999965,125.0,284.48730499999965,171.79492200000004,196.6665039999998,203.46142599999985
277,196.2822270000006,210.38476599999922,200.6411130000006,202.56396500000028,174.7436520000001,119.23095699999976,193.9741210000002,192.17968800000017,165.12841800000024,126.9228520000006,284.10253900000043,170.89746099999957,191.2822270000006,203.46142599999985
278,193.20507799999996,206.2822270000006,197.82031300000017,195.51269500000035,167.3076170000004,119.35888699999941,192.17968800000017,190.89746099999957,164.23095699999976,122.69238299999961,282.05126999999993,167.3076170000004,183.0771479999994,198.7177729999994
279,188.58984400000008,198.46142599999985,193.46142599999985,188.9741210000002,158.7177729999994,119.48730499999965,187.56396500000028,188.9741210000002,162.56396500000028,115.25634799999989,278.9741210000002,163.46142599999985,176.53857400000015,192.43603499999972
280,187.05126999999993,193.46142599999985,192.82031300000017,190.0,155.6411130000006,119.48730499999965,185.89746099999957,189.7436520000001,163.58984400000008,112.56396500000028,279.3588869999994,163.3334960000002,177.56396500000028,190.76904300000024
281,191.9228520000006,195.76904300000024,198.3334960000002,199.48730499999965,160.6411130000006,119.10253900000043,190.2563479999999,194.7436520000001,170.2563479999999,120.0,286.4101559999999,168.46142599999985,188.20507799999996,197.43603499999972
282,201.2822270000006,204.10253900000043,206.79492200000004,210.2563479999999,170.38476599999922,118.7177729999994,198.7177729999994,201.9228520000006,180.89746099999957,135.0,297.17968800000017,176.6665039999998,203.20507799999996,209.10253900000043
283,208.46142599999985,211.53857400000015,211.9228520000006,213.20507799999996,178.0771479999994,118.84619099999964,205.51269500000035,206.41015599999992,189.7436520000001,148.3334960000002,304.10253900000043,182.43603499999972,212.82031300000017,218.20507799999996
284,207.43603499999972,211.6665039999998,209.7436520000001,204.3588869999994,178.58984400000008,119.35888699999941,205.38476599999922,204.61523400000078,191.15380900000036,151.2822270000006,301.2822270000006,181.53857400000015,210.38476599999922,217.94873000000007
285,197.82031300000017,203.3334960000002,200.89746099999957,188.0771479999994,171.53857400000015,120.0,197.56396500000028,196.79492200000004,183.46142599999985,141.9228520000006,289.3588869999994,174.23095699999976,197.17968800000017,207.82031300000017
286,184.48730499999965,192.05126999999993,189.87158199999976,173.3334960000002,161.9228520000006,119.87158199999976,186.0258789999998,186.41015599999992,170.89746099999957,126.2822270000006,275.51269500000035,165.0,181.53857400000015,193.9741210000002
287,174.61523400000078,184.48730499999965,182.6923829999996,167.94873000000007,156.2822270000006,118.58984400000008,176.79492200000004,178.0771479999994,160.6411130000006,113.9741210000002,267.6923829999996,159.61523400000078,172.43603499999972,184.87158199999976
288,172.05126999999993,183.58984400000008,181.6665039999998,173.3334960000002,157.3076170000004,116.41015599999992,174.23095699999976,174.7436520000001,157.3076170000004,110.38476599999922,268.3334960000002,159.87158199999976,173.0771479999994,184.23095699999976
289,175.6411130000006,186.53857400000015,184.7436520000001,183.9741210000002,161.41015599999992,114.48730499999965,177.56396500000028,175.89746099999957,160.2563479999999,113.9741210000002,273.5898440000001,163.46142599999985,178.84619099999964,189.10253900000043
290,180.0,187.82031300000017,187.43603499999972,191.2822270000006,162.3076170000004,113.9741210000002,182.82031300000017,179.10253900000043,164.87158199999976,119.35888699999941,277.5639650000003,166.0258789999998,182.43603499999972,192.94873000000007
291,181.0258789999998,184.61523400000078,186.41015599999992,190.51269500000035,156.79492200000004,114.74365200000011,186.53857400000015,182.17968800000017,166.9228520000006,122.82031300000017,277.17968800000017,165.89746099999957,180.38476599999922,192.82031300000017
292,178.58984400000008,178.3334960000002,182.82031300000017,183.7177729999994,147.82031300000017,116.0258789999998,187.43603499999972,185.0,165.6411130000006,123.7177729999994,274.10253900000043,164.3588869999994,174.87158199999976,189.61523400000078
293,175.76904300000024,174.48730499999965,180.6411130000006,177.05126999999993,141.9228520000006,116.9228520000006,187.05126999999993,188.20507799999996,163.9741210000002,124.10253900000043,271.53857400000015,163.20507799999996,171.79492200000004,187.05126999999993
294,175.6411130000006,177.43603499999972,182.43603499999972,176.0258789999998,145.0,117.05126999999993,187.17968800000017,192.43603499999972,165.38476599999922,125.64111300000059,271.6665039999998,163.84619099999964,174.87158199999976,187.56396500000028
295,179.23095699999976,188.0771479999994,187.3076170000004,181.79492200000004,157.43603499999972,116.6665039999998,188.7177729999994,197.3076170000004,171.6665039999998,129.61523400000078,274.6152340000008,166.15380900000036,183.3334960000002,191.53857400000015
296,184.3588869999994,202.05126999999993,191.9228520000006,190.51269500000035,173.20507799999996,116.15380900000036,191.0258789999998,201.2822270000006,180.76904300000024,134.7436520000001,278.20507799999996,168.84619099999964,193.0771479999994,197.82031300000017
297,188.20507799999996,212.56396500000028,193.84619099999964,196.9228520000006,183.9741210000002,115.89746099999957,192.56396500000028,202.94873000000007,188.3334960000002,138.58984400000008,280.6411130000006,170.51269500000035,198.84619099999964,203.20507799999996
298,188.7177729999994,214.48730499999965,192.05126999999993,197.17968800000017,184.7436520000001,115.89746099999957,192.82031300000017,201.6665039999998,190.51269500000035,138.84619099999964,280.2563479999999,170.0,197.3076170000004,204.3588869999994
299,184.87158199999976,207.3076170000004,187.43603499999972,190.76904300000024,176.79492200000004,116.15380900000036,190.89746099999957,197.94873000000007,186.0258789999998,135.2563479999999,275.89746099999957,166.79492200000004,188.58984400000008,199.23095699999976
300,177.05126999999993,194.7436520000001,180.76904300000024,179.3588869999994,165.38476599999922,116.15380900000036,186.41015599999992,192.94873000000007,177.43603499999972,129.48730499999965,267.5639650000003,160.89746099999957,176.2822270000006,188.84619099999964
301,167.05126999999993,182.3076170000004,173.20507799999996,167.43603499999972,154.48730499999965,115.64111300000059,180.12841800000024,187.3076170000004,168.46142599999985,123.46142599999985,257.3076170000004,153.7177729999994,165.76904300000024,176.6665039999998
302,158.46142599999985,174.3588869999994,166.79492200000004,160.0,144.10253900000043,115.0,174.3588869999994,181.41015599999992,162.3076170000004,117.94873000000007,249.48730499999965,147.3076170000004,160.76904300000024,167.43603499999972
303,154.87158199999976,170.89746099999957,163.84619099999964,159.87158199999976,132.56396500000028,114.35888699999941,172.17968800000017,176.41015599999992,159.87158199999976,113.46142599999985,248.84619099999964,144.10253900000043,161.41015599999992,164.23095699999976
304,157.82031300000017,169.7436520000001,165.51269500000035,165.2563479999999,121.6665039999998,113.58984400000008,175.51269500000035,174.61523400000078,161.15380900000036,110.76904300000024,255.89746099999957,145.76904300000024,165.0,167.43603499999972
305,165.51269500000035,169.3588869999994,170.6411130000006,171.9228520000006,118.9741210000002,113.3334960000002,183.58984400000008,178.3334960000002,165.51269500000035,111.9228520000006,267.4360349999997,152.17968800000017,169.3588869999994,174.48730499999965
306,174.87158199999976,171.9228520000006,177.17968800000017,176.53857400000015,132.56396500000028,113.9741210000002,192.82031300000017,187.82031300000017,173.58984400000008,118.7177729999994,277.94873000000007,161.0258789999998,174.87158199999976,182.6923829999996
307,182.43603499999972,180.76904300000024,183.0771479999994,178.9741210000002,161.15380900000036,115.51269500000035,199.3588869999994,200.51269500000035,185.0,130.89746099999957,283.20507799999996,168.7177729999994,182.05126999999993,189.87158199999976
308,185.51269500000035,194.7436520000001,186.15380900000036,180.2563479999999,191.15380900000036,116.9228520000006,200.51269500000035,211.2822270000006,196.6665039999998,144.10253900000043,282.05126999999993,171.15380900000036,189.61523400000078,193.7177729999994
309,183.0771479999994,207.43603499999972,184.23095699999976,179.87158199999976,205.38476599999922,117.17968800000017,195.2563479999999,214.3588869999994,203.0771479999994,152.56396500000028,275.51269500000035,166.41015599999992,193.46142599999985,192.43603499999972
310,176.41015599999992,211.9228520000006,177.94873000000007,176.6665039999998,196.53857400000015,116.2822270000006,186.15380900000036,208.46142599999985,200.89746099999957,152.82031300000017,266.79492200000004,156.9228520000006,190.76904300000024,186.41015599999992
311,170.2563479999999,207.17968800000017,171.41015599999992,171.41015599999992,173.46142599999985,115.25634799999989,177.6923829999996,197.94873000000007,192.3076170000004,147.6923829999996,260.0,148.3334960000002,184.10253900000043,179.3588869999994
312,169.10253900000043,199.10253900000043,169.23095699999976,167.17968800000017,153.58984400000008,114.87158199999976,174.23095699999976,190.89746099999957,184.48730499999965,143.7177729999994,258.20507799999996,145.76904300000024,178.84619099999964,176.15380900000036
313,173.58984400000008,194.48730499999965,172.82031300000017,166.41015599999992,148.20507799999996,115.38476599999922,176.6665039999998,191.6665039999998,183.3334960000002,145.0,261.53857400000015,150.51269500000035,178.46142599999985,178.3334960000002
314,179.10253900000043,194.87158199999976,178.0771479999994,168.58984400000008,153.9741210000002,116.2822270000006,182.05126999999993,197.82031300000017,188.20507799999996,150.0,267.4360349999997,158.84619099999964,181.6665039999998,182.6923829999996
315,180.0,195.38476599999922,179.7436520000001,170.0,158.7177729999994,116.6665039999998,185.6411130000006,202.3076170000004,193.3334960000002,152.17968800000017,271.53857400000015,164.10253900000043,182.94873000000007,183.7177729999994
316,174.10253900000043,190.6411130000006,175.2563479999999,167.94873000000007,153.20507799999996,115.51269500000035,184.3588869999994,199.3588869999994,192.17968800000017,146.6665039999998,270.76904300000024,162.43603499999972,178.20507799999996,177.94873000000007
317,164.87158199999976,180.0,167.6923829999996,163.0771479999994,139.23095699999976,113.46142599999985,180.0,189.7436520000001,183.3334960000002,134.10253900000043,265.6411130000006,154.87158199999976,168.7177729999994,167.56396500000028
318,159.3588869999994,170.0,162.56396500000028,159.87158199999976,128.58984400000008,111.9228520000006,176.6665039999998,180.38476599999922,172.3076170000004,121.6665039999998,259.87158199999976,147.3076170000004,160.6411130000006,158.84619099999964
319,161.79492200000004,168.20507799999996,164.10253900000043,162.3076170000004,131.9228520000006,112.17968800000017,176.79492200000004,178.0771479999994,166.9228520000006,117.17968800000017,258.3334960000002,145.6411130000006,160.38476599999922,158.46142599999985
320,171.15380900000036,176.53857400000015,171.41015599999992,170.12841800000024,149.23095699999976,113.7177729999994,179.3588869999994,184.3588869999994,171.0258789999998,123.0771479999994,262.3076170000004,150.89746099999957,169.10253900000043,166.79492200000004
321,180.38476599999922,187.82031300000017,179.3588869999994,177.6923829999996,168.0771479999994,114.87158199999976,180.38476599999922,193.0771479999994,180.76904300000024,133.3334960000002,268.3334960000002,158.7177729999994,180.12841800000024,176.79492200000004
322,182.56396500000028,191.6665039999998,181.79492200000004,177.94873000000007,174.10253900000043,114.35888699999941,176.9228520000006,195.38476599999922,187.6923829999996,138.58984400000008,270.3847659999992,162.82031300000017,184.3588869999994,179.48730499999965
323,175.2563479999999,183.3334960000002,176.41015599999992,168.9741210000002,164.23095699999976,112.69238299999961,169.7436520000001,187.6923829999996,185.6411130000006,134.7436520000001,265.3847659999992,160.12841800000024,177.56396500000028,172.3076170000004
324,163.20507799999996,168.9741210000002,167.3076170000004,156.79492200000004,148.84619099999964,111.0258789999998,162.43603499999972,174.23095699999976,175.89746099999957,125.51269500000035,256.53857400000015,153.3334960000002,165.0,161.41015599999992
325,154.87158199999976,159.48730499999965,161.0258789999998,150.12841800000024,141.6665039999998,110.64111300000059,158.84619099999964,163.7177729999994,165.76904300000024,118.9741210000002,250.2563479999999,148.0771479999994,156.2822270000006,155.6411130000006
326,154.7436520000001,160.51269500000035,161.15380900000036,153.0771479999994,145.76904300000024,111.0258789999998,159.48730499999965,161.41015599999992,161.79492200000004,119.23095699999976,250.12841800000024,147.6923829999996,156.0258789999998,158.0771479999994
327,159.61523400000078,166.53857400000015,165.38476599999922,160.6411130000006,151.0258789999998,111.41015599999992,160.89746099999957,164.7436520000001,164.3588869999994,122.82031300000017,252.3076170000004,150.0,160.0,163.7177729999994
328,162.43603499999972,167.3076170000004,168.0771479999994,163.46142599999985,144.48730499999965,111.2822270000006,158.9741210000002,166.9228520000006,167.43603499999972,122.43603499999972,250.76904300000024,150.51269500000035,160.38476599999922,164.61523400000078
329,159.87158199999976,158.0771479999994,166.53857400000015,157.6923829999996,125.38476599999922,111.15380900000036,153.58984400000008,163.3334960000002,165.51269500000035,114.74365200000011,243.7177729999994,147.56396500000028,154.87158199999976,158.0771479999994
330,156.0258789999998,145.89746099999957,163.7177729999994,148.58984400000008,107.56396500000028,112.05126999999993,149.23095699999976,156.2822270000006,159.48730499999965,104.74365200000011,236.6665039999998,144.61523400000078,148.3334960000002,149.87158199999976
331,157.43603499999972,142.56396500000028,165.2563479999999,146.2822270000006,107.43603499999972,114.35888699999941,150.89746099999957,153.46142599999985,156.0258789999998,101.9228520000006,236.9228520000006,145.89746099999957,148.46142599999985,148.7177729999994
332,166.41015599999992,154.48730499999965,172.94873000000007,155.38476599999922,129.87158199999976,117.56396500000028,159.87158199999976,160.0,160.6411130000006,111.0258789999998,246.2822270000006,152.3076170000004,157.43603499999972,158.46142599999985
333,177.94873000000007,175.89746099999957,181.9228520000006,170.38476599999922,163.20507799999996,119.87158199999976,171.15380900000036,173.20507799999996,171.6665039999998,127.30761700000039,258.5898440000001,159.7436520000001,170.51269500000035,174.10253900000043
334,183.7177729999994,193.20507799999996,185.6411130000006,180.0,187.3076170000004,119.48730499999965,177.43603499999972,184.3588869999994,181.53857400000015,139.7436520000001,264.3588869999994,163.0771479999994,179.23095699999976,185.38476599999922
335,179.61523400000078,195.2563479999999,180.89746099999957,176.53857400000015,189.23095699999976,117.17968800000017,175.0,185.6411130000006,183.0771479999994,140.12841800000024,258.46142599999985,159.7436520000001,178.3334960000002,184.48730499999965
336,168.46142599999985,182.94873000000007,170.38476599999922,162.43603499999972,171.53857400000015,115.0,166.6665039999998,177.05126999999993,176.0258789999998,129.3588869999994,244.10253900000043,151.79492200000004,169.10253900000043,172.56396500000028
337,158.0771479999994,166.9228520000006,160.89746099999957,147.3076170000004,149.7436520000001,115.12841800000024,159.23095699999976,165.89746099999957,166.6665039999998,116.15380900000036,230.6411130000006,144.23095699999976,158.84619099999964,158.0771479999994
338,154.23095699999976,158.7177729999994,157.43603499999972,140.38476599999922,140.12841800000024,116.9228520000006,157.56396500000028,160.38476599999922,162.3076170000004,109.48730499999965,225.2563479999999,141.0258789999998,154.23095699999976,149.87158199999976
339,156.0258789999998,159.87158199999976,159.7436520000001,142.56396500000028,146.15380900000036,117.82031300000017,161.41015599999992,162.56396500000028,164.48730499999965,111.79492200000004,227.6923829999996,141.53857400000015,155.76904300000024,149.61523400000078
340,156.9228520000006,161.79492200000004,162.17968800000017,147.05126999999993,156.15380900000036,115.51269500000035,165.89746099999957,166.53857400000015,167.82031300000017,116.15380900000036,230.51269500000035,142.05126999999993,156.9228520000006,151.6665039999998
341,150.6411130000006,154.61523400000078,159.10253900000043,145.2563479999999,154.61523400000078,110.25634799999989,165.89746099999957,164.87158199999976,165.0,113.7177729999994,226.2822270000006,138.9741210000002,150.6411130000006,148.58984400000008
342,137.94873000000007,137.82031300000017,150.51269500000035,135.6411130000006,136.15380900000036,105.64111300000059,161.0258789999998,155.76904300000024,154.48730499999965,102.82031300000017,214.7436520000001,133.0771479999994,136.6665039999998,138.7177729999994
343,127.05126999999993,122.69238299999961,142.3076170000004,124.61523400000078,112.43603499999972,104.74365200000011,156.15380900000036,145.6411130000006,143.46142599999985,91.9228520000006,203.3334960000002,129.10253900000043,123.3334960000002,128.20507799999996
344,127.05126999999993,121.9228520000006,141.79492200000004,120.89746099999957,101.6665039999998,108.0771479999994,156.6665039999998,144.23095699999976,142.17968800000017,92.05126999999993,200.89746099999957,131.41015599999992,121.0258789999998,125.76904300000024
345,139.23095699999976,138.3334960000002,150.38476599999922,127.17968800000017,113.3334960000002,113.3334960000002,163.58984400000008,155.38476599999922,154.87158199999976,106.2822270000006,210.0,139.10253900000043,133.0771479999994,134.3588869999994
346,155.38476599999922,160.89746099999957,161.79492200000004,137.56396500000028,140.2563479999999,116.9228520000006,172.17968800000017,172.6923829999996,174.23095699999976,125.64111300000059,225.12841800000024,147.05126999999993,152.05126999999993,148.58984400000008
347,164.48730499999965,174.3588869999994,167.56396500000028,143.3334960000002,164.48730499999965,117.17968800000017,176.15380900000036,184.10253900000043,187.05126999999993,137.3076170000004,236.6665039999998,149.23095699999976,165.76904300000024,158.84619099999964
348,161.53857400000015,170.89746099999957,164.48730499999965,140.76904300000024,172.17968800000017,115.25634799999989,173.3334960000002,182.17968800000017,184.87158199999976,134.10253900000043,238.84619099999964,144.3588869999994,166.6665039999998,159.10253900000043
349,150.76904300000024,154.87158199999976,155.76904300000024,132.56396500000028,161.9228520000006,113.7177729999994,166.6665039999998,169.10253900000043,169.87158199999976,119.35888699999941,232.82031300000017,136.41015599999992,156.79492200000004,151.0258789999998
350,140.51269500000035,138.46142599999985,147.82031300000017,124.48730499999965,143.3334960000002,114.10253900000043,160.89746099999957,153.58984400000008,152.56396500000028,103.46142599999985,224.23095699999976,130.51269500000035,143.58984400000008,141.41015599999992
351,136.15380900000036,130.89746099999957,144.23095699999976,119.23095699999976,128.0771479999994,114.87158199999976,158.20507799999996,143.84619099999964,141.9228520000006,94.10253900000043,217.05126999999993,128.9741210000002,134.10253900000043,135.89746099999957
352,137.05126999999993,132.6923829999996,144.10253900000043,115.76904300000024,122.69238299999961,114.23095699999976,157.56396500000028,141.9228520000006,140.0,91.6665039999998,212.17968800000017,130.89746099999957,130.51269500000035,135.0
353,138.9741210000002,137.3076170000004,144.23095699999976,112.43603499999972,126.15380900000036,111.2822270000006,156.53857400000015,143.7177729999994,142.3076170000004,90.76904300000024,209.10253900000043,133.58984400000008,130.89746099999957,135.6411130000006
354,137.94873000000007,136.79492200000004,141.9228520000006,108.9741210000002,130.38476599999922,107.94873000000007,153.46142599999985,143.7177729999994,142.6923829999996,86.2822270000006,206.6665039999998,134.48730499999965,130.76904300000024,133.7177729999994
355,133.20507799999996,127.94873000000007,137.3076170000004,105.76904300000024,126.9228520000006,106.79492200000004,148.3334960000002,138.9741210000002,138.46142599999985,77.69238299999961,203.84619099999964,132.94873000000007,126.9228520000006,127.43603499999972
356,126.9228520000006,114.61523400000078,132.05126999999993,102.56396500000028,112.82031300000017,108.9741210000002,142.94873000000007,130.89746099999957,131.41015599999992,68.46142599999985,199.61523400000078,129.61523400000078,119.23095699999976,118.20507799999996
357,122.30761700000039,103.84619099999964,128.9741210000002,99.23095699999976,94.61523400000078,112.94873000000007,139.61523400000078,124.10253900000043,126.15380900000036,64.10253900000043,193.3334960000002,126.53857400000015,110.89746099999957,110.38476599999922
358,121.6665039999998,101.53857400000015,130.0,96.9228520000006,84.10253900000043,116.2822270000006,140.51269500000035,122.56396500000028,126.41015599999992,67.56396500000028,186.0258789999998,125.38476599999922,106.53857400000015,107.82031300000017
359,125.0,108.46142599999985,134.48730499999965,97.56396500000028,89.35888699999941,117.43603499999972,145.38476599999922,127.69238299999961,132.05126999999993,77.94873000000007,181.15380900000036,126.2822270000006,108.3334960000002,111.79492200000004
360,130.51269500000035,120.38476599999922,140.12841800000024,101.6665039999998,108.7177729999994,117.17968800000017,151.9228520000006,136.79492200000004,140.12841800000024,90.76904300000024,181.53857400000015,128.46142599999985,114.87158199999976,120.12841800000024
361,135.2563479999999,131.53857400000015,144.23095699999976,107.69238299999961,131.41015599999992,116.6665039999998,156.6665039999998,145.0,146.53857400000015,100.51269500000035,187.56396500000028,130.89746099999957,122.69238299999961,128.7177729999994
362,136.79492200000004,137.56396500000028,145.12841800000024,112.56396500000028,145.6411130000006,116.2822270000006,157.56396500000028,148.0771479999994,149.3588869999994,103.7177729999994,195.51269500000035,132.94873000000007,128.20507799999996,133.7177729999994
363,134.48730499999965,136.41015599999992,142.43603499999972,113.84619099999964,145.51269500000035,116.0258789999998,153.9741210000002,145.0,148.58984400000008,99.61523400000078,200.0,133.84619099999964,129.10253900000043,132.82031300000017
364,129.10253900000043,129.3588869999994,137.05126999999993,110.89746099999957,133.7177729999994,115.76904300000024,148.20507799999996,138.3334960000002,145.89746099999957,89.87158199999976,197.43603499999972,132.82031300000017,125.12841800000024,126.41015599999992
365,123.20507799999996,120.0,131.41015599999992,105.76904300000024,118.7177729999994,115.38476599999922,143.58984400000008,132.94873000000007,143.3334960000002,78.84619099999964,189.3588869999994,130.2563479999999,118.20507799999996,117.69238299999961
366,120.12841800000024,113.3334960000002,128.3334960000002,101.9228520000006,108.84619099999964,115.25634799999989,142.6923829999996,132.3076170000004,141.9228520000006,72.05126999999993,181.9228520000006,127.56396500000028,111.41015599999992,111.2822270000006
367,122.17968800000017,112.69238299999961,129.61523400000078,101.9228520000006,107.56396500000028,115.38476599999922,145.2563479999999,136.53857400000015,143.0771479999994,73.20507799999996,180.38476599999922,126.9228520000006,107.94873000000007,111.0258789999998
368,128.58984400000008,118.0771479999994,135.38476599999922,106.53857400000015,111.6665039999998,116.2822270000006,149.10253900000043,142.82031300000017,146.79492200000004,81.79492200000004,186.0258789999998,128.9741210000002,109.35888699999941,117.05126999999993
369,135.51269500000035,125.76904300000024,143.20507799999996,112.82031300000017,115.25634799999989,117.30761700000039,151.41015599999992,147.82031300000017,151.0258789999998,92.43603499999972,194.48730499999965,132.3076170000004,115.12841800000024,126.0258789999998
370,139.23095699999976,131.6665039999998,149.3588869999994,117.69238299999961,115.0,117.43603499999972,151.2822270000006,150.12841800000024,153.58984400000008,100.0,199.3588869999994,134.87158199999976,122.05126999999993,133.3334960000002
371,138.0771479999994,133.7177729999994,151.6665039999998,119.23095699999976,113.46142599999985,116.79492200000004,150.38476599999922,150.38476599999922,153.9741210000002,102.30761700000039,197.6923829999996,135.51269500000035,127.05126999999993,135.89746099999957
372,133.9741210000002,133.58984400000008,150.0,118.3334960000002,115.76904300000024,116.0258789999998,151.15380900000036,151.15380900000036,154.87158199999976,100.64111300000059,191.79492200000004,134.48730499999965,128.58984400000008,133.58984400000008
373,130.12841800000024,133.84619099999964,146.0258789999998,116.79492200000004,124.61523400000078,115.76904300000024,154.10253900000043,153.46142599999985,158.0771479999994,97.56396500000028,187.43603499999972,132.82031300000017,127.17968800000017,128.9741210000002
374,128.9741210000002,135.51269500000035,141.2822270000006,115.51269500000035,135.38476599999922,115.64111300000059,157.3076170000004,156.0258789999998,162.43603499999972,94.87158199999976,187.6923829999996,131.41015599999992,124.23095699999976,124.23095699999976
375,130.2563479999999,136.6665039999998,137.17968800000017,115.12841800000024,140.51269500000035,115.38476599999922,157.82031300000017,156.41015599999992,164.48730499999965,92.17968800000017,191.15380900000036,130.6411130000006,121.41015599999992,121.0258789999998
376,132.17968800000017,135.12841800000024,135.12841800000024,115.51269500000035,135.76904300000024,115.0,154.61523400000078,153.7177729999994,162.05126999999993,89.35888699999941,194.3588869999994,130.51269500000035,120.38476599999922,120.12841800000024
377,133.20507799999996,130.6411130000006,136.15380900000036,116.2822270000006,124.23095699999976,114.87158199999976,149.7436520000001,149.7436520000001,156.53857400000015,87.17968800000017,195.12841800000024,130.76904300000024,122.05126999999993,121.9228520000006
378,132.56396500000028,125.38476599999922,139.48730499999965,116.2822270000006,112.94873000000007,115.12841800000024,146.41015599999992,147.05126999999993,151.79492200000004,87.17968800000017,194.48730499999965,131.15380900000036,125.76904300000024,126.15380900000036
379,130.51269500000035,122.17968800000017,143.20507799999996,113.84619099999964,108.20507799999996,115.12841800000024,146.6665039999998,146.6665039999998,151.15380900000036,90.38476599999922,193.84619099999964,131.6665039999998,129.3588869999994,130.6411130000006
380,128.84619099999964,123.46142599999985,145.51269500000035,109.10253900000043,111.0258789999998,114.48730499999965,149.87158199999976,147.94873000000007,155.89746099999957,96.53857400000015,194.10253900000043,132.3076170000004,131.15380900000036,133.7177729999994
381,128.84619099999964,128.3334960000002,146.15380900000036,104.87158199999976,117.82031300000017,113.3334960000002,154.3588869999994,150.2563479999999,163.3334960000002,103.7177729999994,195.2563479999999,133.46142599999985,131.0258789999998,134.7436520000001
382,131.41015599999992,133.0771479999994,146.2822270000006,103.58984400000008,123.3334960000002,112.43603499999972,158.3334960000002,152.82031300000017,168.84619099999964,109.23095699999976,197.05126999999993,134.87158199999976,130.0,134.48730499999965
383,134.3588869999994,133.84619099999964,146.2822270000006,105.25634799999989,122.94873000000007,112.43603499999972,159.48730499999965,154.7436520000001,168.3334960000002,110.64111300000059,198.84619099999964,135.6411130000006,128.3334960000002,133.58984400000008
