,EEG.AF3,EEG.F7,EEG.F3,EEG.FC5,EEG.T7,EEG.P7,EEG.O1,EEG.O2,EEG.P8,EEG.T8,EEG.FC6,EEG.F4,EEG.F8,EEG.AF4
0,178.58984400000008,173.7177729999994,165.0,224.23095699999976,163.20507799999996,117.56396500000028,171.2822270000006,170.6411130000006,168.9741210000002,162.94873000000007,177.82031300000017,149.23095699999976,177.82031300000017,178.58984400000008
1,171.0258789999998,169.48730499999965,162.17968800000017,217.05126999999993,165.6411130000006,118.3334960000002,163.7177729999994,165.76904300000024,162.43603499999972,155.2563479999999,175.2563479999999,144.61523400000078,169.10253900000043,171.53857400000015
2,164.3588869999994,169.87158199999976,159.61523400000078,213.20507799999996,167.94873000000007,118.7177729999994,157.94873000000007,162.43603499999972,159.87158199999976,150.51269500000035,173.58984400000008,140.6411130000006,162.82031300000017,165.2563479999999
3,161.2822270000006,172.3076170000004,157.82031300000017,212.3076170000004,166.53857400000015,118.7177729999994,156.41015599999992,160.76904300000024,161.6665039999998,149.23095699999976,173.7177729999994,139.3588869999994,161.15380900000036,162.05126999999993
4,161.79492200000004,172.17968800000017,156.41015599999992,212.05126999999993,159.3588869999994,118.3334960000002,157.82031300000017,159.3588869999994,163.0771479999994,148.0771479999994,174.48730499999965,140.89746099999957,161.6665039999998,161.41015599999992
5,164.7436520000001,168.20507799999996,155.76904300000024,211.41015599999992,149.10253900000043,118.20507799999996,159.61523400000078,157.6923829999996,160.51269500000035,144.7436520000001,175.12841800000024,143.46142599999985,160.89746099999957,162.17968800000017
6,169.3588869999994,164.23095699999976,157.94873000000007,212.17968800000017,142.6923829999996,118.46142599999985,160.6411130000006,157.82031300000017,155.76904300000024,141.41015599999992,176.79492200000004,146.0258789999998,159.7436520000001,164.48730499999965
7,175.76904300000024,167.05126999999993,164.48730499999965,216.79492200000004,146.41015599999992,118.9741210000002,162.05126999999993,162.17968800000017,154.3588869999994,144.48730499999965,181.2822270000006,148.46142599999985,163.3334960000002,170.51269500000035
8,183.58984400000008,179.23095699999976,174.61523400000078,225.2563479999999,160.6411130000006,119.23095699999976,165.0,170.2563479999999,159.61523400000078,157.82031300000017,189.10253900000043,150.76904300000024,174.7436520000001,180.89746099999957
9,191.0258789999998,195.89746099999957,184.10253900000043,234.3588869999994,178.84619099999964,118.84619099999964,169.23095699999976,178.20507799999996,168.84619099999964,177.3076170000004,197.82031300000017,152.56396500000028,190.2563479999999,193.0771479999994
10,195.12841800000024,208.0771479999994,188.20507799999996,239.23095699999976,191.6665039999998,117.69238299999961,171.9228520000006,180.6411130000006,176.6665039999998,192.43603499999972,203.3334960000002,152.94873000000007,201.15380900000036,202.05126999999993
11,193.7177729999994,208.84619099999964,184.7436520000001,236.9228520000006,192.82031300000017,116.6665039999998,170.51269500000035,175.6411130000006,178.58984400000008,194.3588869999994,202.3076170000004,151.53857400000015,200.2563479999999,202.82031300000017
12,186.53857400000015,198.20507799999996,175.51269500000035,228.84619099999964,183.84619099999964,116.2822270000006,164.7436520000001,165.89746099999957,174.48730499999965,182.05126999999993,194.23095699999976,148.7177729999994,187.56396500000028,194.7436520000001
13,176.15380900000036,182.3076170000004,165.38476599999922,219.48730499999965,171.15380900000036,116.41015599999992,157.17968800000017,157.05126999999993,167.43603499999972,163.3334960000002,181.9228520000006,145.76904300000024,170.38476599999922,181.41015599999992
14,165.89746099999957,168.0771479999994,158.84619099999964,213.58984400000008,160.6411130000006,116.53857400000015,151.0258789999998,153.58984400000008,161.0258789999998,147.82031300000017,169.61523400000078,144.23095699999976,157.43603499999972,168.58984400000008
15,158.3334960000002,158.46142599999985,157.3076170000004,211.9228520000006,152.94873000000007,115.76904300000024,147.94873000000007,155.6411130000006,156.53857400000015,140.76904300000024,161.79492200000004,144.48730499999965,152.43603499999972,160.6411130000006
16,154.87158199999976,152.17968800000017,159.48730499999965,211.9228520000006,146.9228520000006,114.61523400000078,148.20507799999996,160.12841800000024,153.9741210000002,140.76904300000024,161.2822270000006,145.89746099999957,153.84619099999964,158.0771479999994
17,155.51269500000035,148.58984400000008,163.20507799999996,210.6411130000006,142.6923829999996,114.23095699999976,150.76904300000024,163.84619099999964,152.82031300000017,143.7177729999994,167.17968800000017,147.17968800000017,157.05126999999993,158.84619099999964
18,159.23095699999976,149.61523400000078,166.15380900000036,208.58984400000008,142.94873000000007,115.0,153.9741210000002,164.61523400000078,153.58984400000008,146.41015599999992,175.2563479999999,147.43603499999972,159.23095699999976,160.6411130000006
19,163.46142599999985,156.79492200000004,166.79492200000004,208.84619099999964,148.58984400000008,116.53857400000015,156.0258789999998,162.43603499999972,156.2822270000006,148.84619099999964,180.12841800000024,146.79492200000004,160.2563479999999,162.3076170000004
20,165.76904300000024,166.79492200000004,165.2563479999999,213.20507799999996,157.6923829999996,117.82031300000017,156.15380900000036,159.10253900000043,159.7436520000001,152.17968800000017,178.84619099999964,145.89746099999957,161.79492200000004,163.58984400000008
21,165.6411130000006,173.0771479999994,163.0771479999994,220.2563479999999,166.6665039999998,118.20507799999996,155.51269500000035,158.20507799999996,162.3076170000004,157.05126999999993,173.3334960000002,145.51269500000035,164.87158199999976,163.9741210000002
22,165.2563479999999,171.53857400000015,162.6923829999996,226.2822270000006,172.3076170000004,118.0771479999994,156.9228520000006,162.56396500000028,163.46142599999985,162.82031300000017,168.58984400000008,146.2822270000006,168.84619099999964,163.9741210000002
23,167.05126999999993,164.61523400000078,165.2563479999999,228.46142599999985,173.7177729999994,117.94873000000007,162.3076170000004,171.9228520000006,164.87158199999976,167.56396500000028,168.84619099999964,148.3334960000002,172.17968800000017,164.48730499999965
24,171.9228520000006,159.48730499999965,169.87158199999976,227.05126999999993,171.53857400000015,118.20507799999996,170.6411130000006,181.6665039999998,167.82031300000017,169.87158199999976,174.23095699999976,150.6411130000006,173.20507799999996,165.51269500000035
25,176.41015599999992,161.6665039999998,173.20507799999996,223.9741210000002,167.3076170000004,118.46142599999985,177.3076170000004,185.38476599999922,170.89746099999957,168.84619099999964,180.0,151.6665039999998,169.7436520000001,166.0258789999998
26,176.2822270000006,171.15380900000036,172.43603499999972,221.15380900000036,163.20507799999996,118.46142599999985,177.05126999999993,179.23095699999976,169.48730499999965,164.61523400000078,179.23095699999976,150.12841800000024,161.2822270000006,164.7436520000001
27,170.76904300000024,184.10253900000043,167.94873000000007,220.2563479999999,161.6665039999998,118.20507799999996,169.48730499999965,165.89746099999957,161.41015599999992,158.3334960000002,169.7436520000001,146.6665039999998,149.23095699999976,162.05126999999993
28,164.7436520000001,197.43603499999972,163.0771479999994,222.6923829999996,165.38476599999922,117.69238299999961,160.51269500000035,153.9741210000002,150.6411130000006,152.43603499999972,156.53857400000015,143.3334960000002,137.56396500000028,160.51269500000035
29,164.3588869999994,210.12841800000024,161.79492200000004,229.10253900000043,173.58984400000008,117.43603499999972,157.56396500000028,150.6411130000006,144.61523400000078,148.9741210000002,147.17968800000017,142.56396500000028,129.3588869999994,162.3076170000004
30,170.12841800000024,221.6665039999998,164.23095699999976,237.3076170000004,181.9228520000006,117.43603499999972,162.6923829999996,156.2822270000006,147.43603499999972,147.6923829999996,144.7436520000001,143.46142599999985,124.23095699999976,165.89746099999957
31,176.0258789999998,231.2822270000006,166.41015599999992,242.94873000000007,183.7177729999994,117.43603499999972,170.0,163.46142599999985,155.2563479999999,146.0258789999998,145.51269500000035,143.58984400000008,118.3334960000002,166.9228520000006
32,175.76904300000024,237.82031300000017,164.23095699999976,243.46142599999985,176.79492200000004,117.30761700000039,172.05126999999993,164.23095699999976,159.10253900000043,141.15380900000036,142.94873000000007,140.51269500000035,108.20507799999996,162.17968800000017
33,169.23095699999976,242.17968800000017,158.3334960000002,240.6411130000006,165.51269500000035,117.43603499999972,166.0258789999998,156.0258789999998,153.58984400000008,133.58984400000008,135.2563479999999,135.12841800000024,95.0,153.7177729999994
34,162.6923829999996,247.43603499999972,153.3334960000002,239.7436520000001,158.84619099999964,118.0771479999994,156.79492200000004,144.7436520000001,142.05126999999993,126.9228520000006,126.2822270000006,130.38476599999922,83.0771479999994,147.17968800000017
35,162.6923829999996,257.3076170000004,153.58984400000008,244.61523400000078,163.46142599999985,119.48730499999965,151.41015599999992,138.58984400000008,133.3334960000002,124.87158199999976,121.53857400000015,129.3588869999994,76.6665039999998,147.3076170000004
36,170.2563479999999,272.4360349999997,159.48730499999965,254.3588869999994,177.56396500000028,120.64111300000059,153.9741210000002,141.2822270000006,133.84619099999964,127.56396500000028,122.82031300000017,132.05126999999993,75.38476599999922,153.84619099999964
37,179.61523400000078,288.0771479999994,166.0258789999998,263.5898440000001,191.15380900000036,120.64111300000059,161.0258789999998,149.10253900000043,141.41015599999992,130.89746099999957,126.2822270000006,135.51269500000035,74.61523400000078,160.89746099999957
38,183.3334960000002,296.15380900000036,167.3076170000004,266.53857400000015,193.7177729999994,119.35888699999941,165.6411130000006,154.10253900000043,147.6923829999996,129.7436520000001,125.76904300000024,136.6665039999998,68.46142599999985,162.05126999999993
39,177.82031300000017,291.4101559999999,161.2822270000006,260.76904300000024,182.94873000000007,117.30761700000039,162.82031300000017,151.6665039999998,145.38476599999922,122.56396500000028,119.10253900000043,134.48730499999965,55.51269500000035,154.7436520000001
40,166.2822270000006,276.0258789999998,151.79492200000004,250.12841800000024,167.43603499999972,116.0258789999998,153.9741210000002,143.58984400000008,134.23095699999976,112.43603499999972,108.84619099999964,130.76904300000024,40.76904300000024,142.43603499999972
41,156.0258789999998,259.3588869999994,144.48730499999965,240.51269500000035,157.56396500000028,116.0258789999998,145.38476599999922,135.51269500000035,121.15380900000036,104.48730499999965,99.87158199999976,128.0771479999994,31.666503999999804,131.2822270000006
42,152.3076170000004,250.12841800000024,142.3076170000004,236.53857400000015,157.43603499999972,117.05126999999993,142.05126999999993,131.2822270000006,113.20507799999996,100.76904300000024,95.51269500000035,127.82031300000017,32.69238299999961,126.0258789999998
43,154.87158199999976,250.38476599999922,143.84619099999964,238.0771479999994,162.05126999999993,118.0771479999994,143.7177729999994,130.89746099999957,112.69238299999961,100.12841800000024,95.89746099999957,128.9741210000002,40.897460999999566,127.05126999999993
44,159.3588869999994,255.12841800000024,146.53857400000015,241.41015599999992,164.61523400000078,118.46142599999985,146.41015599999992,132.17968800000017,115.89746099999957,100.25634799999989,98.7177729999994,130.2563479999999,48.846190999999635,130.76904300000024
45,161.6665039999998,258.20507799999996,148.7177729999994,243.46142599999985,163.58984400000008,118.20507799999996,146.53857400000015,133.84619099999964,119.10253900000043,101.2822270000006,102.17968800000017,130.6411130000006,51.53857400000015,133.7177729999994
46,161.6665039999998,257.82031300000017,151.2822270000006,243.9741210000002,163.7177729999994,117.56396500000028,144.87158199999976,136.41015599999992,121.79492200000004,105.76904300000024,106.41015599999992,130.76904300000024,50.64111300000059,135.89746099999957
47,162.82031300000017,257.05126999999993,155.51269500000035,245.0,170.2563479999999,116.9228520000006,145.38476599999922,140.51269500000035,127.30761700000039,115.64111300000059,112.17968800000017,131.9228520000006,51.53857400000015,140.0
48,167.3076170000004,259.23095699999976,161.0258789999998,247.94873000000007,182.56396500000028,116.41015599999992,150.76904300000024,145.38476599999922,136.53857400000015,127.94873000000007,118.0771479999994,133.9741210000002,57.30761700000039,146.79492200000004
49,172.6923829999996,263.5898440000001,164.48730499999965,250.76904300000024,193.20507799999996,116.53857400000015,158.0771479999994,148.58984400000008,145.38476599999922,135.51269500000035,120.51269500000035,135.51269500000035,64.35888699999941,152.56396500000028
50,174.3588869999994,266.4101559999999,163.20507799999996,250.0,195.6411130000006,116.79492200000004,162.17968800000017,148.46142599999985,148.58984400000008,132.82031300000017,117.30761700000039,135.2563479999999,66.0258789999998,152.82031300000017
51,171.2822270000006,265.12841800000024,158.7177729999994,244.61523400000078,189.87158199999976,117.17968800000017,161.41015599999992,145.51269500000035,145.2563479999999,121.9228520000006,110.89746099999957,133.58984400000008,60.12841800000024,147.82031300000017
52,166.79492200000004,261.79492200000004,155.6411130000006,238.7177729999994,182.82031300000017,117.43603499999972,158.84619099999964,142.94873000000007,139.61523400000078,111.9228520000006,107.05126999999993,132.05126999999993,51.153809000000365,142.3076170000004
53,165.0,259.87158199999976,157.05126999999993,237.05126999999993,180.76904300000024,117.05126999999993,158.9741210000002,143.84619099999964,137.17968800000017,111.41015599999992,108.9741210000002,132.3076170000004,46.153809000000365,141.0258789999998
54,166.2822270000006,260.12841800000024,161.79492200000004,240.51269500000035,183.20507799999996,116.53857400000015,162.82031300000017,148.20507799999996,139.23095699999976,119.74365200000011,114.10253900000043,133.9741210000002,48.0771479999994,143.84619099999964
55,167.82031300000017,259.48730499999965,165.0,243.9741210000002,184.3588869999994,116.0258789999998,166.9228520000006,152.6923829999996,142.82031300000017,129.10253900000043,117.17968800000017,135.38476599999922,54.102539000000434,146.53857400000015
56,166.0258789999998,254.48730499999965,163.46142599999985,241.9228520000006,179.23095699999976,116.0258789999998,166.9228520000006,153.58984400000008,143.7177729999994,130.76904300000024,115.12841800000024,135.0,58.333496000000196,144.10253900000043
57,159.3588869999994,244.3588869999994,157.43603499999972,232.94873000000007,168.58984400000008,116.41015599999992,160.89746099999957,149.61523400000078,140.51269500000035,123.7177729999994,109.87158199999976,133.0771479999994,56.9228520000006,136.15380900000036
58,149.7436520000001,233.7177729999994,150.12841800000024,221.41015599999992,159.3588869999994,117.17968800000017,151.2822270000006,143.0771479999994,134.7436520000001,114.10253900000043,105.76904300000024,130.76904300000024,50.76904300000024,126.41015599999992
59,141.79492200000004,228.46142599999985,145.38476599999922,214.48730499999965,158.7177729999994,117.82031300000017,143.46142599999985,137.94873000000007,129.48730499999965,109.87158199999976,105.38476599999922,129.61523400000078,44.87158199999976,120.64111300000059
60,140.2563479999999,232.05126999999993,145.0,216.53857400000015,168.7177729999994,118.20507799999996,141.9228520000006,137.05126999999993,127.05126999999993,113.58984400000008,107.82031300000017,130.0,44.102539000000434,121.9228520000006
61,146.0258789999998,242.43603499999972,147.56396500000028,226.79492200000004,184.3588869999994,118.20507799999996,147.56396500000028,141.0258789999998,128.46142599999985,121.2822270000006,110.51269500000035,131.2822270000006,49.23095699999976,128.7177729999994
62,155.51269500000035,252.82031300000017,150.76904300000024,239.23095699999976,196.41015599999992,117.56396500000028,156.0258789999998,147.17968800000017,132.6923829999996,126.2822270000006,111.15380900000036,132.43603499999972,55.76904300000024,135.6411130000006
63,162.17968800000017,256.79492200000004,152.05126999999993,246.15380900000036,198.20507799999996,116.15380900000036,161.79492200000004,152.3076170000004,138.0771479999994,125.25634799999989,110.0,132.82031300000017,58.333496000000196,137.82031300000017
64,161.9228520000006,252.6923829999996,150.76904300000024,244.10253900000043,189.3588869999994,114.10253900000043,162.17968800000017,153.20507799999996,142.43603499999972,120.25634799999989,108.46142599999985,131.9228520000006,55.897460999999566,134.3588869999994
65,156.53857400000015,244.48730499999965,148.58984400000008,236.2822270000006,175.6411130000006,112.17968800000017,158.84619099999964,149.3588869999994,144.48730499999965,117.05126999999993,108.0771479999994,130.51269500000035,52.05126999999993,129.3588869999994
66,150.76904300000024,236.53857400000015,147.17968800000017,228.9741210000002,164.48730499999965,111.41015599999992,155.0,142.43603499999972,143.9741210000002,119.10253900000043,108.7177729999994,129.23095699999976,51.025878999999804,127.43603499999972
67,147.6923829999996,230.76904300000024,146.9228520000006,225.89746099999957,160.0,112.56396500000028,152.05126999999993,135.12841800000024,140.38476599999922,123.7177729999994,108.0771479999994,128.46142599999985,53.0771479999994,129.3588869999994
68,146.79492200000004,226.0258789999998,146.79492200000004,226.41015599999992,160.89746099999957,115.25634799999989,148.58984400000008,129.87158199999976,133.9741210000002,124.61523400000078,104.23095699999976,127.82031300000017,55.0,131.53857400000015
69,146.2822270000006,222.43603499999972,146.41015599999992,227.56396500000028,163.46142599999985,118.0771479999994,144.61523400000078,128.7177729999994,127.17968800000017,119.23095699999976,99.23095699999976,127.30761700000039,54.87158199999976,131.2822270000006
70,146.6665039999998,223.0771479999994,147.43603499999972,227.82031300000017,165.76904300000024,119.23095699999976,142.43603499999972,132.82031300000017,124.35888699999941,112.69238299999961,98.58984400000008,128.0771479999994,54.48730499999965,130.0
71,149.10253900000043,230.51269500000035,151.15380900000036,227.6923829999996,167.43603499999972,118.3334960000002,145.2563479999999,141.41015599999992,127.94873000000007,112.56396500000028,105.64111300000059,130.89746099999957,57.17968800000017,131.53857400000015
72,153.46142599999985,241.9228520000006,156.0258789999998,227.56396500000028,168.20507799999996,116.0258789999998,152.82031300000017,150.76904300000024,136.15380900000036,120.51269500000035,117.05126999999993,134.61523400000078,63.7177729999994,136.15380900000036
73,156.6665039999998,248.58984400000008,158.46142599999985,225.6411130000006,166.53857400000015,113.84619099999964,160.0,155.6411130000006,143.0771479999994,129.87158199999976,124.35888699999941,136.9228520000006,69.48730499999965,139.7436520000001
74,156.0258789999998,243.9741210000002,156.15380900000036,220.2563479999999,162.17968800000017,112.94873000000007,161.53857400000015,153.3334960000002,143.7177729999994,132.3076170000004,121.53857400000015,136.2822270000006,69.61523400000078,138.20507799999996
75,152.05126999999993,230.51269500000035,150.76904300000024,212.94873000000007,157.94873000000007,113.46142599999985,156.41015599999992,146.79492200000004,138.7177729999994,125.76904300000024,110.89746099999957,133.20507799999996,63.589844000000085,132.17968800000017
76,147.94873000000007,217.82031300000017,146.6665039999998,208.20507799999996,157.94873000000007,114.87158199999976,149.3588869999994,142.56396500000028,133.3334960000002,116.2822270000006,100.76904300000024,130.51269500000035,55.76904300000024,126.53857400000015
77,146.6665039999998,214.7436520000001,146.53857400000015,209.61523400000078,162.05126999999993,116.2822270000006,146.2822270000006,144.23095699999976,131.9228520000006,111.53857400000015,97.82031300000017,130.2563479999999,51.2822270000006,125.0
78,147.6923829999996,221.15380900000036,149.61523400000078,216.15380900000036,165.76904300000024,116.9228520000006,148.9741210000002,149.10253900000043,133.58984400000008,113.7177729999994,101.0258789999998,132.05126999999993,51.410155999999915,127.43603499999972
79,149.23095699999976,228.58984400000008,152.05126999999993,222.43603499999972,164.10253900000043,117.05126999999993,154.23095699999976,151.15380900000036,133.84619099999964,118.0771479999994,104.74365200000011,133.84619099999964,53.7177729999994,129.48730499999965
80,149.3588869999994,229.3588869999994,151.6665039999998,223.46142599999985,157.3076170000004,117.05126999999993,156.53857400000015,146.6665039999998,130.51269500000035,119.61523400000078,105.0,133.7177729999994,55.25634799999989,128.20507799999996
81,148.58984400000008,223.3334960000002,149.10253900000043,219.48730499999965,150.51269500000035,117.05126999999993,153.84619099999964,138.0771479999994,126.15380900000036,117.43603499999972,102.94873000000007,131.6665039999998,55.897460999999566,124.35888699999941
82,149.48730499999965,216.41015599999992,148.0771479999994,215.38476599999922,148.0771479999994,116.9228520000006,148.20507799999996,131.9228520000006,124.74365200000011,113.9741210000002,102.69238299999961,129.7436520000001,57.69238299999961,121.79492200000004
83,153.46142599999985,214.61523400000078,150.89746099999957,215.76904300000024,150.12841800000024,116.6665039999998,144.48730499999965,133.46142599999985,127.43603499999972,111.79492200000004,106.15380900000036,130.2563479999999,62.43603499999972,123.84619099999964
84,159.3588869999994,218.58984400000008,156.79492200000004,221.79492200000004,152.56396500000028,116.41015599999992,146.0258789999998,141.79492200000004,131.15380900000036,111.41015599999992,111.53857400000015,133.20507799999996,68.7177729999994,129.7436520000001
85,162.56396500000028,223.9741210000002,161.2822270000006,228.84619099999964,152.05126999999993,116.41015599999992,151.53857400000015,150.51269500000035,131.6665039999998,111.9228520000006,113.9741210000002,135.76904300000024,73.0771479999994,134.7436520000001
86,159.23095699999976,225.38476599999922,159.87158199999976,230.38476599999922,148.84619099999964,116.41015599999992,155.89746099999957,152.94873000000007,127.69238299999961,112.30761700000039,110.64111300000059,134.7436520000001,72.05126999999993,134.10253900000043
87,149.48730499999965,221.2822270000006,151.41015599999992,223.20507799999996,145.6411130000006,116.41015599999992,155.0,147.43603499999972,122.05126999999993,112.43603499999972,103.46142599999985,129.3588869999994,65.89746099999957,126.41015599999992
88,138.3334960000002,214.48730499999965,139.87158199999976,211.41015599999992,144.7436520000001,116.0258789999998,148.84619099999964,137.6923829999996,118.7177729999994,113.3334960000002,97.05126999999993,122.30761700000039,58.846190999999635,116.2822270000006
89,131.15380900000036,208.58984400000008,131.2822270000006,202.43603499999972,145.38476599999922,115.25634799999989,141.53857400000015,129.7436520000001,119.61523400000078,115.38476599999922,95.51269500000035,117.43603499999972,54.87158199999976,109.74365200000011
90,129.7436520000001,204.61523400000078,129.10253900000043,200.76904300000024,144.7436520000001,114.48730499999965,136.0258789999998,126.15380900000036,121.15380900000036,115.76904300000024,97.69238299999961,116.53857400000015,54.74365200000011,108.84619099999964
91,131.2822270000006,200.38476599999922,131.79492200000004,204.3588869999994,141.41015599999992,113.9741210000002,132.56396500000028,125.64111300000059,118.84619099999964,111.0258789999998,99.23095699999976,118.84619099999964,55.51269500000035,111.0258789999998
92,132.6923829999996,195.51269500000035,136.2822270000006,208.0771479999994,138.0771479999994,114.23095699999976,130.76904300000024,125.38476599999922,112.17968800000017,101.79492200000004,97.05126999999993,122.43603499999972,55.51269500000035,112.94873000000007
93,134.23095699999976,192.82031300000017,140.76904300000024,209.10253900000043,139.48730499999965,115.0,131.2822270000006,124.61523400000078,106.15380900000036,94.23095699999976,93.3334960000002,126.2822270000006,56.2822270000006,114.48730499999965
94,138.0771479999994,196.15380900000036,144.61523400000078,207.82031300000017,147.3076170000004,115.89746099999957,135.12841800000024,125.12841800000024,106.2822270000006,95.0,92.56396500000028,129.7436520000001,60.38476599999922,117.56396500000028
95,144.10253900000043,204.7436520000001,147.3076170000004,206.53857400000015,157.17968800000017,116.15380900000036,141.2822270000006,127.82031300000017,113.46142599999985,104.48730499999965,96.79492200000004,131.53857400000015,67.05126999999993,122.82031300000017
96,149.10253900000043,212.17968800000017,148.0771479999994,206.15380900000036,161.53857400000015,116.0258789999998,146.2822270000006,131.15380900000036,121.9228520000006,115.89746099999957,102.69238299999961,130.51269500000035,71.9228520000006,127.05126999999993
97,149.48730499999965,211.9228520000006,146.6665039999998,206.41015599999992,156.2822270000006,115.89746099999957,146.9228520000006,132.3076170000004,124.61523400000078,119.87158199999976,105.25634799999989,126.6665039999998,70.38476599999922,126.6665039999998
98,145.12841800000024,203.3334960000002,144.61523400000078,207.17968800000017,145.2563479999999,116.15380900000036,143.20507799999996,130.76904300000024,118.7177729999994,113.46142599999985,102.30761700000039,121.6665039999998,63.0771479999994,121.79492200000004
99,139.7436520000001,193.20507799999996,143.84619099999964,208.3334960000002,137.17968800000017,116.9228520000006,138.58984400000008,128.58984400000008,109.35888699999941,101.79492200000004,97.05126999999993,118.58984400000008,55.38476599999922,116.79492200000004
100,137.17968800000017,189.3588869999994,144.87158199999976,209.87158199999976,137.6923829999996,117.17968800000017,136.9228520000006,128.3334960000002,104.48730499999965,93.58984400000008,93.9741210000002,118.7177729999994,52.69238299999961,115.51269500000035
101,138.20507799999996,193.7177729999994,146.15380900000036,210.38476599999922,144.7436520000001,116.53857400000015,138.84619099999964,130.6411130000006,107.94873000000007,93.46142599999985,95.0,121.6665039999998,56.410155999999915,118.46142599999985
102,141.53857400000015,202.3076170000004,146.2822270000006,209.10253900000043,151.0258789999998,115.25634799999989,141.6665039999998,133.9741210000002,116.6665039999998,100.0,98.58984400000008,125.25634799999989,63.333496000000196,122.94873000000007
103,145.2563479999999,209.61523400000078,146.0258789999998,207.17968800000017,152.56396500000028,114.48730499999965,142.43603499999972,136.0258789999998,125.12841800000024,108.0771479999994,102.82031300000017,127.82031300000017,70.25634799999989,127.17968800000017
104,149.87158199999976,213.46142599999985,148.0771479999994,207.94873000000007,151.79492200000004,114.87158199999976,141.53857400000015,136.6665039999998,130.51269500000035,114.35888699999941,107.69238299999961,129.3588869999994,76.53857400000015,131.53857400000015
105,156.41015599999992,216.15380900000036,154.10253900000043,213.46142599999985,154.10253900000043,116.41015599999992,142.05126999999993,137.82031300000017,134.3588869999994,118.3334960000002,113.0771479999994,131.15380900000036,83.20507799999996,137.6923829999996
106,163.58984400000008,218.84619099999964,161.79492200000004,221.79492200000004,159.87158199999976,117.82031300000017,145.76904300000024,140.0,137.43603499999972,120.64111300000059,117.94873000000007,133.84619099999964,89.48730499999965,145.12841800000024
107,167.6923829999996,219.7436520000001,165.89746099999957,227.05126999999993,163.9741210000002,118.46142599999985,150.38476599999922,140.89746099999957,137.3076170000004,120.25634799999989,118.9741210000002,136.2822270000006,91.9228520000006,149.7436520000001
108,164.7436520000001,215.2563479999999,162.05126999999993,224.23095699999976,160.38476599999922,118.20507799999996,151.15380900000036,137.05126999999993,130.2563479999999,116.15380900000036,114.35888699999941,136.2822270000006,87.43603499999972,147.43603499999972
109,155.2563479999999,205.51269500000035,152.05126999999993,214.23095699999976,150.0,117.56396500000028,145.38476599999922,128.7177729999994,117.05126999999993,109.10253900000043,106.2822270000006,133.20507799999996,77.69238299999961,138.46142599999985
110,145.12841800000024,195.51269500000035,143.0771479999994,204.48730499999965,139.10253900000043,117.17968800000017,136.0258789999998,121.15380900000036,104.87158199999976,102.43603499999972,100.51269500000035,129.10253900000043,69.10253900000043,128.58984400000008
111,141.0258789999998,191.2822270000006,141.79492200000004,201.9228520000006,134.23095699999976,117.30761700000039,129.61523400000078,119.87158199999976,101.53857400000015,100.0,102.05126999999993,127.30761700000039,68.3334960000002,125.51269500000035
112,145.6411130000006,195.12841800000024,149.10253900000043,208.20507799999996,136.79492200000004,117.56396500000028,130.51269500000035,125.76904300000024,109.87158199999976,103.3334960000002,110.76904300000024,129.48730499999965,76.15380900000036,132.17968800000017
113,155.2563479999999,203.7177729999994,159.7436520000001,218.46142599999985,143.46142599999985,117.69238299999961,137.82031300000017,135.12841800000024,124.87158199999976,111.0258789999998,121.41015599999992,134.10253900000043,87.05126999999993,144.23095699999976
114,162.6923829999996,211.2822270000006,166.2822270000006,225.89746099999957,148.9741210000002,117.17968800000017,145.2563479999999,141.6665039999998,138.0771479999994,118.9741210000002,126.9228520000006,137.56396500000028,92.94873000000007,153.46142599999985
115,162.82031300000017,212.6923829999996,164.23095699999976,226.6665039999998,150.76904300000024,116.15380900000036,146.41015599999992,141.41015599999992,142.6923829999996,123.58984400000008,124.10253900000043,137.3076170000004,89.48730499999965,153.46142599999985
116,155.38476599999922,206.6665039999998,154.87158199999976,221.15380900000036,148.84619099999964,115.51269500000035,139.3588869999994,134.7436520000001,138.0771479999994,123.58984400000008,114.35888699999941,133.20507799999996,78.58984400000008,144.3588869999994
117,145.51269500000035,196.53857400000015,144.23095699999976,213.58984400000008,145.12841800000024,115.25634799999989,129.3588869999994,126.2822270000006,128.84619099999964,120.76904300000024,103.46142599999985,128.0771479999994,67.69238299999961,131.79492200000004
118,140.0,188.84619099999964,138.84619099999964,209.23095699999976,142.94873000000007,115.51269500000035,124.87158199999976,122.05126999999993,122.30761700000039,119.23095699999976,97.69238299999961,125.51269500000035,63.974121000000196,123.58984400000008
119,142.82031300000017,189.10253900000043,141.2822270000006,212.17968800000017,145.0,116.15380900000036,131.2822270000006,125.51269500000035,124.23095699999976,122.94873000000007,100.25634799999989,127.43603499999972,70.51269500000035,124.87158199999976
120,153.20507799999996,197.82031300000017,149.48730499999965,221.53857400000015,151.2822270000006,117.05126999999993,146.53857400000015,135.2563479999999,134.87158199999976,132.3076170000004,109.87158199999976,132.94873000000007,83.84619099999964,135.12841800000024
121,165.2563479999999,209.3588869999994,157.94873000000007,232.3076170000004,158.20507799999996,117.82031300000017,161.6665039999998,145.38476599999922,147.82031300000017,143.58984400000008,121.41015599999992,138.84619099999964,96.6665039999998,148.0771479999994
122,171.9228520000006,215.38476599999922,162.05126999999993,237.6923829999996,160.38476599999922,118.20507799999996,167.17968800000017,149.61523400000078,153.84619099999964,150.2563479999999,129.23095699999976,141.53857400000015,101.9228520000006,156.2822270000006
123,168.84619099999964,210.38476599999922,159.23095699999976,232.94873000000007,155.12841800000024,117.82031300000017,158.9741210000002,144.7436520000001,147.17968800000017,147.05126999999993,128.9741210000002,138.84619099999964,96.2822270000006,154.61523400000078
124,157.3076170000004,195.76904300000024,150.2563479999999,218.84619099999964,144.48730499999965,116.41015599999992,141.53857400000015,132.94873000000007,129.7436520000001,133.20507799999996,119.74365200000011,131.2822270000006,81.9228520000006,143.7177729999994
125,143.46142599999985,179.61523400000078,139.23095699999976,201.79492200000004,134.23095699999976,114.87158199999976,124.48730499999965,120.0,110.38476599999922,114.10253900000043,105.64111300000059,122.56396500000028,66.0258789999998,129.10253900000043
126,134.87158199999976,171.0258789999998,131.53857400000015,190.0,130.12841800000024,113.9741210000002,116.41015599999992,112.05126999999993,99.23095699999976,98.9741210000002,94.23095699999976,117.05126999999993,56.53857400000015,118.7177729999994
127,135.2563479999999,174.61523400000078,130.38476599999922,188.84619099999964,133.84619099999964,114.48730499999965,119.23095699999976,111.79492200000004,101.41015599999992,95.25634799999989,91.79492200000004,116.9228520000006,57.94873000000007,117.43603499999972
128,142.3076170000004,186.6665039999998,134.87158199999976,197.05126999999993,142.3076170000004,115.64111300000059,127.82031300000017,118.0771479999994,114.48730499999965,103.7177729999994,98.46142599999985,120.12841800000024,68.7177729999994,124.23095699999976
129,149.7436520000001,198.84619099999964,141.2822270000006,207.82031300000017,149.7436520000001,116.53857400000015,135.38476599999922,126.6665039999998,130.38476599999922,118.3334960000002,108.58984400000008,122.82031300000017,82.17968800000017,133.46142599999985
130,152.56396500000028,203.9741210000002,145.89746099999957,214.23095699999976,151.9228520000006,116.15380900000036,137.6923829999996,133.20507799999996,140.38476599999922,131.53857400000015,116.2822270000006,122.69238299999961,91.0258789999998,138.84619099999964
131,150.2563479999999,200.76904300000024,146.79492200000004,213.9741210000002,149.10253900000043,114.74365200000011,136.0258789999998,135.6411130000006,141.0258789999998,138.46142599999985,118.46142599999985,120.89746099999957,92.17968800000017,137.94873000000007
132,146.2822270000006,193.9741210000002,145.0,210.51269500000035,145.2563479999999,113.7177729999994,135.12841800000024,134.87158199999976,135.76904300000024,139.10253900000043,116.6665039999998,120.25634799999989,87.82031300000017,132.82031300000017
133,143.9741210000002,189.61523400000078,142.94873000000007,208.7177729999994,144.48730499999965,113.7177729999994,137.82031300000017,133.46142599999985,130.89746099999957,136.15380900000036,113.9741210000002,122.56396500000028,83.3334960000002,128.20507799999996
134,144.10253900000043,189.3588869999994,141.53857400000015,210.2563479999999,146.9228520000006,114.87158199999976,142.82031300000017,133.0771479999994,130.6411130000006,131.6665039999998,112.17968800000017,126.53857400000015,81.9228520000006,127.56396500000028
135,144.10253900000043,189.87158199999976,140.0,211.6665039999998,149.48730499999965,116.53857400000015,146.2822270000006,132.94873000000007,133.84619099999964,126.6665039999998,111.15380900000036,129.3588869999994,83.46142599999985,129.7436520000001
136,141.6665039999998,187.05126999999993,137.43603499999972,208.58984400000008,149.3588869999994,117.82031300000017,145.12841800000024,132.05126999999993,136.6665039999998,122.43603499999972,110.12841800000024,128.46142599999985,85.89746099999957,131.79492200000004
137,137.3076170000004,180.51269500000035,134.3588869999994,201.15380900000036,146.9228520000006,117.94873000000007,140.12841800000024,130.12841800000024,136.41015599999992,120.0,108.7177729999994,124.35888699999941,87.30761700000039,130.6411130000006
138,133.46142599999985,174.10253900000043,132.3076170000004,193.84619099999964,144.3588869999994,117.30761700000039,134.7436520000001,128.20507799999996,133.0771479999994,119.35888699999941,107.17968800000017,119.87158199999976,87.05126999999993,126.53857400000015
139,131.6665039999998,171.9228520000006,131.9228520000006,191.0258789999998,143.3334960000002,116.6665039999998,131.9228520000006,127.56396500000028,128.9741210000002,118.7177729999994,105.89746099999957,117.56396500000028,85.25634799999989,121.2822270000006
140,131.2822270000006,174.10253900000043,132.56396500000028,192.43603499999972,143.0771479999994,116.53857400000015,132.3076170000004,128.20507799999996,126.79492200000004,116.9228520000006,104.74365200000011,117.69238299999961,82.43603499999972,117.30761700000039
141,130.76904300000024,177.17968800000017,132.6923829999996,194.61523400000078,141.79492200000004,116.9228520000006,134.61523400000078,130.12841800000024,127.94873000000007,114.74365200000011,103.9741210000002,119.35888699999941,80.12841800000024,116.15380900000036
142,130.12841800000024,178.0771479999994,132.05126999999993,194.3588869999994,139.48730499999965,117.43603499999972,137.17968800000017,132.43603499999972,131.6665039999998,113.9741210000002,103.7177729999994,120.76904300000024,79.87158199999976,117.82031300000017
143,130.89746099999957,176.15380900000036,131.79492200000004,191.53857400000015,137.82031300000017,117.82031300000017,138.46142599999985,132.94873000000007,134.87158199999976,115.12841800000024,103.58984400000008,121.0258789999998,81.53857400000015,120.64111300000059
144,133.0771479999994,172.56396500000028,132.17968800000017,187.05126999999993,137.17968800000017,117.69238299999961,137.17968800000017,129.10253900000043,133.3334960000002,115.38476599999922,102.05126999999993,119.35888699999941,83.0771479999994,122.43603499999972
145,134.48730499999965,168.20507799999996,132.43603499999972,182.05126999999993,136.2822270000006,116.9228520000006,133.58984400000008,121.15380900000036,125.89746099999957,112.17968800000017,98.3334960000002,117.17968800000017,82.17968800000017,121.2822270000006
146,133.3334960000002,163.3334960000002,131.53857400000015,177.82031300000017,134.10253900000043,116.41015599999992,129.87158199999976,113.0771479999994,116.53857400000015,106.0258789999998,93.20507799999996,116.0258789999998,77.94873000000007,117.56396500000028
147,130.0,157.6923829999996,129.10253900000043,175.0,130.76904300000024,116.53857400000015,128.46142599999985,110.25634799999989,112.05126999999993,100.25634799999989,88.7177729999994,116.9228520000006,72.30761700000039,113.7177729999994
148,126.53857400000015,152.3076170000004,125.51269500000035,173.3334960000002,128.46142599999985,117.94873000000007,130.2563479999999,114.23095699999976,116.2822270000006,98.0771479999994,86.2822270000006,118.58984400000008,68.58984400000008,111.6665039999998
149,124.48730499999965,148.0771479999994,122.05126999999993,172.05126999999993,128.58984400000008,119.35888699999941,132.94873000000007,121.2822270000006,126.53857400000015,100.38476599999922,86.15380900000036,119.35888699999941,68.7177729999994,111.15380900000036
150,124.48730499999965,146.79492200000004,120.0,171.6665039999998,131.6665039999998,119.10253900000043,133.9741210000002,125.51269500000035,135.12841800000024,105.12841800000024,87.69238299999961,118.20507799999996,72.43603499999972,110.89746099999957
151,126.6665039999998,149.7436520000001,120.64111300000059,174.23095699999976,138.0771479999994,116.9228520000006,132.56396500000028,123.9741210000002,136.79492200000004,108.7177729999994,90.51269500000035,116.53857400000015,77.94873000000007,110.64111300000059
152,131.41015599999992,157.94873000000007,124.61523400000078,182.17968800000017,147.56396500000028,114.61523400000078,130.51269500000035,119.74365200000011,132.43603499999972,109.10253900000043,95.25634799999989,116.53857400000015,84.87158199999976,112.56396500000028
153,139.23095699999976,170.12841800000024,131.6665039999998,195.12841800000024,159.3588869999994,114.87158199999976,130.89746099999957,118.84619099999964,127.94873000000007,107.56396500000028,103.46142599999985,119.48730499999965,93.9741210000002,119.35888699999941
154,150.0,182.56396500000028,140.38476599999922,209.61523400000078,171.41015599999992,118.84619099999964,135.51269500000035,125.51269500000035,129.48730499999965,107.69238299999961,116.15380900000036,125.64111300000059,105.89746099999957,130.89746099999957
155,161.79492200000004,191.41015599999992,148.58984400000008,220.76904300000024,181.6665039999998,124.87158199999976,143.84619099999964,138.58984400000008,138.20507799999996,112.56396500000028,132.43603499999972,133.0771479999994,119.74365200000011,144.10253900000043
156,170.76904300000024,193.7177729999994,153.46142599999985,224.7436520000001,190.12841800000024,129.48730499999965,152.56396500000028,151.9228520000006,149.61523400000078,122.17968800000017,148.20507799999996,138.58984400000008,132.05126999999993,153.84619099999964
157,173.0771479999994,189.10253900000043,153.0771479999994,220.38476599999922,198.20507799999996,130.12841800000024,156.41015599999992,157.3076170000004,157.17968800000017,134.7436520000001,158.0771479999994,139.48730499999965,138.58984400000008,156.0258789999998
158,167.43603499999972,179.61523400000078,146.79492200000004,210.6411130000006,206.53857400000015,126.6665039999998,151.79492200000004,151.2822270000006,157.3076170000004,150.76904300000024,160.12841800000024,135.12841800000024,138.0771479999994,150.51269500000035
159,157.6923829999996,169.10253900000043,137.82031300000017,200.6411130000006,210.76904300000024,121.79492200000004,142.17968800000017,138.20507799999996,151.6665039999998,171.53857400000015,158.0771479999994,128.46142599999985,132.94873000000007,141.79492200000004
160,148.58984400000008,158.58984400000008,130.2563479999999,192.43603499999972,200.12841800000024,118.3334960000002,135.6411130000006,126.6665039999998,143.0771479999994,194.10253900000043,157.56396500000028,122.56396500000028,124.10253900000043,133.46142599999985
161,140.51269500000035,144.61523400000078,125.51269500000035,183.20507799999996,169.7436520000001,116.9228520000006,136.0258789999998,121.15380900000036,129.7436520000001,210.38476599999922,158.84619099999964,117.94873000000007,108.58984400000008,124.10253900000043
162,129.7436520000001,124.61523400000078,120.38476599999922,169.61523400000078,135.38476599999922,116.53857400000015,136.9228520000006,116.79492200000004,108.3334960000002,218.84619099999964,155.89746099999957,111.9228520000006,84.23095699999976,109.35888699999941
163,114.48730499999965,103.58984400000008,111.41015599999992,154.10253900000043,127.17968800000017,116.79492200000004,126.0258789999998,105.51269500000035,82.43603499999972,230.12841800000024,144.10253900000043,102.94873000000007,57.30761700000039,88.58984400000008
164,99.61523400000078,91.2822270000006,100.0,144.10253900000043,158.20507799999996,117.56396500000028,101.6665039999998,86.6665039999998,65.64111300000059,257.82031300000017,128.7177729999994,93.3334960000002,41.410155999999915,69.35888699999941
165,94.35888699999941,93.84619099999964,93.46142599999985,145.2563479999999,204.48730499999965,118.58984400000008,80.51269500000035,72.17968800000017,71.79492200000004,301.0258789999998,124.35888699999941,89.74365200000011,46.153809000000365,63.20507799999996
166,105.0,107.05126999999993,99.74365200000011,155.76904300000024,219.87158199999976,118.9741210000002,87.05126999999993,78.9741210000002,98.84619099999964,340.0,142.05126999999993,97.82031300000017,68.20507799999996,76.2822270000006
167,124.74365200000011,116.9228520000006,117.82031300000017,165.51269500000035,172.82031300000017,117.56396500000028,128.7177729999994,110.0,125.12841800000024,350.2563479999999,175.89746099999957,114.74365200000011,89.87158199999976,100.25634799999989
168,133.7177729999994,106.53857400000015,132.3076170000004,160.6411130000006,74.35888699999941,113.9741210000002,179.3588869999994,144.23095699999976,121.6665039999998,321.2822270000006,201.0258789999998,127.17968800000017,87.94873000000007,113.46142599999985
169,114.48730499999965,70.51269500000035,124.87158199999976,135.2563479999999,-21.538574000000153,109.35888699999941,195.6411130000006,149.3588869999994,76.53857400000015,268.9741210000002,191.41015599999992,121.2822270000006,52.17968800000017,96.0258789999998
170,71.0258789999998,27.17968800000017,92.69238299999961,101.41015599999992,-46.79492200000004,106.41015599999992,153.84619099999964,111.6665039999998,11.922852000000603,230.6411130000006,143.20507799999996,96.0258789999998,-0.512695000000349,51.53857400000015
171,31.153809000000365,10.641113000000587,54.74365200000011,84.10253900000043,32.17968800000017,107.94873000000007,75.0,52.82031300000017,-27.948729999999614,240.76904300000024,84.87158199999976,66.6665039999998,-32.564209000000574,9.358886999999413
172,24.871581999999762,41.666503999999804,38.589844000000085,101.0258789999998,177.05126999999993,113.9741210000002,10.897460999999566,15.384765999999217,-12.948729999999614,299.48730499999965,57.82031300000017,53.846190999999635,-15.641113000000132,2.5639650000002803
173,58.589844000000085,104.23095699999976,57.30761700000039,145.6411130000006,293.0771479999994,120.64111300000059,5.641113000000587,28.717772999999397,45.76904300000024,363.3334960000002,85.89746099999957,67.43603499999972,41.9228520000006,39.23095699999976
174,109.87158199999976,155.12841800000024,99.48730499999965,191.2822270000006,299.6152340000008,123.9741210000002,62.56396500000028,84.61523400000078,103.7177729999994,376.2822270000006,154.10253900000043,99.48730499999965,98.9741210000002,95.38476599999922
175,145.76904300000024,159.10253900000043,138.20507799999996,211.9228520000006,195.2563479999999,121.9228520000006,141.6665039999998,144.23095699999976,120.64111300000059,318.5898440000001,217.56396500000028,130.38476599999922,114.48730499999965,133.84619099999964
176,146.53857400000015,117.17968800000017,150.6411130000006,199.48730499999965,58.0771479999994,116.2822270000006,189.10253900000043,166.15380900000036,90.89746099999957,228.20507799999996,231.53857400000015,141.79492200000004,81.0258789999998,132.6923829999996
177,118.84619099999964,64.35888699999941,133.46142599999985,167.3076170000004,-18.846190999999635,110.64111300000059,177.6923829999996,138.0771479999994,44.87158199999976,170.76904300000024,186.15380900000036,129.87158199999976,28.717772999999397,99.48730499999965
178,89.87158199999976,42.69238299999961,105.51269500000035,140.38476599999922,5.3847659999992175,108.3334960000002,126.0258789999998,85.51269500000035,22.30761700000039,187.05126999999993,116.53857400000015,107.05126999999993,1.2822270000006029,64.74365200000011
179,87.30761700000039,72.30761700000039,92.82031300000017,138.9741210000002,101.6665039999998,111.2822270000006,81.15380900000036,53.0771479999994,43.333496000000196,258.9741210000002,76.15380900000036,93.58984400000008,23.205077999999958,60.38476599999922
180,118.3334960000002,139.3588869999994,108.9741210000002,165.6411130000006,205.6411130000006,117.69238299999961,79.35888699999941,69.35888699999941,95.0,326.0258789999998,94.10253900000043,101.6665039999998,82.94873000000007,95.0
181,165.38476599999922,207.56396500000028,145.51269500000035,205.0,268.20507799999996,123.7177729999994,118.0771479999994,124.10253900000043,145.6411130000006,333.84619099999964,152.94873000000007,126.41015599999992,144.23095699999976,148.9741210000002
182,202.05126999999993,245.38476599999922,179.7436520000001,235.38476599999922,280.0,126.15380900000036,165.12841800000024,179.48730499999965,171.15380900000036,277.05126999999993,207.82031300000017,151.53857400000015,175.38476599999922,192.05126999999993
183,213.58984400000008,245.76904300000024,194.7436520000001,244.3588869999994,258.46142599999985,124.61523400000078,190.38476599999922,201.79492200000004,172.3076170000004,198.46142599999985,225.12841800000024,163.20507799999996,170.2563479999999,206.6665039999998
184,203.84619099999964,223.0771479999994,189.48730499999965,232.3076170000004,222.6923829999996,121.15380900000036,187.94873000000007,185.38476599999922,166.2822270000006,149.48730499999965,203.58984400000008,159.10253900000043,147.3076170000004,196.79492200000004
185,185.89746099999957,197.05126999999993,174.10253900000043,207.3076170000004,183.84619099999964,117.56396500000028,170.51269500000035,149.7436520000001,165.2563479999999,148.9741210000002,163.9741210000002,146.79492200000004,128.7177729999994,177.82031300000017
186,167.6923829999996,177.82031300000017,157.43603499999972,177.43603499999972,150.51269500000035,115.0,149.3588869999994,117.17968800000017,164.61523400000078,174.10253900000043,125.89746099999957,133.3334960000002,122.43603499999972,160.38476599999922
187,148.0771479999994,162.82031300000017,139.87158199999976,146.53857400000015,130.0,113.0771479999994,123.9741210000002,95.25634799999989,151.6665039999998,181.53857400000015,93.84619099999964,120.25634799999989,118.58984400000008,142.82031300000017
188,121.53857400000015,143.9741210000002,117.30761700000039,114.10253900000043,123.0771479999994,110.51269500000035,89.35888699999941,76.41015599999992,120.89746099999957,141.53857400000015,59.23095699999976,105.12841800000024,100.51269500000035,117.82031300000017
189,88.58984400000008,118.3334960000002,89.74365200000011,80.0,124.87158199999976,106.6665039999998,49.48730499999965,53.46142599999985,80.25634799999989,62.05126999999993,15.256347999999889,87.30761700000039,62.94873000000007,83.9741210000002
190,57.94873000000007,92.17968800000017,64.35888699999941,47.69238299999961,128.46142599999985,102.17968800000017,17.69238299999961,28.717772999999397,45.64111300000059,-16.28198199999997,-33.974365000000034,70.76904300000024,18.077147999999397,50.12841800000024
191,37.43603499999972,73.0771479999994,47.94873000000007,19.871581999999762,125.51269500000035,98.84619099999964,3.717772999999397,8.974121000000196,26.794922000000042,-53.71801800000003,-77.30761700000039,59.74365200000011,-15.897461000000021,25.897460999999566
192,25.128418000000238,58.974121000000196,39.35888699999941,-5.0,106.2822270000006,97.30761700000039,3.077147999999397,-5.512939000000188,19.871581999999762,-45.76928699999962,-107.05127000000039,53.0771479999994,-33.33325200000036,11.153809000000365
193,12.948730000000069,41.666503999999804,32.05126999999993,-29.8718259999996,68.46142599999985,97.43603499999972,3.2050779999999577,-20.25634799999989,13.205077999999958,-25.1281740000004,-124.61547900000005,47.17968800000017,-43.20507799999996,-1.5385740000001533
194,-2.6923829999996087,18.717772999999397,23.077147999999397,-53.46142599999985,23.589844000000085,97.94873000000007,-2.5639650000002803,-35.89746100000002,0.256347999999889,-28.71801800000003,-136.923096,41.025878999999804,-56.41015600000037,-16.794922000000042
195,-18.461425999999847,-4.230713000000378,15.0,-71.41015600000037,-12.179442999999992,98.20507799999996,-9.8718259999996,-46.025634999999966,-16.025634999999966,-65.1281740000004,-151.41015600000037,36.53857400000015,-74.61547900000005,-32.17944299999999
196,-28.71801800000003,-20.641113000000132,11.410155999999915,-83.58984399999963,-33.974365000000034,98.20507799999996,-11.923095999999987,-45.0,-29.230713000000378,-111.53857400000015,-170.38452099999995,35.0,-91.92309599999999,-42.82055700000001
197,-30.769286999999622,-28.846190999999635,13.333496000000196,-93.46142599999985,-47.948729999999614,98.7177729999994,-6.538574000000153,-35.38452099999995,-35.38452099999995,-136.28198199999997,-189.4870609999998,35.76904300000024,-100.51293900000019,-45.89746100000002
198,-24.61547900000005,-28.461425999999847,18.974121000000196,-102.30761700000039,-55.76928699999962,100.64111300000059,1.7949220000000423,-25.25634799999989,-31.41015600000037,-124.35888699999987,-199.8718259999996,38.20507799999996,-95.51293900000019,-41.025634999999966
199,-12.820557000000008,-18.58984399999963,25.641113000000587,-106.79492200000004,-50.0,103.0771479999994,7.179688000000169,-20.769286999999622,-16.28198199999997,-86.53857400000015,-196.66674799999964,42.05126999999993,-78.97436500000003,-29.74365200000011
200,-0.769043000000238,-2.5639650000002803,30.0,-105.0,-27.69238299999961,104.35888699999941,6.025878999999804,-22.435790999999426,4.743652000000111,-51.28198199999997,-184.4870609999998,46.153809000000365,-62.051270000000386,-17.30761700000039
201,4.487304999999651,9.743652000000111,30.128418000000238,-100.51293900000019,-1.6665039999998044,103.9741210000002,0.38476599999921746,-25.769286999999622,19.230956999999762,-44.8718259999996,-172.820557,48.974121000000196,-59.8718259999996,-11.538574000000153
202,0.12841800000023795,8.846190999999635,26.666503999999804,-98.97436500000003,8.846190999999635,103.3334960000002,-4.358886999999868,-26.153809000000365,17.17968800000017,-72.05127000000039,-168.33325200000036,48.846190999999635,-79.61547900000005,-17.051270000000386
203,-10.897461000000021,-6.666747999999643,21.282227000000603,-103.71801800000003,-3.5898440000000846,103.7177729999994,-5.0,-22.564209000000574,-0.769043000000238,-113.20507799999996,-172.6923829999996,45.76904300000024,-112.43579099999943,-31.41015600000037
204,-22.051270000000386,-27.820557000000008,15.384765999999217,-112.56420900000057,-26.153809000000365,104.23095699999976,-3.4614259999998467,-20.0,-21.666747999999643,-137.43579099999943,-186.02563499999997,40.25634799999989,-137.56420900000057,-47.30761700000039
205,-27.564209000000574,-42.051270000000386,10.128418000000238,-120.25634799999989,-38.20507799999996,103.20507799999996,-4.102538999999979,-24.230713000000378,-29.10253899999998,-123.84619099999964,-204.4870609999998,33.7177729999994,-135.89746100000002,-56.025634999999966
206,-24.10253899999998,-42.051270000000386,8.205077999999958,-121.53857400000015,-29.487060999999812,100.25634799999989,-7.179442999999992,-34.35888699999987,-13.974365000000034,-75.51293900000019,-218.58984399999963,29.102539000000434,-102.69238299999961,-51.53857400000015
207,-12.051270000000386,-30.641113000000132,12.43603499999972,-115.1281740000004,-8.076904000000013,97.94873000000007,-8.076904000000013,-41.79492200000004,18.461425999999847,-17.820557000000008,-216.53857400000015,30.0,-51.28198199999997,-33.46142599999985
208,4.358886999999413,-17.820557000000008,23.333496000000196,-104.8718259999996,10.512695000000349,99.35888699999941,-3.5898440000000846,-37.564209000000574,51.153809000000365,20.0,-194.61547900000005,37.05126999999993,-4.358886999999868,-8.076904000000013
209,18.589844000000085,-12.179442999999992,36.9228520000006,-96.53857400000015,18.205077999999958,105.64111300000059,4.230956999999762,-20.89746100000002,66.2822270000006,24.74365200000011,-162.0512700000004,47.82031300000017,21.922852000000603,15.128418000000238
210,26.153809000000365,-15.1281740000004,47.17968800000017,-93.71801800000003,17.69238299999961,113.84619099999964,10.0,-0.512695000000349,58.46142599999985,7.179688000000169,-135.5129390000002,57.05126999999993,26.922852000000603,28.205077999999958
211,27.17968800000017,-21.923095999999987,50.38476599999922,-95.0,15.897460999999566,119.23095699999976,11.282227000000603,11.922852000000603,40.12841800000024,-10.897461000000021,-125.51293900000019,61.2822270000006,24.358886999999413,30.641113000000587
212,25.384765999999217,-28.076904000000013,47.69238299999961,-97.05127000000039,14.102539000000434,118.3334960000002,10.769043000000238,11.538574000000153,29.871581999999762,-15.512939000000188,-130.2563479999999,60.64111300000059,28.461425999999847,28.205077999999958
213,23.846190999999635,-33.71801800000003,42.56396500000028,-98.84619099999964,9.358886999999413,111.6665039999998,12.307617000000391,2.4360349999997197,36.666503999999804,-8.205077999999958,-139.7436520000001,57.17968800000017,42.30761700000039,26.410155999999915
214,21.538574000000153,-42.051270000000386,37.94873000000007,-102.82055700000001,0.12841800000023795,103.7177729999994,15.384765999999217,-7.307617000000391,52.56396500000028,-0.8974609999995664,-146.02563499999997,53.333496000000196,57.05126999999993,25.769043000000238
215,15.897460999999566,-54.48706099999981,33.333496000000196,-111.66674799999964,-9.230713000000378,99.10253900000043,14.871581999999762,-13.846190999999635,61.9228520000006,-1.9228520000006029,-148.33325200000036,49.35888699999941,60.64111300000059,22.43603499999972
216,6.666503999999804,-68.07690400000001,27.56396500000028,-123.07690400000001,-12.435790999999426,100.76904300000024,7.307617000000391,-17.820557000000008,57.17968800000017,-9.8718259999996,-149.61547900000005,45.0,50.64111300000059,13.974121000000196
217,-1.4101559999999154,-76.28198199999997,22.30761700000039,-130.38452099999995,-7.692382999999609,107.05126999999993,-3.4614259999998467,-20.89746100000002,46.025878999999804,-16.538574000000153,-150.5129390000002,42.17968800000017,35.897460999999566,4.6152340000007825
218,-2.5639650000002803,-75.25634799999989,22.17968800000017,-127.43579099999943,-0.12841800000023795,114.35888699999941,-7.692382999999609,-20.38452099999995,42.17968800000017,-16.153809000000365,-148.84619099999964,43.333496000000196,28.461425999999847,1.7949220000000423
219,4.358886999999413,-68.84619099999964,28.846190999999635,-116.79492200000004,2.4360349999997197,118.46142599999985,0.6411130000005869,-13.333252000000357,50.25634799999989,-10.897461000000021,-144.4870609999998,48.7177729999994,32.56396500000028,7.948730000000069
220,12.82031300000017,-66.15380900000036,37.56396500000028,-108.46142599999985,-4.743652000000111,117.94873000000007,16.666503999999804,-1.153809000000365,61.153809000000365,-8.076904000000013,-141.79492200000004,54.87158199999976,40.51269500000035,17.30761700000039
221,15.512695000000349,-72.43579099999943,41.79492200000004,-109.23071300000038,-17.69238299999961,114.35888699999941,29.102539000000434,9.230956999999762,63.333496000000196,-12.948729999999614,-143.076904,57.30761700000039,43.0771479999994,21.538574000000153
222,11.794922000000042,-81.28198199999997,39.74365200000011,-115.1281740000004,-24.230713000000378,111.2822270000006,30.897460999999566,13.077147999999397,56.666503999999804,-22.564209000000574,-143.33325200000036,56.025878999999804,38.589844000000085,18.846190999999635
223,8.717772999999397,-80.25634799999989,36.410155999999915,-114.23071300000038,-13.076904000000013,111.41015599999992,25.128418000000238,12.948730000000069,50.897460999999566,-26.923095999999987,-134.4870609999998,56.153809000000365,34.48730499999965,16.282227000000603
224,13.205077999999958,-63.974365000000034,38.0771479999994,-100.0,13.461425999999847,114.74365200000011,21.538574000000153,16.153809000000365,53.0771479999994,-18.71801800000003,-116.15380900000036,61.153809000000365,37.69238299999961,20.897460999999566
225,24.615234000000783,-41.28198199999997,46.2822270000006,-79.48706099999981,36.666503999999804,118.20507799999996,26.794922000000042,26.538574000000153,59.61523400000078,-1.6665039999998044,-98.71801800000003,69.35888699999941,47.05126999999993,32.05126999999993
226,35.38476599999922,-28.461425999999847,55.12841800000024,-67.82055700000001,36.666503999999804,118.58984400000008,39.48730499999965,39.48730499999965,61.2822270000006,11.538574000000153,-95.38452099999995,74.74365200000011,55.51269500000035,42.30761700000039
227,38.20507799999996,-34.48706099999981,57.56396500000028,-74.10253899999998,11.410155999999915,115.12841800000024,51.53857400000015,45.38476599999922,54.87158199999976,11.922852000000603,-110.0,72.82031300000017,58.0771479999994,43.974121000000196
228,32.05126999999993,-52.69238299999961,51.53857400000015,-92.82055700000001,-19.8718259999996,110.25634799999989,55.76904300000024,38.7177729999994,47.94873000000007,4.487304999999651,-133.71801800000003,65.25634799999989,56.025878999999804,37.05126999999993
229,23.077147999999397,-67.17944299999999,42.17968800000017,-108.71801800000003,-32.82055700000001,107.30761700000039,51.153809000000365,22.94873000000007,51.53857400000015,3.846190999999635,-150.5129390000002,57.56396500000028,55.64111300000059,28.333496000000196
230,17.94873000000007,-67.05127000000039,36.9228520000006,-109.61547900000005,-18.974365000000034,108.46142599999985,42.17968800000017,7.56396500000028,69.61523400000078,17.94873000000007,-150.38452099999995,54.61523400000078,59.61523400000078,24.615234000000783
231,17.82031300000017,-55.89746100000002,37.56396500000028,-96.92309599999999,8.846190999999635,112.43603499999972,32.82031300000017,-0.8974609999995664,91.9228520000006,37.30761700000039,-135.2563479999999,56.53857400000015,62.56396500000028,26.282227000000603
232,18.333496000000196,-46.53857400000015,39.61523400000078,-82.82055700000001,29.871581999999762,116.41015599999992,24.358886999999413,-2.4360349999997197,101.79492200000004,43.46142599999985,-117.43579099999943,59.61523400000078,56.666503999999804,27.94873000000007
233,16.538574000000153,-47.051270000000386,39.23095699999976,-78.20507799999996,32.82031300000017,118.0771479999994,17.94873000000007,-0.12841800000023795,91.0258789999998,29.871581999999762,-107.82055700000001,60.25634799999989,42.30761700000039,25.51269500000035
234,14.871581999999762,-53.07690400000001,37.82031300000017,-83.20507799999996,21.922852000000603,116.9228520000006,17.56396500000028,5.256347999999889,68.7177729999994,8.461425999999847,-107.30761700000039,59.102539000000434,31.410155999999915,22.17968800000017
235,19.230956999999762,-54.35888699999987,41.025878999999804,-88.97436500000003,10.256347999999889,114.61523400000078,27.69238299999961,15.769043000000238,54.61523400000078,-3.3334960000001956,-107.30761700000039,60.0,36.153809000000365,25.0
236,31.538574000000153,-45.89746100000002,51.410155999999915,-85.76928699999962,7.820313000000169,113.20507799999996,47.30761700000039,32.30761700000039,60.38476599999922,0.769043000000238,-100.0,65.38476599999922,57.30761700000039,37.43603499999972
237,46.53857400000015,-33.07690400000001,64.74365200000011,-72.17944299999999,15.0,113.46142599999985,67.82031300000017,49.74365200000011,80.0,12.307617000000391,-88.20507799999996,73.0771479999994,81.15380900000036,53.7177729999994
238,54.74365200000011,-25.769286999999622,72.30761700000039,-56.025634999999966,24.871581999999762,114.87158199999976,77.69238299999961,59.102539000000434,95.38476599999922,19.230956999999762,-83.97436500000003,77.69238299999961,90.38476599999922,62.69238299999961
239,50.0,-29.230713000000378,68.0771479999994,-47.435790999999426,30.384765999999217,116.15380900000036,70.89746099999957,54.102539000000434,93.46142599999985,16.666503999999804,-95.76928699999962,75.64111300000059,78.58984400000008,56.666503999999804
240,34.87158199999976,-40.0,53.846190999999635,-52.17944299999999,29.74365200000011,116.2822270000006,50.76904300000024,37.82031300000017,77.05126999999993,8.077147999999397,-118.20507799999996,67.82031300000017,54.35888699999941,38.333496000000196
241,18.205077999999958,-49.8718259999996,38.46142599999985,-67.30761700000039,26.666503999999804,114.61523400000078,28.205077999999958,20.384765999999217,60.38476599999922,0.6411130000005869,-134.4870609999998,59.23095699999976,33.46142599999985,19.102539000000434
242,8.589844000000085,-52.69238299999961,30.897460999999566,-83.71801800000003,24.871581999999762,111.53857400000015,14.615234000000783,11.794922000000042,55.38476599999922,-1.0258789999998044,-130.76928699999962,54.35888699999941,27.43603499999972,10.128418000000238
243,8.333496000000196,-49.35888699999987,33.20507799999996,-93.58984399999963,23.333496000000196,107.43603499999972,15.0,14.615234000000783,62.05126999999993,3.077147999999397,-109.8718259999996,54.35888699999941,35.51269500000035,13.974121000000196
244,12.56396500000028,-47.17944299999999,40.0,-95.0,16.794922000000042,103.3334960000002,24.74365200000011,21.922852000000603,70.38476599999922,8.589844000000085,-89.10253899999998,56.79492200000004,47.05126999999993,23.205077999999958
245,14.871581999999762,-51.025634999999966,43.846190999999635,-91.02563499999997,4.102539000000434,100.89746099999957,35.12841800000024,24.358886999999413,72.05126999999993,11.922852000000603,-84.74365200000011,58.20507799999996,51.153809000000365,28.205077999999958
246,14.102539000000434,-57.69238299999961,42.17968800000017,-84.35888699999987,-7.820557000000008,102.17968800000017,40.25634799999989,18.846190999999635,67.69238299999961,14.743652000000111,-97.43579099999943,57.94873000000007,46.666503999999804,26.025878999999804
247,13.717772999999397,-58.58984399999963,38.589844000000085,-76.28198199999997,-8.71801800000003,107.56396500000028,40.38476599999922,11.794922000000042,63.974121000000196,21.666503999999804,-114.8718259999996,58.589844000000085,41.9228520000006,21.282227000000603
248,16.410155999999915,-48.974365000000034,38.20507799999996,-68.07690400000001,4.102539000000434,114.23095699999976,39.35888699999941,10.897460999999566,65.89746099999957,32.56396500000028,-123.97436500000003,61.53857400000015,44.102539000000434,19.615234000000783
249,21.794922000000042,-33.07690400000001,42.69238299999961,-61.53857400000015,23.974121000000196,117.94873000000007,40.12841800000024,18.589844000000085,72.56396500000028,39.87158199999976,-120.51293900000019,66.41015599999992,53.0771479999994,22.82031300000017
250,28.589844000000085,-18.846190999999635,50.51269500000035,-56.28198199999997,42.17968800000017,116.9228520000006,43.20507799999996,31.410155999999915,81.41015599999992,36.2822270000006,-106.28198199999997,72.56396500000028,64.23095699999976,30.51269500000035
251,36.9228520000006,-10.256347999999889,60.0,-49.23071300000038,55.25634799999989,113.58984400000008,48.333496000000196,44.61523400000078,91.0258789999998,23.717772999999397,-86.02563499999997,79.48730499999965,74.10253900000043,42.05126999999993
252,46.79492200000004,-7.051270000000386,69.48730499999965,-38.974365000000034,62.82031300000017,112.17968800000017,54.74365200000011,56.025878999999804,100.0,11.666503999999804,-65.51293900000019,86.0258789999998,80.89746099999957,55.38476599999922
253,55.12841800000024,-7.564209000000574,76.2822270000006,-30.25634799999989,63.589844000000085,114.23095699999976,60.64111300000059,64.48730499999965,105.76904300000024,9.230956999999762,-51.79492200000004,89.74365200000011,83.0771479999994,65.25634799999989
254,56.025878999999804,-12.307617000000391,76.41015599999992,-30.38452099999995,55.64111300000059,117.43603499999972,62.56396500000028,67.94873000000007,105.89746099999957,15.384765999999217,-50.89746100000002,88.46142599999985,78.58984400000008,65.76904300000024
255,46.410155999999915,-21.28198199999997,68.20507799999996,-42.051270000000386,40.64111300000059,117.94873000000007,57.69238299999961,64.10253900000043,100.38476599999922,22.05126999999993,-62.82055700000001,81.9228520000006,66.6665039999998,54.48730499999965
256,29.615234000000783,-31.666747999999643,54.102539000000434,-59.35888699999987,25.25634799999989,113.84619099999964,47.69238299999961,53.20507799999996,92.82031300000017,23.461425999999847,-80.76928699999962,73.20507799999996,52.17968800000017,36.153809000000365
257,15.512695000000349,-38.20507799999996,41.2822270000006,-71.28198199999997,17.56396500000028,107.69238299999961,38.333496000000196,40.76904300000024,88.3334960000002,22.69238299999961,-93.97436500000003,66.41015599999992,43.7177729999994,20.769043000000238
258,12.307617000000391,-36.92309599999999,36.2822270000006,-70.64111300000013,20.769043000000238,104.23095699999976,36.025878999999804,33.846190999999635,90.12841800000024,27.05126999999993,-95.0,64.35888699999941,48.20507799999996,16.794922000000042
259,21.153809000000365,-29.61547900000005,40.76904300000024,-59.23071300000038,30.897460999999566,106.2822270000006,42.05126999999993,36.153809000000365,96.15380900000036,39.35888699999941,-83.84619099999964,66.79492200000004,65.38476599999922,25.0
260,34.74365200000011,-23.461425999999847,50.0,-46.53857400000015,40.0,112.05126999999993,51.666503999999804,45.0,101.41015599999992,55.51269500000035,-67.43579099999943,70.76904300000024,87.17968800000017,38.846190999999635
261,43.974121000000196,-24.487060999999812,57.17968800000017,-41.28198199999997,41.9228520000006,116.9228520000006,58.974121000000196,53.589844000000085,102.94873000000007,68.84619099999964,-54.35888699999987,73.0771479999994,103.3334960000002,49.23095699999976
262,43.974121000000196,-33.07690400000001,58.333496000000196,-45.38452099999995,36.9228520000006,117.05126999999993,60.897460999999566,55.64111300000059,102.05126999999993,74.35888699999941,-49.10253899999998,72.82031300000017,108.20507799999996,50.76904300000024
263,37.17968800000017,-43.33325200000036,54.35888699999941,-53.20507799999996,30.0,112.82031300000017,58.589844000000085,51.53857400000015,102.94873000000007,71.6665039999998,-49.74365200000011,71.15380900000036,103.58984400000008,44.48730499999965
264,30.25634799999989,-48.20507799999996,50.0,-57.30761700000039,26.922852000000603,107.94873000000007,55.897460999999566,46.410155999999915,107.69238299999961,63.974121000000196,-51.025634999999966,69.74365200000011,96.15380900000036,36.53857400000015
265,28.974121000000196,-44.61547900000005,49.23095699999976,-53.974365000000034,28.974121000000196,106.53857400000015,56.025878999999804,46.2822270000006,114.61523400000078,56.025878999999804,-49.10253899999998,69.10253900000043,92.56396500000028,32.94873000000007
266,33.7177729999994,-34.8718259999996,52.56396500000028,-45.38452099999995,33.846190999999635,109.61523400000078,59.102539000000434,51.9228520000006,119.61523400000078,52.17968800000017,-44.23071300000038,69.74365200000011,95.0,36.153809000000365
267,40.38476599999922,-24.74365200000011,57.56396500000028,-36.79492200000004,38.333496000000196,114.61523400000078,62.30761700000039,59.23095699999976,119.48730499999965,52.94873000000007,-39.61547900000005,71.41015599999992,101.0258789999998,43.974121000000196
268,44.102539000000434,-19.487060999999812,60.38476599999922,-32.82055700000001,41.53857400000015,117.82031300000017,62.30761700000039,62.69238299999961,113.84619099999964,54.23095699999976,-37.82055700000001,74.10253900000043,105.64111300000059,51.79492200000004
269,43.20507799999996,-20.38452099999995,59.48730499999965,-33.974365000000034,44.61523400000078,117.17968800000017,57.94873000000007,60.25634799999989,105.38476599999922,51.9228520000006,-37.69238299999961,77.43603499999972,105.76904300000024,55.76904300000024
270,40.64111300000059,-24.230713000000378,56.53857400000015,-36.025634999999966,48.7177729999994,114.35888699999941,52.56396500000028,54.74365200000011,98.58984400000008,46.666503999999804,-35.38452099999995,80.89746099999957,102.69238299999961,56.153809000000365
271,39.74365200000011,-26.666747999999643,54.74365200000011,-35.51293900000019,52.17968800000017,112.43603499999972,50.51269500000035,50.76904300000024,96.6665039999998,43.333496000000196,-28.58984399999963,83.46142599999985,101.0258789999998,54.61523400000078
272,40.51269500000035,-25.89746100000002,54.74365200000011,-32.948729999999614,51.2822270000006,113.20507799999996,52.82031300000017,50.51269500000035,99.87158199999976,45.12841800000024,-19.230713000000378,83.20507799999996,102.30761700000039,52.43603499999972
273,40.64111300000059,-23.461425999999847,55.38476599999922,-31.28198199999997,45.0,115.12841800000024,56.410155999999915,52.69238299999961,105.89746099999957,50.38476599999922,-11.923095999999987,80.0,104.61523400000078,50.25634799999989
274,39.102539000000434,-21.28198199999997,55.897460999999566,-31.153809000000365,37.17968800000017,116.15380900000036,58.0771479999994,54.74365200000011,111.53857400000015,55.0,-9.61547900000005,75.38476599999922,105.64111300000059,48.974121000000196
275,37.69238299999961,-20.0,57.17968800000017,-29.8718259999996,33.7177729999994,115.38476599999922,57.43603499999972,55.64111300000059,115.0,56.53857400000015,-10.897461000000021,72.82031300000017,105.38476599999922,49.61523400000078
276,38.20507799999996,-19.74365200000011,58.589844000000085,-25.641113000000132,37.17968800000017,113.46142599999985,56.2822270000006,55.64111300000059,115.64111300000059,55.12841800000024,-12.564209000000574,73.46142599999985,105.12841800000024,51.666503999999804
277,39.61523400000078,-21.153809000000365,58.589844000000085,-19.74365200000011,44.102539000000434,111.9228520000006,56.025878999999804,55.38476599999922,113.3334960000002,52.43603499999972,-12.692382999999609,76.41015599999992,105.0,52.69238299999961
278,39.87158199999976,-24.230713000000378,56.153809000000365,-15.1281740000004,48.846190999999635,111.9228520000006,56.9228520000006,55.12841800000024,108.7177729999994,50.25634799999989,-11.025634999999966,79.74365200000011,104.74365200000011,50.76904300000024
279,38.974121000000196,-26.025634999999966,53.589844000000085,-12.435790999999426,49.48730499999965,112.94873000000007,59.35888699999941,56.2822270000006,104.87158199999976,50.0,-7.692382999999609,82.17968800000017,105.64111300000059,47.30761700000039
280,39.23095699999976,-23.205077999999958,54.48730499999965,-9.358886999999868,49.102539000000434,113.9741210000002,65.0,61.153809000000365,105.76904300000024,52.56396500000028,-2.1796869999998307,83.84619099999964,109.23095699999976,46.666503999999804
281,42.43603499999972,-15.512939000000188,60.0,-3.5898440000000846,51.9228520000006,114.61523400000078,72.94873000000007,69.23095699999976,112.30761700000039,58.20507799999996,5.256347999999889,84.87158199999976,115.0,51.025878999999804
282,46.2822270000006,-7.820557000000008,66.2822270000006,2.9487300000000687,58.20507799999996,115.0,78.9741210000002,76.2822270000006,120.64111300000059,65.12841800000024,12.43603499999972,84.48730499999965,119.35888699999941,56.9228520000006
283,46.2822270000006,-6.666747999999643,67.69238299999961,6.153809000000365,63.589844000000085,115.64111300000059,77.69238299999961,76.9228520000006,125.0,69.23095699999976,15.897460999999566,82.05126999999993,118.0771479999994,57.69238299999961
284,41.153809000000365,-13.846190999999635,62.17968800000017,4.487304999999651,63.589844000000085,116.2822270000006,70.38476599999922,71.0258789999998,121.79492200000004,66.53857400000015,15.384765999999217,78.0771479999994,111.2822270000006,50.897460999999566
285,36.025878999999804,-23.461425999999847,54.74365200000011,2.4360349999997197,59.48730499999965,116.15380900000036,65.12841800000024,65.25634799999989,114.35888699999941,58.974121000000196,15.769043000000238,75.25634799999989,104.74365200000011,41.53857400000015
286,37.05126999999993,-25.641113000000132,52.94873000000007,6.410155999999915,56.666503999999804,115.76904300000024,70.51269500000035,67.82031300000017,110.0,53.974121000000196,23.461425999999847,76.6665039999998,105.25634799999989,38.20507799999996
287,45.38476599999922,-17.179442999999992,60.0,18.717772999999397,59.102539000000434,116.0258789999998,86.2822270000006,80.51269500000035,113.84619099999964,59.48730499999965,40.0,82.17968800000017,114.23095699999976,44.74365200000011
288,55.64111300000059,-4.61547900000005,71.15380900000036,34.35888699999941,64.61523400000078,117.30761700000039,102.94873000000007,96.15380900000036,123.9741210000002,74.87158199999976,59.61523400000078,88.3334960000002,125.89746099999957,56.666503999999804
289,60.76904300000024,2.1796880000001693,78.46142599999985,45.897460999999566,69.10253900000043,118.84619099999964,109.61523400000078,105.25634799999989,133.0771479999994,91.15380900000036,74.61523400000078,91.0258789999998,132.17968800000017,65.0
290,59.23095699999976,-0.769043000000238,77.82031300000017,50.12841800000024,73.20507799999996,120.0,103.7177729999994,103.46142599999985,134.23095699999976,99.87158199999976,81.41015599999992,89.10253900000043,130.38476599999922,65.51269500000035
291,55.12841800000024,-7.692382999999609,72.17968800000017,50.38476599999922,81.41015599999992,120.25634799999989,91.9228520000006,94.23095699999976,126.9228520000006,101.15380900000036,82.69238299999961,85.51269500000035,125.12841800000024,61.153809000000365
292,54.102539000000434,-10.256347999999889,67.69238299999961,52.43603499999972,94.74365200000011,120.12841800000024,82.69238299999961,84.74365200000011,116.15380900000036,100.89746099999957,83.58984400000008,83.46142599999985,123.0771479999994,57.94873000000007
293,57.69238299999961,-6.41015600000037,68.84619099999964,59.23095699999976,105.64111300000059,119.48730499999965,80.64111300000059,80.12841800000024,106.9228520000006,102.17968800000017,87.30761700000039,84.35888699999941,126.15380900000036,58.974121000000196
294,63.0771479999994,-1.6665039999998044,75.12841800000024,69.10253900000043,103.20507799999996,118.46142599999985,85.89746099999957,81.6665039999998,100.89746099999957,101.6665039999998,94.48730499999965,87.69238299999961,130.51269500000035,62.82031300000017
295,67.43603499999972,-2.6923829999996087,82.82031300000017,78.3334960000002,84.48730499999965,117.43603499999972,95.89746099999957,88.0771479999994,97.30761700000039,94.61523400000078,104.87158199999976,92.05126999999993,131.53857400000015,65.89746099999957
296,70.64111300000059,-8.974365000000034,88.58984400000008,85.25634799999989,59.87158199999976,116.79492200000004,107.43603499999972,97.56396500000028,96.15380900000036,82.82031300000017,117.56396500000028,96.79492200000004,129.61523400000078,67.82031300000017
297,76.15380900000036,-11.153809000000365,92.82031300000017,92.05126999999993,48.333496000000196,116.79492200000004,117.94873000000007,108.84619099999964,99.87158199999976,76.41015599999992,132.43603499999972,101.6665039999998,131.15380900000036,72.56396500000028
298,86.41015599999992,-0.12841800000023795,97.56396500000028,102.05126999999993,63.0771479999994,117.56396500000028,125.76904300000024,120.38476599999922,110.12841800000024,85.38476599999922,148.0771479999994,106.9228520000006,142.17968800000017,83.7177729999994
299,98.20507799999996,22.69238299999961,102.43603499999972,114.10253900000043,99.35888699999941,118.58984400000008,127.94873000000007,128.20507799999996,124.23095699999976,109.10253900000043,161.0258789999998,110.76904300000024,161.0258789999998,98.20507799999996
300,102.69238299999961,43.974121000000196,103.0771479999994,121.15380900000036,134.7436520000001,119.10253900000043,120.64111300000059,127.56396500000028,133.84619099999964,133.9741210000002,165.89746099999957,110.64111300000059,176.53857400000015,106.41015599999992
301,94.35888699999941,48.846190999999635,95.76904300000024,116.6665039999998,145.89746099999957,118.58984400000008,103.84619099999964,116.15380900000036,131.53857400000015,142.94873000000007,159.48730499999965,105.51269500000035,176.41015599999992,100.38476599999922
302,77.05126999999993,34.87158199999976,83.58984400000008,102.56396500000028,126.79492200000004,117.05126999999993,84.35888699999941,99.10253900000043,117.94873000000007,130.0,146.2822270000006,97.56396500000028,159.3588869999994,82.05126999999993
303,63.589844000000085,15.384765999999217,75.38476599999922,90.25634799999989,93.7177729999994,115.64111300000059,73.58984400000008,87.43603499999972,103.0771479999994,105.51269500000035,137.05126999999993,91.9228520000006,137.17968800000017,65.25634799999989
304,65.0,8.461425999999847,78.58984400000008,91.79492200000004,72.05126999999993,115.51269500000035,79.10253900000043,89.61523400000078,97.56396500000028,87.94873000000007,141.15380900000036,92.69238299999961,126.2822270000006,63.589844000000085
305,80.38476599999922,20.384765999999217,91.15380900000036,108.0771479999994,74.35888699999941,116.53857400000015,96.79492200000004,103.9741210000002,103.3334960000002,88.58984400000008,157.94873000000007,99.23095699999976,132.6923829999996,78.7177729999994
306,96.0258789999998,39.23095699999976,102.56396500000028,126.9228520000006,90.25634799999989,117.56396500000028,112.82031300000017,117.82031300000017,112.05126999999993,102.17968800000017,175.38476599999922,105.38476599999922,146.9228520000006,96.6665039999998
307,98.20507799999996,46.153809000000365,103.20507799999996,133.9741210000002,98.46142599999985,117.56396500000028,115.76904300000024,118.9741210000002,112.82031300000017,111.41015599999992,180.89746099999957,105.51269500000035,152.6923829999996,100.64111300000059
308,86.41015599999992,33.846190999999635,94.10253900000043,126.2822270000006,88.7177729999994,116.0258789999998,106.79492200000004,107.17968800000017,103.58984400000008,104.48730499999965,174.10253900000043,99.87158199999976,143.0771479999994,87.43603499999972
309,73.7177729999994,13.717772999999397,86.0258789999998,114.87158199999976,71.2822270000006,114.48730499999965,97.43603499999972,95.0,92.69238299999961,86.53857400000015,166.9228520000006,94.87158199999976,127.17968800000017,70.51269500000035
310,73.7177729999994,5.3847659999992175,88.46142599999985,113.3334960000002,64.87158199999976,114.23095699999976,97.43603499999972,95.64111300000059,90.76904300000024,75.38476599999922,172.05126999999993,96.6665039999998,120.89746099999957,66.9228520000006
311,87.94873000000007,17.94873000000007,101.0258789999998,124.74365200000011,76.79492200000004,116.0258789999998,106.2822270000006,110.76904300000024,100.0,83.7177729999994,190.0,105.12841800000024,131.2822270000006,81.41015599999992
312,106.0258789999998,43.0771479999994,114.61523400000078,140.0,96.79492200000004,118.0771479999994,116.15380900000036,129.87158199999976,113.46142599999985,108.20507799999996,208.84619099999964,114.23095699999976,152.3076170000004,103.46142599999985
313,116.2822270000006,64.35888699999941,120.51269500000035,147.56396500000028,109.23095699999976,118.9741210000002,120.64111300000059,140.76904300000024,121.79492200000004,134.23095699999976,216.6665039999998,118.20507799999996,171.0258789999998,118.84619099999964
314,115.38476599999922,71.9228520000006,118.3334960000002,143.84619099999964,107.69238299999961,118.3334960000002,120.12841800000024,139.3588869999994,122.17968800000017,150.38476599999922,211.9228520000006,116.53857400000015,179.3588869999994,121.6665039999998
315,108.7177729999994,67.30761700000039,113.58984400000008,135.0,98.7177729999994,117.43603499999972,118.46142599999985,130.12841800000024,118.84619099999964,154.48730499999965,202.43603499999972,113.20507799999996,177.6923829999996,116.53857400000015
316,102.56396500000028,58.589844000000085,111.15380900000036,128.58984400000008,92.43603499999972,117.43603499999972,117.17968800000017,120.38476599999922,116.9228520000006,150.6411130000006,196.15380900000036,111.2822270000006,171.6665039999998,111.0258789999998
317,99.74365200000011,52.30761700000039,111.6665039999998,127.69238299999961,93.0771479999994,118.20507799999996,115.0,114.61523400000078,117.69238299999961,141.53857400000015,195.6411130000006,110.76904300000024,165.38476599999922,108.7177729999994
318,97.69238299999961,49.23095699999976,111.41015599999992,128.84619099999964,96.6665039999998,118.7177729999994,109.87158199999976,112.56396500000028,117.30761700000039,127.56396500000028,197.43603499999972,109.48730499999965,159.3588869999994,107.17968800000017
319,93.46142599999985,46.53857400000015,107.17968800000017,127.17968800000017,96.2822270000006,118.0771479999994,101.9228520000006,111.0258789999998,112.17968800000017,109.23095699999976,196.79492200000004,106.53857400000015,151.79492200000004,102.56396500000028
320,87.82031300000017,43.0771479999994,100.25634799999989,122.69238299999961,90.0,116.79492200000004,94.48730499999965,107.43603499999972,102.17968800000017,91.9228520000006,192.43603499999972,103.0771479999994,144.10253900000043,95.25634799999989
321,86.2822270000006,41.79492200000004,97.05126999999993,120.89746099999957,82.05126999999993,115.89746099999957,93.9741210000002,103.9741210000002,93.58984400000008,84.23095699999976,188.46142599999985,101.79492200000004,141.2822270000006,91.2822270000006
322,93.9741210000002,46.2822270000006,103.20507799999996,127.43603499999972,79.48730499999965,116.15380900000036,104.61523400000078,105.89746099999957,93.58984400000008,91.41015599999992,191.15380900000036,105.25634799999989,148.3334960000002,97.05126999999993
323,109.35888699999941,55.76904300000024,116.2822270000006,140.38476599999922,83.3334960000002,117.17968800000017,122.69238299999961,114.23095699999976,102.56396500000028,109.10253900000043,201.79492200000004,112.30761700000039,162.43603499999972,111.2822270000006
324,122.94873000000007,63.0771479999994,126.9228520000006,150.51269500000035,88.0771479999994,117.94873000000007,137.17968800000017,123.58984400000008,111.6665039999998,124.23095699999976,214.87158199999976,118.9741210000002,173.84619099999964,124.35888699999941
325,125.51269500000035,62.30761700000039,126.9228520000006,149.23095699999976,87.56396500000028,117.82031300000017,137.94873000000007,126.0258789999998,111.53857400000015,125.25634799999989,221.6665039999998,121.15380900000036,173.0771479999994,126.9228520000006
326,115.76904300000024,54.74365200000011,116.15380900000036,136.53857400000015,82.17968800000017,116.79492200000004,124.35888699999941,118.7177729999994,101.6665039999998,112.30761700000039,218.46142599999985,117.94873000000007,160.89746099999957,117.82031300000017
327,101.9228520000006,48.846190999999635,103.0771479999994,121.9228520000006,78.0771479999994,116.15380900000036,105.38476599999922,107.17968800000017,90.64111300000059,98.0771479999994,208.9741210000002,112.56396500000028,148.20507799999996,105.64111300000059
328,95.51269500000035,52.56396500000028,96.9228520000006,116.9228520000006,81.79492200000004,116.2822270000006,92.94873000000007,101.0258789999998,87.56396500000028,97.17968800000017,201.41015599999992,109.74365200000011,147.17968800000017,101.2822270000006
329,102.30761700000039,66.79492200000004,101.6665039999998,125.89746099999957,93.7177729999994,117.43603499999972,93.7177729999994,105.76904300000024,94.87158199999976,114.48730499999965,202.43603499999972,111.79492200000004,160.89746099999957,109.61523400000078
330,118.58984400000008,84.10253900000043,112.94873000000007,142.82031300000017,107.05126999999993,118.3334960000002,105.51269500000035,118.46142599999985,106.9228520000006,140.0,210.89746099999957,116.9228520000006,180.76904300000024,126.0258789999998
331,133.46142599999985,94.61523400000078,123.0771479999994,156.9228520000006,113.58984400000008,118.3334960000002,119.74365200000011,130.0,115.76904300000024,156.41015599999992,220.2563479999999,121.0258789999998,193.46142599999985,140.2563479999999
332,138.20507799999996,93.7177729999994,127.05126999999993,161.0258789999998,111.0258789999998,116.6665039999998,128.46142599999985,132.94873000000007,117.05126999999993,152.56396500000028,223.7177729999994,121.6665039999998,191.53857400000015,144.7436520000001
333,130.51269500000035,83.9741210000002,124.35888699999941,155.76904300000024,103.20507799999996,114.48730499999965,128.3334960000002,126.2822270000006,111.6665039999998,131.6665039999998,218.46142599999985,118.7177729999994,177.3076170000004,137.94873000000007
334,114.61523400000078,71.6665039999998,117.05126999999993,146.15380900000036,94.87158199999976,112.94873000000007,120.38476599999922,113.7177729999994,102.82031300000017,107.05126999999993,205.12841800000024,112.94873000000007,158.7177729999994,123.7177729999994
335,97.05126999999993,61.410155999999915,107.43603499999972,136.2822270000006,88.0771479999994,112.82031300000017,107.94873000000007,100.0,93.46142599999985,91.2822270000006,187.82031300000017,105.38476599999922,144.10253900000043,107.56396500000028
336,84.48730499999965,55.64111300000059,98.7177729999994,128.3334960000002,83.46142599999985,113.84619099999964,95.76904300000024,89.87158199999976,86.41015599999992,88.46142599999985,173.3334960000002,98.58984400000008,137.82031300000017,95.89746099999957
337,82.05126999999993,55.64111300000059,94.74365200000011,124.23095699999976,81.79492200000004,115.25634799999989,89.48730499999965,87.43603499999972,84.61523400000078,94.35888699999941,169.7436520000001,96.53857400000015,140.89746099999957,93.84619099999964
338,90.38476599999922,61.2822270000006,98.58984400000008,125.76904300000024,83.46142599999985,116.2822270000006,93.3334960000002,94.23095699999976,89.74365200000011,102.05126999999993,181.0258789999998,101.79492200000004,151.41015599999992,102.56396500000028
339,104.74365200000011,70.76904300000024,109.61523400000078,133.84619099999964,87.05126999999993,116.6665039999998,106.9228520000006,107.30761700000039,100.38476599999922,107.69238299999961,202.43603499999972,112.82031300000017,165.2563479999999,117.69238299999961
340,117.69238299999961,80.12841800000024,122.17968800000017,145.76904300000024,90.64111300000059,116.41015599999992,124.23095699999976,120.38476599999922,111.6665039999998,111.79492200000004,222.05126999999993,123.84619099999964,177.05126999999993,131.53857400000015
341,122.82031300000017,85.76904300000024,129.48730499999965,156.15380900000036,93.46142599999985,115.89746099999957,136.53857400000015,127.82031300000017,118.0771479999994,116.2822270000006,228.7177729999994,129.23095699999976,182.43603499999972,137.82031300000017
342,118.58984400000008,85.76904300000024,127.94873000000007,158.84619099999964,95.64111300000059,115.51269500000035,137.17968800000017,127.82031300000017,116.6665039999998,121.2822270000006,219.10253900000043,127.17968800000017,178.58984400000008,134.10253900000043
343,108.3334960000002,80.51269500000035,118.9741210000002,151.6665039999998,98.20507799999996,115.64111300000059,126.2822270000006,122.30761700000039,108.7177729999994,123.46142599999985,199.7436520000001,120.25634799999989,167.05126999999993,123.20507799999996
344,98.20507799999996,73.3334960000002,108.58984400000008,138.3334960000002,101.79492200000004,116.2822270000006,110.51269500000035,115.64111300000059,99.87158199999976,121.6665039999998,181.6665039999998,113.3334960000002,153.46142599999985,111.2822270000006
345,93.7177729999994,68.84619099999964,103.46142599999985,126.0258789999998,106.9228520000006,117.17968800000017,98.9741210000002,112.17968800000017,96.79492200000004,118.20507799999996,172.82031300000017,110.25634799999989,144.7436520000001,105.0
346,96.15380900000036,69.23095699999976,106.0258789999998,119.87158199999976,111.2822270000006,118.0771479999994,96.6665039999998,113.3334960000002,101.6665039999998,117.56396500000028,174.3588869999994,111.53857400000015,144.61523400000078,106.6665039999998
347,101.0258789999998,71.15380900000036,111.79492200000004,118.3334960000002,111.15380900000036,118.3334960000002,100.51269500000035,116.15380900000036,108.0771479999994,119.87158199999976,179.48730499999965,114.74365200000011,149.3588869999994,112.05126999999993
348,102.56396500000028,70.0,114.23095699999976,116.6665039999998,104.35888699999941,117.17968800000017,103.20507799999996,116.15380900000036,106.6665039999998,121.15380900000036,180.2563479999999,115.76904300000024,151.53857400000015,114.61523400000078
349,99.35888699999941,65.38476599999922,111.15380900000036,113.7177729999994,93.7177729999994,115.25634799999989,101.53857400000015,112.43603499999972,95.64111300000059,117.94873000000007,175.38476599999922,113.3334960000002,147.82031300000017,112.05126999999993
350,96.9228520000006,62.94873000000007,107.56396500000028,112.69238299999961,86.15380900000036,113.46142599999985,100.0,109.10253900000043,84.10253900000043,112.56396500000028,172.05126999999993,110.64111300000059,143.20507799999996,109.23095699999976
351,101.53857400000015,69.48730499999965,109.74365200000011,118.20507799999996,87.69238299999961,112.43603499999972,104.61523400000078,112.05126999999993,83.84619099999964,111.15380900000036,178.0771479999994,111.6665039999998,146.0258789999998,112.94873000000007
352,112.94873000000007,84.48730499999965,118.20507799999996,128.9741210000002,97.94873000000007,112.43603499999972,115.12841800000024,121.2822270000006,96.53857400000015,116.41015599999992,192.17968800000017,117.05126999999993,157.6923829999996,123.7177729999994
353,123.20507799999996,99.10253900000043,126.15380900000036,137.94873000000007,109.10253900000043,112.56396500000028,123.0771479999994,129.87158199999976,112.30761700000039,123.20507799999996,203.3334960000002,122.30761700000039,170.0,134.10253900000043
354,123.46142599999985,102.17968800000017,126.0258789999998,137.6923829999996,111.0258789999998,112.43603499999972,120.25634799999989,128.84619099999964,117.43603499999972,123.84619099999964,199.87158199999976,121.9228520000006,171.53857400000015,134.3588869999994
355,112.82031300000017,90.51269500000035,116.9228520000006,128.3334960000002,100.12841800000024,112.17968800000017,106.6665039999998,115.89746099999957,106.79492200000004,115.38476599999922,182.05126999999993,114.74365200000011,158.84619099999964,122.17968800000017
356,100.12841800000024,72.30761700000039,106.2822270000006,117.56396500000028,83.46142599999985,112.17968800000017,91.6665039999998,99.10253900000043,88.84619099999964,102.56396500000028,163.0771479999994,105.76904300000024,140.76904300000024,105.64111300000059
357,96.41015599999992,61.410155999999915,103.7177729999994,114.61523400000078,74.23095699999976,113.0771479999994,87.43603499999972,91.0258789999998,78.3334960000002,95.0,158.9741210000002,102.69238299999961,131.41015599999992,97.82031300000017
358,105.25634799999989,66.53857400000015,111.9228520000006,122.30761700000039,81.0258789999998,115.12841800000024,97.94873000000007,98.58984400000008,84.10253900000043,98.58984400000008,174.7436520000001,108.3334960000002,138.20507799999996,105.25634799999989
359,119.87158199999976,84.87158199999976,125.12841800000024,134.61523400000078,100.89746099999957,117.43603499999972,116.41015599999992,117.56396500000028,102.94873000000007,111.53857400000015,199.61523400000078,119.10253900000043,156.6665039999998,123.3334960000002
360,129.3588869999994,104.10253900000043,133.46142599999985,141.41015599999992,120.89746099999957,118.7177729999994,130.38476599999922,136.0258789999998,122.82031300000017,126.15380900000036,215.76904300000024,127.56396500000028,174.23095699999976,139.48730499999965
361,127.43603499999972,112.17968800000017,131.0258789999998,136.2822270000006,128.58984400000008,118.7177729999994,131.15380900000036,143.3334960000002,132.3076170000004,134.3588869999994,212.43603499999972,128.20507799999996,179.87158199999976,142.6923829999996
362,116.79492200000004,105.25634799999989,120.51269500000035,121.2822270000006,121.0258789999998,117.69238299999961,120.25634799999989,136.79492200000004,128.9741210000002,133.9741210000002,193.7177729999994,121.15380900000036,172.6923829999996,131.9228520000006
363,106.41015599999992,90.25634799999989,109.74365200000011,106.0258789999998,106.0258789999998,116.53857400000015,107.43603499999972,123.0771479999994,119.35888699999941,130.0,174.3588869999994,112.05126999999993,161.2822270000006,116.2822270000006
364,103.7177729999994,78.20507799999996,105.64111300000059,100.64111300000059,95.25634799999989,116.15380900000036,102.30761700000039,111.79492200000004,112.56396500000028,128.3334960000002,167.82031300000017,106.53857400000015,155.38476599999922,107.69238299999961
365,109.61523400000078,76.15380900000036,109.35888699999941,108.46142599999985,96.41015599999992,116.9228520000006,107.05126999999993,109.61523400000078,112.05126999999993,131.41015599999992,176.15380900000036,107.69238299999961,158.9741210000002,111.79492200000004
366,119.23095699999976,83.46142599999985,117.30761700000039,124.10253900000043,107.82031300000017,118.3334960000002,116.79492200000004,115.89746099999957,115.38476599999922,136.53857400000015,191.53857400000015,113.84619099999964,167.94873000000007,125.25634799999989
367,126.2822270000006,92.82031300000017,123.7177729999994,137.82031300000017,120.89746099999957,119.23095699999976,123.3334960000002,124.23095699999976,117.82031300000017,138.7177729999994,202.43603499999972,120.38476599999922,174.87158199999976,138.46142599999985
368,126.53857400000015,96.53857400000015,124.48730499999965,141.15380900000036,125.25634799999989,118.58984400000008,121.41015599999992,126.79492200000004,116.41015599999992,135.0,202.3076170000004,122.69238299999961,173.84619099999964,142.82031300000017
369,120.0,91.41015599999992,119.35888699999941,131.9228520000006,115.89746099999957,116.6665039999998,111.9228520000006,120.25634799999989,111.0258789999998,125.12841800000024,192.94873000000007,119.48730499999965,165.2563479999999,136.0258789999998
370,111.41015599999992,81.2822270000006,112.30761700000039,115.51269500000035,97.43603499999972,114.35888699999941,101.15380900000036,108.9741210000002,103.9741210000002,113.0771479999994,183.3334960000002,114.10253900000043,155.38476599999922,123.7177729999994
371,107.17968800000017,74.87158199999976,108.9741210000002,102.30761700000039,81.79492200000004,112.94873000000007,97.56396500000028,102.17968800000017,98.9741210000002,105.25634799999989,182.17968800000017,111.41015599999992,151.9228520000006,115.51269500000035
372,111.2822270000006,78.84619099999964,112.56396500000028,101.6665039999998,80.12841800000024,113.58984400000008,105.38476599999922,107.43603499999972,99.10253900000043,108.3334960000002,192.17968800000017,114.48730499999965,158.3334960000002,118.46142599999985
373,122.17968800000017,92.82031300000017,122.05126999999993,115.51269500000035,94.48730499999965,116.15380900000036,121.6665039999998,123.0771479999994,105.25634799999989,123.58984400000008,206.9228520000006,121.6665039999998,170.6411130000006,131.79492200000004
374,132.94873000000007,108.9741210000002,131.6665039999998,135.51269500000035,116.15380900000036,118.46142599999985,136.2822270000006,138.7177729999994,113.7177729999994,142.6923829999996,216.2822270000006,128.58984400000008,180.0,146.79492200000004
375,135.2563479999999,116.53857400000015,134.87158199999976,147.94873000000007,131.79492200000004,118.7177729999994,138.46142599999985,142.3076170000004,118.3334960000002,152.43603499999972,212.05126999999993,130.51269500000035,178.20507799999996,152.56396500000028
376,126.41015599999992,110.38476599999922,128.9741210000002,143.84619099999964,132.94873000000007,116.79492200000004,124.87158199999976,129.61523400000078,115.38476599999922,144.3588869999994,194.7436520000001,125.89746099999957,164.10253900000043,143.46142599999985
377,111.53857400000015,94.87158199999976,117.56396500000028,126.53857400000015,121.6665039999998,115.0,103.9741210000002,108.58984400000008,107.17968800000017,123.0771479999994,174.3588869999994,117.69238299999961,145.12841800000024,124.74365200000011
378,101.2822270000006,80.64111300000059,108.84619099999964,109.74365200000011,107.43603499999972,114.87158199999976,90.12841800000024,93.7177729999994,100.12841800000024,103.9741210000002,162.82031300000017,111.2822270000006,132.56396500000028,108.3334960000002
379,102.94873000000007,76.53857400000015,108.7177729999994,105.38476599999922,98.84619099999964,115.51269500000035,92.05126999999993,94.35888699999941,99.87158199999976,99.74365200000011,165.38476599999922,110.89746099999957,132.56396500000028,103.9741210000002
380,113.9741210000002,82.05126999999993,116.15380900000036,113.84619099999964,96.9228520000006,114.87158199999976,105.64111300000059,107.56396500000028,105.76904300000024,110.51269500000035,176.2822270000006,115.0,141.2822270000006,111.9228520000006
381,124.87158199999976,89.10253900000043,124.23095699999976,125.51269500000035,96.53857400000015,112.30761700000039,118.46142599999985,121.53857400000015,111.79492200000004,124.10253900000043,184.48730499999965,118.9741210000002,148.84619099999964,123.84619099999964
382,127.94873000000007,91.2822270000006,127.56396500000028,131.15380900000036,94.10253900000043,109.74365200000011,120.64111300000059,127.05126999999993,113.7177729999994,128.58984400000008,183.9741210000002,119.48730499999965,148.58984400000008,131.0258789999998
383,124.48730499999965,89.35888699999941,126.6665039999998,129.87158199999976,91.53857400000015,109.35888699999941,113.0771479999994,124.10253900000043,112.43603499999972,121.6665039999998,178.20507799999996,118.58984400000008,143.0771479999994,131.53857400000015
