,EEG.AF3,EEG.F7,EEG.F3,EEG.FC5,EEG.T7,EEG.P7,EEG.O1,EEG.O2,EEG.P8,EEG.T8,EEG.FC6,EEG.F4,EEG.F8,EEG.AF4
0,97.69238299999961,88.3334960000002,132.43603499999972,121.6665039999998,100.89746099999957,115.76904300000024,101.6665039999998,116.0258789999998,104.61523400000078,73.46142599999985,113.58984400000008,112.82031300000017,62.17968800000017,96.6665039999998
1,102.94873000000007,94.48730499999965,135.0,128.9741210000002,105.0,115.38476599999922,102.94873000000007,116.41015599999992,107.05126999999993,78.84619099999964,118.46142599999985,115.51269500000035,66.2822270000006,101.53857400000015
2,108.3334960000002,101.6665039999998,138.84619099999964,136.53857400000015,109.23095699999976,115.89746099999957,104.48730499999965,115.51269500000035,107.69238299999961,84.35888699999941,121.15380900000036,116.53857400000015,70.0,104.35888699999941
3,108.46142599999985,103.9741210000002,140.89746099999957,139.23095699999976,109.61523400000078,116.9228520000006,104.10253900000043,113.0771479999994,104.23095699999976,84.61523400000078,118.20507799999996,114.61523400000078,69.61523400000078,102.43603499999972
4,100.64111300000059,96.15380900000036,137.82031300000017,133.58984400000008,103.9741210000002,117.17968800000017,101.2822270000006,110.0,97.94873000000007,78.3334960000002,108.7177729999994,109.48730499999965,62.05126999999993,94.10253900000043
5,86.79492200000004,78.20507799999996,129.7436520000001,121.9228520000006,94.61523400000078,116.53857400000015,98.46142599999985,108.84619099999964,93.9741210000002,68.7177729999994,96.0258789999998,102.94873000000007,48.20507799999996,81.2822270000006
6,74.23095699999976,57.82031300000017,120.89746099999957,111.0258789999998,87.17968800000017,116.79492200000004,99.10253900000043,111.41015599999992,97.56396500000028,62.17968800000017,86.6665039999998,98.7177729999994,33.7177729999994,69.87158199999976
7,69.61523400000078,45.0,116.79492200000004,106.9228520000006,85.38476599999922,118.58984400000008,103.20507799999996,117.30761700000039,108.9741210000002,62.30761700000039,85.38476599999922,99.10253900000043,25.51269500000035,65.76904300000024
8,74.48730499999965,45.38476599999922,118.58984400000008,110.38476599999922,87.17968800000017,120.0,106.53857400000015,122.69238299999961,120.76904300000024,67.17968800000017,91.9228520000006,102.69238299999961,26.794922000000042,69.61523400000078
9,83.3334960000002,55.51269500000035,123.20507799999996,118.0771479999994,87.56396500000028,118.0771479999994,104.61523400000078,122.17968800000017,124.23095699999976,71.41015599999992,101.0258789999998,105.76904300000024,34.48730499999965,76.79492200000004
10,89.61523400000078,67.43603499999972,126.6665039999998,125.38476599999922,83.84619099999964,111.79492200000004,96.6665039999998,113.58984400000008,116.0258789999998,71.9228520000006,107.56396500000028,106.0258789999998,43.589844000000085,81.79492200000004
11,91.6665039999998,75.76904300000024,128.0771479999994,131.41015599999992,80.25634799999989,104.74365200000011,87.69238299999961,101.15380900000036,102.17968800000017,71.2822270000006,110.76904300000024,104.48730499999965,51.79492200000004,83.7177729999994
12,93.20507799999996,81.53857400000015,129.61523400000078,138.0771479999994,83.7177729999994,101.41015599999992,84.35888699999941,92.56396500000028,92.43603499999972,74.61523400000078,113.9741210000002,104.23095699999976,60.64111300000059,86.6665039999998
13,98.9741210000002,88.3334960000002,133.7177729999994,147.17968800000017,96.6665039999998,103.84619099999964,89.48730499999965,93.46142599999985,92.17968800000017,83.84619099999964,120.76904300000024,107.17968800000017,72.43603499999972,94.61523400000078
14,108.20507799999996,96.15380900000036,139.87158199999976,157.43603499999972,112.17968800000017,109.48730499999965,99.35888699999941,102.05126999999993,98.58984400000008,95.25634799999989,130.12841800000024,112.69238299999961,86.15380900000036,106.15380900000036
15,115.0,99.23095699999976,144.61523400000078,164.61523400000078,118.7177729999994,113.20507799999996,106.9228520000006,110.89746099999957,103.7177729999994,101.79492200000004,137.17968800000017,118.3334960000002,97.05126999999993,115.38476599999922
16,113.46142599999985,92.94873000000007,144.3588869999994,165.6411130000006,111.2822270000006,111.9228520000006,107.17968800000017,112.56396500000028,101.41015599999992,99.74365200000011,137.17968800000017,121.0258789999998,99.10253900000043,116.15380900000036
17,104.61523400000078,80.25634799999989,139.10253900000043,161.6665039999998,97.82031300000017,106.79492200000004,101.0258789999998,106.6665039999998,92.56396500000028,92.05126999999993,129.87158199999976,119.74365200000011,91.15380900000036,107.56396500000028
18,95.0,71.15380900000036,132.43603499999972,158.46142599999985,94.35888699999941,102.82031300000017,93.9741210000002,98.9741210000002,83.58984400000008,85.51269500000035,119.48730499999965,115.64111300000059,78.58984400000008,95.25634799999989
19,91.2822270000006,73.9741210000002,128.46142599999985,160.76904300000024,109.87158199999976,104.23095699999976,90.12841800000024,95.12841800000024,80.38476599999922,84.61523400000078,111.15380900000036,111.0258789999998,70.0,87.05126999999993
20,94.48730499999965,86.79492200000004,128.3334960000002,168.9741210000002,135.89746099999957,110.64111300000059,89.87158199999976,95.76904300000024,83.7177729999994,87.94873000000007,107.82031300000017,107.17968800000017,70.76904300000024,86.53857400000015
21,99.48730499999965,98.9741210000002,130.12841800000024,178.20507799999996,153.58984400000008,117.30761700000039,90.0,96.6665039999998,88.9741210000002,89.48730499999965,109.61523400000078,104.35888699999941,78.84619099999964,90.89746099999957
22,100.0,98.9741210000002,130.0,183.0771479999994,150.0,119.10253900000043,87.30761700000039,93.9741210000002,90.76904300000024,84.61523400000078,113.9741210000002,101.9228520000006,86.2822270000006,93.58984400000008
23,93.9741210000002,84.48730499999965,125.38476599999922,181.9228520000006,128.7177729999994,115.64111300000059,82.94873000000007,88.58984400000008,86.41015599999992,75.25634799999989,117.17968800000017,99.61523400000078,85.51269500000035,90.25634799999989
24,85.89746099999957,63.974121000000196,117.82031300000017,178.3334960000002,110.51269500000035,111.6665039999998,81.2822270000006,85.38476599999922,78.58984400000008,70.25634799999989,117.30761700000039,98.46142599999985,77.05126999999993,83.0771479999994
25,82.05126999999993,52.43603499999972,112.30761700000039,178.84619099999964,120.25634799999989,111.9228520000006,84.61523400000078,88.0771479999994,74.74365200000011,80.51269500000035,117.05126999999993,99.48730499999965,69.74365200000011,78.7177729999994
26,85.89746099999957,58.46142599999985,112.17968800000017,187.56396500000028,163.9741210000002,116.41015599999992,90.25634799999989,94.61523400000078,82.17968800000017,104.10253900000043,124.61523400000078,102.17968800000017,72.43603499999972,82.17968800000017
27,95.89746099999957,76.15380900000036,118.3334960000002,203.46142599999985,215.2563479999999,119.48730499999965,96.79492200000004,102.05126999999993,101.53857400000015,120.25634799999989,146.41015599999992,105.76904300000024,84.48730499999965,92.30761700000039
28,108.3334960000002,89.48730499999965,130.0,221.53857400000015,231.6665039999998,117.05126999999993,108.46142599999985,111.9228520000006,122.69238299999961,102.69238299999961,178.84619099999964,112.05126999999993,96.0258789999998,104.48730499999965
29,119.35888699999941,86.15380900000036,143.84619099999964,233.9741210000002,190.89746099999957,109.74365200000011,129.23095699999976,127.69238299999961,128.20507799999996,47.05126999999993,205.51269500000035,121.41015599999992,96.79492200000004,113.0771479999994
30,124.23095699999976,67.69238299999961,153.20507799999996,234.7436520000001,112.94873000000007,102.82031300000017,152.6923829999996,145.2563479999999,106.2822270000006,-19.358886999999868,209.61523400000078,128.9741210000002,84.35888699999941,112.82031300000017
31,120.0,47.94873000000007,151.79492200000004,224.61523400000078,47.17968800000017,101.41015599999992,164.3588869999994,154.10253900000043,65.0,-56.79492200000004,192.6923829999996,128.3334960000002,66.2822270000006,102.82031300000017
32,111.6665039999998,44.23095699999976,141.53857400000015,213.9741210000002,42.05126999999993,106.2822270000006,157.05126999999993,150.38476599999922,31.922852000000603,-43.46142599999985,178.7177729999994,120.64111300000059,57.05126999999993,91.53857400000015
33,111.41015599999992,66.6665039999998,134.3588869999994,217.43603499999972,116.2822270000006,115.0,139.7436520000001,144.61523400000078,34.87158199999976,10.512695000000349,193.9741210000002,116.41015599999992,68.9741210000002,94.23095699999976
34,127.82031300000017,109.61523400000078,141.2822270000006,240.12841800000024,241.0258789999998,123.20507799999996,128.46142599999985,151.15380900000036,76.6665039999998,69.74365200000011,241.2822270000006,125.64111300000059,100.51269500000035,119.10253900000043
35,154.23095699999976,149.48730499999965,160.51269500000035,269.87158199999976,346.2822270000006,126.6665039999998,131.53857400000015,172.05126999999993,127.69238299999961,93.20507799999996,292.94873000000007,145.6411130000006,132.56396500000028,155.38476599999922
36,172.94873000000007,159.61523400000078,178.0771479999994,286.2822270000006,363.9741210000002,122.17968800000017,144.61523400000078,193.20507799999996,148.20507799999996,59.74365200000011,311.15380900000036,162.6923829999996,142.6923829999996,179.10253900000043
37,169.87158199999976,131.79492200000004,180.38476599999922,280.2563479999999,277.94873000000007,110.51269500000035,157.43603499999972,198.20507799999996,122.56396500000028,-15.0,279.23095699999976,164.23095699999976,126.0258789999998,173.58984400000008
38,147.94873000000007,83.9741210000002,166.6665039999998,261.2822270000006,137.05126999999993,95.89746099999957,163.58984400000008,181.79492200000004,72.43603499999972,-86.66674799999964,218.84619099999964,150.0,97.94873000000007,144.23095699999976
39,126.15380900000036,46.666503999999804,151.0258789999998,248.0771479999994,18.205077999999958,84.23095699999976,165.6411130000006,155.89746099999957,39.23095699999976,-114.74365200000011,175.38476599999922,133.84619099999964,79.23095699999976,115.25634799999989
40,126.0258789999998,40.51269500000035,152.05126999999993,253.84619099999964,-24.230713000000378,79.48730499999965,172.56396500000028,141.41015599999992,50.0,-90.89746100000002,182.94873000000007,132.56396500000028,80.12841800000024,112.56396500000028
41,155.6411130000006,67.30761700000039,178.0771479999994,278.0771479999994,15.0,81.53857400000015,190.6411130000006,153.7177729999994,97.43603499999972,-37.69238299999961,237.56396500000028,153.20507799999996,98.3334960000002,145.38476599999922
42,202.94873000000007,113.84619099999964,218.46142599999985,306.9228520000006,101.53857400000015,86.53857400000015,215.51269500000035,189.61523400000078,146.9228520000006,17.56396500000028,297.94873000000007,186.15380900000036,126.79492200000004,198.9741210000002
43,242.05126999999993,161.41015599999992,250.0,322.6923829999996,189.48730499999965,90.12841800000024,232.05126999999993,226.2822270000006,164.10253900000043,67.43603499999972,314.3588869999994,210.76904300000024,158.3334960000002,244.48730499999965
44,250.76904300000024,193.9741210000002,252.17968800000017,314.48730499999965,247.17968800000017,89.35888699999941,224.10253900000043,236.15380900000036,141.2822270000006,123.84619099999964,262.6923829999996,209.61523400000078,186.15380900000036,257.17968800000017
45,222.56396500000028,201.9228520000006,219.87158199999976,283.7177729999994,265.6411130000006,83.9741210000002,185.12841800000024,205.0,98.84619099999964,194.10253900000043,157.82031300000017,179.23095699999976,200.2563479999999,229.23095699999976
46,165.12841800000024,178.7177729999994,163.7177729999994,237.94873000000007,248.46142599999985,75.89746099999957,121.41015599999992,139.3588869999994,62.69238299999961,261.53857400000015,36.53857400000015,130.38476599999922,185.89746099999957,169.3588869999994
47,90.12841800000024,120.12841800000024,98.0771479999994,179.3588869999994,199.61523400000078,67.82031300000017,46.53857400000015,57.94873000000007,37.94873000000007,293.9741210000002,-73.07690400000001,77.82031300000017,129.61523400000078,90.76904300000024
48,4.102539000000434,30.0,30.51269500000035,99.74365200000011,125.25634799999989,61.53857400000015,-29.487060999999812,-22.435790999999426,7.051269999999931,274.10253900000043,-169.61547900000005,28.974121000000196,30.128418000000238,1.153809000000365
49,-91.66674799999964,-76.92309599999999,-40.51293900000019,-9.487060999999812,39.35888699999941,56.9228520000006,-103.97436500000003,-97.82055700000001,-49.48706099999981,219.10253900000043,-269.102539,-17.948729999999614,-94.48706099999981,-96.66674799999964
50,-193.58984399999963,-179.4870609999998,-116.15380900000036,-142.43579099999943,-42.69238299999961,53.333496000000196,-176.28198199999997,-171.923096,-131.66674799999964,165.0,-382.179443,-66.79492200000004,-214.8718259999996,-198.46142599999985
51,-290.0,-263.97436500000003,-188.46142599999985,-274.2307130000004,-116.02563499999997,50.51269500000035,-239.8718259999996,-244.35888699999987,-219.35888699999987,133.9741210000002,-500.1281740000004,-114.48706099999981,-306.66674799999964,-293.20507799999996
52,-365.1281740000004,-331.28198199999997,-243.20507799999996,-376.15380900000036,-187.0512700000004,49.23095699999976,-285.2563479999999,-307.4357909999994,-291.02563499999997,117.56396500000028,-606.281982,-151.53857400000015,-365.5129390000002,-368.33325200000036
53,-414.102539,-393.20507799999996,-274.102539,-440.1281740000004,-264.61547900000005,49.23095699999976,-312.0512700000004,-355.5129390000002,-342.4357909999994,89.23095699999976,-694.2307130000004,-173.84619099999964,-409.102539,-421.28198199999997
54,-448.58984399999963,-462.179443,-291.66674799999964,-485.897461,-351.53857400000015,49.61523400000078,-334.102539,-393.97436500000003,-387.179443,29.358886999999413,-771.794922,-188.46142599999985,-462.9487299999996,-464.61547900000005
55,-487.0512700000004,-538.8461909999996,-314.102539,-544.2307130000004,-439.8718259999996,50.12841800000024,-366.79492200000004,-434.7436520000001,-439.102539,-56.153809000000365,-851.025635,-207.43579099999943,-537.5642090000006,-513.8461909999996
56,-538.076904,-608.718018,-351.15380900000036,-629.102539,-509.8718259999996,51.9228520000006,-413.076904,-482.179443,-498.076904,-137.43579099999943,-938.718018,-236.02563499999997,-618.718018,-572.6923829999996
57,-593.8461909999996,-654.102539,-396.28198199999997,-725.6411130000001,-543.718018,57.56396500000028,-461.79492200000004,-530.7692869999996,-551.4101560000004,-182.0512700000004,-1031.666748,-269.2307130000004,-679.7436520000001,-630.7692869999996
58,-639.3588869999999,-672.5642090000006,-434.102539,-803.8461910000001,-546.5385740000002,67.05126999999993,-498.20507799999996,-570.7692869999996,-586.923096,-185.76928699999962,-1116.5385739999997,-295.897461,-707.9487299999996,-674.4870609999998
59,-664.8718259999996,-680.6411130000001,-452.3076170000004,-845.0,-547.0512700000004,77.69238299999961,-515.2563479999999,-596.025635,-603.8461909999996,-177.43579099999943,-1177.05127,-308.076904,-714.102539,-698.4614259999998
60,-672.5642090000006,-697.0512700000004,-451.53857400000015,-852.6923829999996,-568.718018,85.76904300000024,-517.9487299999996,-606.794922,-610.6411130000001,-191.53857400000015,-1206.153809,-306.15380900000036,-719.615479,-708.076904
61,-673.3332520000004,-724.8718259999996,-443.58984399999963,-846.4101559999999,-607.9487299999996,88.84619099999964,-519.102539,-609.4870609999998,-618.4614259999998,-236.41015600000037,-1211.5385739999997,-298.84619099999964,-737.4357909999994,-713.8461909999996
62,-677.6923829999996,-751.281982,-441.28198199999997,-843.8461910000001,-642.5642090000006,87.82031300000017,-527.9487299999996,-611.5385740000002,-632.179443,-286.923096,-1209.230713,-296.41015600000037,-764.7436520000001,-722.6923829999996
63,-687.3076170000004,-762.179443,-447.820557,-850.384521,-655.2563479999999,85.76904300000024,-541.923096,-616.025635,-647.0512700000004,-307.820557,-1213.4614260000003,-302.6923829999996,-786.923096,-733.3332520000004
64,-697.179443,-753.3332519999999,-458.20507799999996,-859.871826,-646.923096,85.25634799999989,-551.025635,-620.5129390000002,-653.718018,-281.79492200000004,-1230.256348,-313.58984399999963,-788.718018,-739.8718259999996
65,-704.102539,-733.3332520000004,-466.66674799999964,-865.384521,-632.179443,86.15380900000036,-550.384521,-622.820557,-648.5898439999996,-226.53857400000015,-1255.384521,-323.97436500000003,-767.0512699999999,-740.2563479999999
66,-710.1281740000004,-718.8461909999996,-472.4357909999994,-866.5385739999997,-627.6923829999996,86.41015599999992,-545.5129390000002,-625.0,-639.615479,-185.0,-1276.153809,-331.28198199999997,-738.718018,-740.0
67,-716.4101560000004,-722.5642090000006,-475.2563479999999,-864.3588870000003,-641.4101560000004,84.35888699999941,-544.102539,-628.718018,-638.8461909999996,-195.76928699999962,-1278.076904,-333.71801800000003,-729.2307130000004,-744.3588869999999
68,-717.9487299999996,-742.5642090000006,-471.15380900000036,-853.5898440000001,-667.6923829999996,80.64111300000059,-544.2307130000004,-629.8718259999996,-649.3588869999999,-262.179443,-1255.384521,-328.20507799999996,-750.0,-749.4870609999998
69,-706.6667479999996,-762.179443,-456.02563499999997,-826.1538089999999,-691.6667479999996,77.69238299999961,-536.1538090000004,-620.384521,-660.7692869999996,-348.076904,-1218.589844,-312.3076170000004,-786.4101559999999,-745.128174
70,-681.923096,-763.718018,-432.4357909999994,-783.205078,-698.8461909999996,77.69238299999961,-515.0,-598.974365,-658.974365,-401.41015600000037,-1190.769287,-290.38452099999995,-809.102539,-726.281982
71,-654.7436520000001,-741.794922,-411.53857400000015,-741.794922,-685.2563479999999,81.0258789999998,-489.8718259999996,-575.5129390000002,-640.1281740000004,-388.84619099999964,-1193.589844,-274.102539,-797.820557,-701.025635
72,-640.897461,-705.7692869999996,-406.15380900000036,-724.7436520000001,-657.5642090000006,85.38476599999922,-478.076904,-565.0,-614.615479,-314.4870609999998,-1230.769287,-274.35888699999987,-755.897461,-685.0
73,-648.076904,-670.897461,-420.0,-740.897461,-626.5385740000002,88.3334960000002,-490.1281740000004,-575.0,-598.5898439999996,-216.53857400000015,-1281.281982,-291.66674799999964,-705.384521,-687.5642090000006
74,-668.974365,-648.8461909999996,-442.3076170000004,-773.718018,-601.5385740000002,87.56396500000028,-519.102539,-598.8461909999996,-601.025635,-144.10253899999998,-1310.6411129999997,-314.7436520000001,-670.384521,-703.076904
75,-685.1281740000004,-642.6923829999996,-455.0,-792.0512699999999,-587.5642090000006,82.94873000000007,-543.974365,-618.5898439999996,-616.794922,-129.7436520000001,-1297.820557,-327.179443,-661.6667479999996,-715.5129390000002
76,-680.7692869999996,-646.4101560000004,-445.7692869999996,-773.5898440000001,-584.102539,76.53857400000015,-545.5129390000002,-617.5642090000006,-630.6411130000001,-171.02563499999997,-1253.718018,-319.8718259999996,-671.923096,-710.897461
77,-656.025635,-649.102539,-419.2307130000004,-725.5129390000002,-585.897461,71.2822270000006,-520.7692869999996,-592.6923829999996,-628.5898439999996,-234.10253899999998,-1213.205078,-297.5642090000006,-685.2563479999999,-688.974365
78,-627.820557,-643.3332520000004,-394.8718259999996,-680.2563479999999,-585.6411130000001,68.9741210000002,-488.076904,-559.102539,-609.7436520000001,-277.4357909999994,-1205.256348,-276.28198199999997,-691.025635,-664.3588869999999
79,-617.6923829999996,-629.102539,-392.5642090000006,-670.384521,-578.974365,69.23095699999976,-472.6923829999996,-539.615479,-585.6411130000001,-279.2307130000004,-1230.897461,-271.79492200000004,-690.1281740000004,-655.1281740000004
80,-632.4357909999994,-612.6923829999996,-414.4870609999998,-699.2307130000004,-567.3076170000004,70.25634799999989,-485.2563479999999,-547.179443,-570.5129390000002,-247.179443,-1264.230713,-286.923096,-688.974365,-666.794922
81,-656.025635,-598.718018,-441.53857400000015,-737.3076170000004,-554.8718259999996,70.51269500000035,-510.64111300000013,-572.5642090000006,-567.820557,-205.89746100000002,-1275.256348,-308.20507799999996,-689.2307130000004,-686.281982
82,-662.6923829999996,-584.2307130000004,-448.46142599999985,-747.820557,-544.7436520000001,69.87158199999976,-520.2563479999999,-591.025635,-568.076904,-175.64111300000013,-1253.589844,-316.28198199999997,-683.5898439999996,-691.1538090000004
83,-640.384521,-563.3332520000004,-426.79492200000004,-720.2563479999999,-536.5385740000002,69.35888699999941,-499.2307130000004,-584.7436520000001,-559.4870609999998,-159.7436520000001,-1215.769287,-302.9487299999996,-664.615479,-670.384521
84,-603.8461909999996,-537.3076170000004,-393.20507799999996,-677.5642090000006,-530.7692869999996,69.23095699999976,-461.41015600000037,-559.102539,-541.5385740000002,-153.71801800000003,-1189.4870609999998,-279.2307130000004,-635.6411130000001,-636.281982
85,-580.2563479999999,-517.820557,-373.71801800000003,-650.7692869999996,-530.5129390000002,69.10253900000043,-435.897461,-536.794922,-526.6667479999996,-157.56420900000057,-1187.179443,-263.20507799999996,-611.025635,-612.820557
86,-582.5642090000006,-515.1281740000004,-378.20507799999996,-650.0,-538.974365,68.9741210000002,-439.102539,-533.5898439999996,-526.281982,-176.15380900000036,-1195.6411129999997,-263.20507799999996,-604.8718259999996,-612.6923829999996
87,-598.8461909999996,-526.1538090000004,-393.84619099999964,-659.7436520000001,-551.1538090000004,69.35888699999941,-459.8718259999996,-543.5898439999996,-537.4357909999994,-205.38452099999995,-1191.666748,-271.02563499999997,-615.384521,-625.897461
88,-606.4101560000004,-533.5898439999996,-400.38452099999995,-658.076904,-554.4870609999998,70.64111300000059,-474.2307130000004,-547.9487299999996,-544.3588869999999,-226.66674799999964,-1166.281982,-273.97436500000003,-625.2563479999999,-631.6667479999996
89,-593.3332520000004,-522.179443,-390.0,-637.6923829999996,-539.7436520000001,72.69238299999961,-468.58984399999963,-535.6411130000001,-533.718018,-221.02563499999997,-1133.4614260000003,-267.820557,-616.4101560000004,-618.8461909999996
90,-567.4357909999994,-492.820557,-371.28198199999997,-609.615479,-511.28198199999997,74.61523400000078,-448.46142599999985,-512.179443,-506.28198199999997,-188.076904,-1115.256348,-259.102539,-587.4357909999994,-594.2307130000004
91,-545.7692869999996,-460.0,-358.46142599999985,-589.102539,-484.8718259999996,75.38476599999922,-429.61547900000005,-491.15380900000036,-475.38452099999995,-147.9487299999996,-1118.846191,-255.2563479999999,-553.3332520000004,-573.205078
92,-537.820557,-438.71801800000003,-357.5642090000006,-582.0512700000004,-475.38452099999995,74.87158199999976,-421.41015600000037,-481.28198199999997,-456.923096,-126.41015600000037,-1130.5129390000002,-257.179443,-532.179443,-564.615479
93,-540.384521,-434.61547900000005,-363.20507799999996,-581.1538090000004,-486.28198199999997,72.94873000000007,-421.923096,-480.38452099999995,-458.20507799999996,-136.15380900000036,-1129.230713,-258.97436500000003,-531.5385740000002,-565.2563479999999
94,-542.3076170000004,-442.4357909999994,-364.7436520000001,-574.2307130000004,-507.9487299999996,70.12841800000024,-422.0512700000004,-480.0,-473.46142599999985,-167.6923829999996,-1107.05127,-255.38452099999995,-544.102539,-565.5129390000002
95,-534.7436520000001,-449.61547900000005,-356.41015600000037,-554.615479,-522.179443,67.69238299999961,-414.4870609999998,-472.5642090000006,-487.0512700000004,-195.0,-1073.589844,-246.02563499999997,-552.820557,-558.4614259999998
96,-516.6667479999996,-442.820557,-341.28198199999997,-526.4101560000004,-512.6923829999996,66.41015599999992,-399.7436520000001,-456.53857400000015,-483.97436500000003,-194.23071300000038,-1042.5642090000001,-234.8718259999996,-542.3076170000004,-542.5642090000006
97,-493.58984399999963,-416.41015600000037,-326.28198199999997,-499.7436520000001,-476.53857400000015,67.05126999999993,-383.20507799999996,-435.5129390000002,-459.35888699999987,-163.33325200000036,-1016.794922,-224.8718259999996,-509.61547900000005,-520.5129390000002
98,-471.66674799999964,-377.9487299999996,-315.1281740000004,-481.15380900000036,-428.84619099999964,69.87158199999976,-369.7436520000001,-414.4870609999998,-423.076904,-124.48706099999981,-990.384521,-216.02563499999997,-467.820557,-496.15380900000036
99,-452.9487299999996,-343.71801800000003,-305.897461,-469.8718259999996,-393.71801800000003,73.58984400000008,-359.35888699999987,-396.28198199999997,-392.3076170000004,-105.1281740000004,-961.923096,-206.53857400000015,-435.7692869999996,-472.6923829999996
100,-437.820557,-326.66674799999964,-295.7692869999996,-461.79492200000004,-386.53857400000015,76.15380900000036,-349.4870609999998,-381.923096,-379.2307130000004,-113.97436500000003,-943.205078,-196.79492200000004,-425.0,-454.4870609999998
101,-427.3076170000004,-326.79492200000004,-286.28198199999997,-455.2563479999999,-402.4357909999994,75.89746099999957,-339.7436520000001,-372.9487299999996,-383.20507799999996,-133.33325200000036,-949.3588870000003,-191.02563499999997,-432.4357909999994,-446.02563499999997
102,-423.84619099999964,-332.5642090000006,-282.179443,-452.179443,-420.0,73.3334960000002,-333.46142599999985,-371.41015600000037,-392.4357909999994,-136.15380900000036,-980.5129390000002,-193.076904,-444.2307130000004,-448.58984399999963
103,-426.923096,-330.7692869999996,-285.64111300000013,-452.3076170000004,-418.71801800000003,71.41015599999992,-334.2307130000004,-376.79492200000004,-392.820557,-110.1281740000004,-1013.8461910000001,-201.53857400000015,-446.28198199999997,-457.0512700000004
104,-430.897461,-316.28198199999997,-291.66674799999964,-449.35888699999987,-394.4870609999998,72.43603499999972,-339.7436520000001,-383.71801800000003,-377.6923829999996,-68.58984399999963,-1019.3588870000003,-208.84619099999964,-433.20507799999996,-461.15380900000036
105,-427.820557,-293.84619099999964,-291.41015600000037,-435.897461,-361.02563499999997,76.0258789999998,-342.6923829999996,-384.7436520000001,-351.923096,-38.974365000000034,-985.6411129999997,-207.0512700000004,-411.02563499999997,-452.6923829999996
106,-415.2563479999999,-273.46142599999985,-281.28198199999997,-414.102539,-338.20507799999996,80.12841800000024,-336.79492200000004,-376.02563499999997,-327.820557,-39.48706099999981,-930.6411129999997,-195.2563479999999,-391.53857400000015,-433.076904
107,-399.2307130000004,-262.6923829999996,-267.179443,-395.5129390000002,-336.28198199999997,82.17968800000017,-323.58984399999963,-361.66674799999964,-316.66674799999964,-65.1281740000004,-888.8461910000001,-181.15380900000036,-383.97436500000003,-412.4357909999994
108,-388.97436500000003,-262.5642090000006,-259.2307130000004,-390.38452099999995,-349.8718259999996,81.2822270000006,-311.79492200000004,-351.41015600000037,-321.15380900000036,-94.23071300000038,-883.718018,-174.7436520000001,-387.9487299999996,-402.5642090000006
109,-387.9487299999996,-267.3076170000004,-261.66674799999964,-396.66674799999964,-364.102539,78.58984400000008,-308.84619099999964,-351.02563499999997,-333.84619099999964,-106.66674799999964,-910.897461,-178.84619099999964,-395.38452099999995,-405.5129390000002
110,-390.897461,-268.076904,-268.33325200000036,-402.0512700000004,-366.53857400000015,76.79492200000004,-313.20507799999996,-356.79492200000004,-342.4357909999994,-97.94872999999961,-943.4614260000003,-186.53857400000015,-396.15380900000036,-412.9487299999996
111,-388.84619099999964,-258.84619099999964,-269.2307130000004,-394.8718259999996,-355.1281740000004,78.20507799999996,-316.15380900000036,-358.33325200000036,-338.97436500000003,-78.71801800000003,-953.974365,-188.20507799999996,-386.66674799999964,-412.9487299999996
112,-377.5642090000006,-241.15380900000036,-259.61547900000005,-374.2307130000004,-337.4357909999994,82.30761700000039,-310.2563479999999,-348.46142599999985,-325.0,-64.10253899999998,-933.8461910000001,-179.7436520000001,-370.38452099999995,-400.7692869999996
113,-361.28198199999997,-223.20507799999996,-244.35888699999987,-350.1281740000004,-323.076904,86.6665039999998,-295.64111300000013,-329.8718259999996,-308.71801800000003,-61.41015600000037,-896.1538089999999,-166.15380900000036,-355.1281740000004,-382.0512700000004
114,-347.820557,-213.33325200000036,-232.820557,-335.1281740000004,-316.41015600000037,88.20507799999996,-280.0,-312.179443,-297.820557,-67.82055700000001,-862.4357909999999,-156.02563499999997,-347.5642090000006,-367.4357909999994
115,-342.0512700000004,-212.56420900000057,-230.5129390000002,-334.61547900000005,-314.8718259999996,86.79492200000004,-271.15380900000036,-303.58984399999963,-293.71801800000003,-76.28198199999997,-844.2307129999999,-153.84619099999964,-348.58984399999963,-363.076904
116,-340.2563479999999,-213.84619099999964,-233.97436500000003,-341.28198199999997,-313.076904,84.35888699999941,-269.7436520000001,-303.076904,-292.0512700000004,-81.28198199999997,-837.0512699999999,-156.923096,-352.179443,-364.8718259999996
117,-334.102539,-208.076904,-233.71801800000003,-340.897461,-306.28198199999997,83.58984400000008,-268.84619099999964,-301.79492200000004,-287.0512700000004,-80.25634799999989,-829.4870609999998,-157.179443,-349.4870609999998,-361.923096
118,-318.20507799999996,-190.2563479999999,-222.9487299999996,-324.7436520000001,-293.20507799999996,84.61523400000078,-260.897461,-291.41015600000037,-275.5129390000002,-72.05127000000039,-815.5129390000002,-149.7436520000001,-334.35888699999987,-346.66674799999964
119,-295.7692869999996,-163.46142599999985,-203.97436500000003,-297.179443,-274.7436520000001,86.15380900000036,-244.10253899999998,-271.15380900000036,-257.820557,-55.76928699999962,-797.6923829999996,-136.02563499999997,-308.20507799999996,-321.79492200000004
120,-275.64111300000013,-136.53857400000015,-185.76928699999962,-271.53857400000015,-255.0,86.2822270000006,-225.0,-248.58984399999963,-237.820557,-34.8718259999996,-781.1538089999999,-122.94872999999961,-280.5129390000002,-297.179443
121,-264.102539,-118.58984399999963,-175.76928699999962,-256.923096,-239.23071300000038,85.12841800000024,-210.76928699999962,-232.179443,-220.64111300000013,-17.179442999999992,-767.179443,-116.15380900000036,-261.79492200000004,-281.79492200000004
122,-259.61547900000005,-112.43579099999943,-173.58984399999963,-251.66674799999964,-230.38452099999995,84.74365200000011,-204.10253899999998,-224.7436520000001,-209.61547900000005,-9.61547900000005,-752.5642090000001,-115.51293900000019,-256.15380900000036,-276.66674799999964
123,-255.38452099999995,-112.82055700000001,-172.9487299999996,-246.15380900000036,-226.41015600000037,86.53857400000015,-201.28198199999997,-221.79492200000004,-203.33325200000036,-11.153809000000365,-733.205078,-116.15380900000036,-258.33325200000036,-275.2563479999999
124,-245.38452099999995,-110.38452099999995,-167.6923829999996,-232.3076170000004,-221.15380900000036,89.74365200000011,-196.41015600000037,-216.41015600000037,-197.0512700000004,-13.58984399999963,-708.8461909999996,-112.69238299999961,-258.33325200000036,-269.2307130000004
125,-228.076904,-97.94872999999961,-155.64111300000013,-209.23071300000038,-209.10253899999998,92.30761700000039,-185.5129390000002,-203.58984399999963,-186.02563499999997,-7.820557000000008,-681.6667479999996,-103.97436500000003,-247.9487299999996,-254.23071300000038
126,-205.5129390000002,-74.10253899999998,-139.10253899999998,-181.41015600000037,-188.58984399999963,92.43603499999972,-168.84619099999964,-182.6923829999996,-168.33325200000036,9.102539000000434,-652.6923829999996,-91.92309599999999,-225.38452099999995,-230.38452099999995
127,-181.41015600000037,-44.61547900000005,-121.66674799999964,-153.33325200000036,-163.58984399999963,89.74365200000011,-149.10253899999998,-157.0512700000004,-145.5129390000002,31.922852000000603,-622.179443,-79.35888699999987,-196.41015600000037,-202.3076170000004
128,-159.61547900000005,-17.435790999999426,-107.05127000000039,-127.82055700000001,-140.89746100000002,86.0258789999998,-130.5129390000002,-132.56420900000057,-122.56420900000057,51.410155999999915,-591.025635,-68.71801800000003,-170.1281740000004,-176.923096
129,-142.6923829999996,1.2822270000006029,-96.79492200000004,-106.02563499999997,-125.64111300000013,83.46142599999985,-115.89746100000002,-114.10253899999998,-104.48706099999981,60.51269500000035,-561.4101560000004,-60.51293900000019,-153.46142599999985,-159.23071300000038
130,-129.61547900000005,12.948730000000069,-88.97436500000003,-87.30761700000039,-116.66674799999964,84.10253900000043,-105.0,-102.30761700000039,-92.17944299999999,60.38476599999922,-533.718018,-52.82055700000001,-145.5129390000002,-148.33325200000036
131,-115.38452099999995,25.0,-78.46142599999985,-68.33325200000036,-106.28198199999997,88.46142599999985,-93.97436500000003,-91.92309599999999,-81.28198199999997,59.35888699999941,-504.2307130000004,-42.69238299999961,-137.6923829999996,-136.923096
132,-93.58984399999963,46.153809000000365,-60.76928699999962,-43.33325200000036,-86.66674799999964,95.12841800000024,-78.33325200000036,-76.02563499999997,-65.76928699999962,67.05126999999993,-467.6923829999996,-27.948729999999614,-120.1281740000004,-116.41015600000037
133,-62.564209000000574,78.84619099999964,-35.76928699999962,-9.743652000000111,-56.025634999999966,100.76904300000024,-57.564209000000574,-52.051270000000386,-43.20507799999996,86.6665039999998,-422.820557,-10.0,-89.8718259999996,-84.23071300000038
134,-26.538574000000153,117.56396500000028,-8.71801800000003,29.102539000000434,-21.025634999999966,103.20507799999996,-35.0,-22.69238299999961,-16.28198199999997,113.7177729999994,-374.4870609999998,6.922852000000603,-52.82055700000001,-45.89746100000002
135,6.794922000000042,153.58984400000008,14.615234000000783,66.79492200000004,9.743652000000111,101.79492200000004,-14.487060999999812,6.153809000000365,10.0,140.38476599999922,-329.8718259999996,19.74365200000011,-18.974365000000034,-10.897461000000021
136,32.94873000000007,181.9228520000006,31.794922000000042,100.0,32.43603499999972,99.23095699999976,2.9487300000000687,31.410155999999915,33.46142599999985,162.94873000000007,-291.53857400000015,29.230956999999762,6.410155999999915,16.025878999999804
137,53.46142599999985,203.84619099999964,45.76904300000024,131.6665039999998,51.2822270000006,98.7177729999994,20.0,54.23095699999976,55.897460999999566,182.6923829999996,-254.7436520000001,39.87158199999976,25.897460999999566,37.56396500000028
138,74.23095699999976,225.38476599999922,62.05126999999993,168.20507799999996,73.20507799999996,101.9228520000006,40.38476599999922,77.94873000000007,80.51269500000035,203.7177729999994,-212.820557,55.12841800000024,47.30761700000039,60.76904300000024
139,100.38476599999922,251.9228520000006,83.58984400000008,213.0771479999994,102.17968800000017,107.69238299999961,65.64111300000059,105.0,108.58984400000008,227.82031300000017,-163.20507799999996,74.48730499999965,76.79492200000004,90.51269500000035
140,133.46142599999985,285.2563479999999,109.48730499999965,264.3588869999994,136.9228520000006,113.46142599999985,94.23095699999976,134.87158199999976,139.48730499999965,254.3588869999994,-109.10253899999998,94.48730499999965,114.35888699999941,126.79492200000004
141,170.6411130000006,322.4360349999997,136.0258789999998,316.4101559999999,172.43603499999972,117.56396500000028,122.56396500000028,165.0,170.76904300000024,281.0258789999998,-56.53857400000015,111.79492200000004,154.61523400000078,165.0
142,205.89746099999957,357.5639650000003,159.48730499999965,362.5639650000003,202.94873000000007,119.10253900000043,147.05126999999993,192.82031300000017,200.51269500000035,305.6411130000006,-10.0,125.89746099999957,190.76904300000024,199.87158199999976
143,233.58984400000008,385.12841800000024,177.56396500000028,398.46142599999985,225.6411130000006,118.3334960000002,165.38476599999922,215.89746099999957,226.15380900000036,325.3847659999992,29.871581999999762,136.9228520000006,218.20507799999996,227.56396500000028
144,251.6665039999998,403.20507799999996,190.12841800000024,423.5898440000001,241.6665039999998,115.64111300000059,178.46142599999985,233.7177729999994,246.15380900000036,337.4360349999997,65.89746099999957,145.76904300000024,236.41015599999992,247.43603499999972
145,262.82031300000017,413.7177729999994,198.58984400000008,441.4101559999999,254.7436520000001,111.79492200000004,188.84619099999964,247.6923829999996,261.0258789999998,340.6411130000006,103.20507799999996,152.6923829999996,249.3588869999994,261.79492200000004
146,271.0258789999998,420.6411130000006,205.0,456.0258789999998,268.84619099999964,107.94873000000007,199.61523400000078,260.0,273.0771479999994,337.05126999999993,146.15380900000036,158.58984400000008,260.89746099999957,273.0771479999994
147,278.84619099999964,426.0258789999998,210.6411130000006,469.6152340000008,283.7177729999994,105.25634799999989,211.41015599999992,271.9228520000006,284.23095699999976,329.23095699999976,195.12841800000024,163.7177729999994,272.3076170000004,281.9228520000006
148,285.51269500000035,428.3334960000002,215.6411130000006,482.3076170000004,295.6411130000006,105.12841800000024,221.6665039999998,282.82031300000017,294.23095699999976,317.6923829999996,246.79492200000004,167.6923829999996,281.4101559999999,287.6923829999996
149,289.7436520000001,426.0258789999998,219.3588869999994,493.3334960000002,301.4101559999999,107.56396500000028,228.0771479999994,290.6411130000006,300.89746099999957,301.9228520000006,297.05126999999993,169.87158199999976,286.4101559999999,290.0
150,294.23095699999976,422.4360349999997,223.3334960000002,504.10253900000043,304.10253900000043,111.79492200000004,231.9228520000006,296.53857400000015,305.51269500000035,283.5898440000001,345.3847659999992,171.79492200000004,290.0,292.3076170000004
151,304.48730499999965,426.0258789999998,230.38476599999922,516.9228520000006,311.9228520000006,115.89746099999957,238.84619099999964,304.48730499999965,312.6923829999996,269.3588869999994,395.51269500000035,176.6665039999998,298.5898440000001,301.15380900000036
152,322.94873000000007,441.6665039999998,241.6665039999998,532.1796880000002,330.51269500000035,118.3334960000002,251.6665039999998,317.3076170000004,326.15380900000036,265.51269500000035,449.7436520000001,186.2822270000006,315.2563479999999,319.87158199999976
153,344.87158199999976,463.0771479999994,254.23095699999976,547.8203130000002,356.2822270000006,118.58984400000008,267.6923829999996,333.0771479999994,343.46142599999985,271.6665039999998,504.23095699999976,198.20507799999996,335.6411130000006,343.46142599999985
154,361.0258789999998,476.4101559999999,263.3334960000002,561.2822270000006,378.0771479999994,117.30761700000039,279.87158199999976,346.15380900000036,357.6923829999996,279.48730499999965,551.1538090000004,207.3076170000004,351.15380900000036,361.53857400000015
155,367.05126999999993,473.9741210000002,267.6923829999996,571.2822270000006,386.9228520000006,115.89746099999957,284.6152340000008,353.0771479999994,363.5898440000001,280.2563479999999,586.4101559999999,210.6411130000006,357.4360349999997,368.3334960000002
156,366.53857400000015,462.17968800000017,270.2563479999999,578.7177729999994,384.6152340000008,115.76904300000024,285.3847659999992,356.2822270000006,363.7177729999994,271.9228520000006,614.4873049999997,210.38476599999922,358.0771479999994,367.3076170000004
157,367.94873000000007,455.89746099999957,275.3847659999992,584.4873049999997,380.89746099999957,116.53857400000015,289.10253900000043,361.53857400000015,366.4101559999999,261.0258789999998,643.4614259999998,211.15380900000036,361.4101559999999,368.5898440000001
158,376.9228520000006,464.48730499999965,284.48730499999965,588.9741210000002,384.87158199999976,117.30761700000039,300.12841800000024,372.3076170000004,378.0771479999994,256.53857400000015,677.3076170000004,215.89746099999957,371.9228520000006,379.6152340000008
159,391.79492200000004,483.84619099999964,295.12841800000024,591.6665039999998,398.3334960000002,117.43603499999972,315.51269500000035,386.79492200000004,396.9228520000006,262.05126999999993,711.4101559999999,223.58984400000008,387.3076170000004,398.3334960000002
160,405.3847659999992,499.6152340000008,302.3076170000004,592.0512699999999,415.2563479999999,117.17968800000017,327.3076170000004,398.46142599999985,414.10253900000043,273.5898440000001,736.0258789999998,230.51269500000035,399.23095699999976,415.2563479999999
161,411.2822270000006,500.2563479999999,303.0771479999994,588.7177729999994,427.6923829999996,116.53857400000015,327.94873000000007,401.53857400000015,419.6152340000008,282.6923829999996,744.4873049999997,232.94873000000007,400.76904300000024,420.76904300000024
162,406.9228520000006,485.76904300000024,298.3334960000002,581.2822270000006,430.3847659999992,115.64111300000059,316.2822270000006,394.10253900000043,410.12841800000024,281.53857400000015,737.8203130000002,230.0,392.17968800000017,412.5639650000003
163,395.76904300000024,465.76904300000024,291.53857400000015,570.2563479999999,422.05126999999993,114.61523400000078,298.3334960000002,380.76904300000024,391.15380900000036,269.10253900000043,725.3847659999992,224.48730499999965,379.6152340000008,396.53857400000015
164,384.48730499999965,451.9228520000006,286.9228520000006,558.8461909999996,406.2822270000006,113.7177729999994,283.5898440000001,368.9741210000002,372.94873000000007,251.41015599999992,718.205078,220.6411130000006,370.6411130000006,383.0771479999994
165,379.48730499999965,450.3847659999992,286.9228520000006,551.0258789999998,391.9228520000006,113.9741210000002,279.48730499999965,365.6411130000006,365.12841800000024,238.84619099999964,721.9228520000006,221.53857400000015,369.6152340000008,379.7436520000001
166,382.3076170000004,458.7177729999994,290.76904300000024,548.7177729999994,387.3076170000004,115.12841800000024,286.53857400000015,372.05126999999993,370.6411130000006,238.3334960000002,734.4873049999997,226.6665039999998,375.2563479999999,387.3076170000004
167,388.7177729999994,467.5639650000003,295.3847659999992,550.0,392.05126999999993,115.76904300000024,297.82031300000017,382.05126999999993,383.0771479999994,246.6665039999998,748.0771479999994,231.9228520000006,380.6411130000006,398.20507799999996
168,392.3076170000004,466.0258789999998,297.4360349999997,550.7690430000002,395.2563479999999,113.7177729999994,303.9741210000002,386.2822270000006,391.0258789999998,253.0771479999994,755.0,233.20507799999996,378.46142599999985,402.6923829999996
169,389.23095699999976,448.7177729999994,295.6411130000006,548.7177729999994,384.6152340000008,108.20507799999996,300.0,379.10253900000043,386.4101559999999,247.94873000000007,752.4360349999997,229.7436520000001,366.2822270000006,396.53857400000015
170,381.2822270000006,421.2822270000006,291.4101559999999,545.2563479999999,359.6152340000008,101.0258789999998,289.3588869999994,363.46142599999985,371.0258789999998,231.6665039999998,743.5898440000001,224.3588869999994,350.3847659999992,384.23095699999976
171,375.0,397.17968800000017,288.46142599999985,543.4614259999998,334.87158199999976,96.53857400000015,280.3847659999992,349.87158199999976,354.7436520000001,214.87158199999976,735.5126950000003,221.6665039999998,341.2822270000006,375.89746099999957
172,375.6411130000006,388.84619099999964,289.48730499999965,545.2563479999999,328.46142599999985,98.0771479999994,279.48730499999965,347.4360349999997,347.5639650000003,209.10253900000043,732.9487300000001,224.3588869999994,345.76904300000024,378.7177729999994
173,383.3334960000002,399.48730499999965,293.9741210000002,547.3076170000004,347.05126999999993,103.9741210000002,286.15380900000036,357.05126999999993,352.94873000000007,217.82031300000017,735.0,230.76904300000024,362.17968800000017,391.53857400000015
174,392.6923829999996,422.6923829999996,297.82031300000017,544.1025390000004,379.7436520000001,109.48730499999965,294.7436520000001,371.2822270000006,365.6411130000006,234.48730499999965,736.1538090000004,236.2822270000006,381.4101559999999,406.0258789999998
175,398.0771479999994,446.6665039999998,297.82031300000017,532.6923829999996,406.9228520000006,110.64111300000059,298.9741210000002,379.87158199999976,376.6665039999998,248.20507799999996,732.3076170000004,237.17968800000017,393.46142599999985,414.6152340000008
176,397.3076170000004,460.6411130000006,294.6152340000008,518.0771479999994,413.5898440000001,108.20507799999996,296.0258789999998,376.9228520000006,378.7177729999994,250.2563479999999,724.4873049999997,233.7177729999994,393.7177729999994,415.0
177,393.84619099999964,459.6152340000008,292.05126999999993,510.12841800000024,399.3588869999994,105.12841800000024,288.9741210000002,364.87158199999976,371.15380900000036,239.10253900000043,717.5639650000003,229.3588869999994,384.48730499999965,410.76904300000024
178,393.0771479999994,447.3076170000004,294.23095699999976,513.8461909999996,376.4101559999999,104.23095699999976,284.10253900000043,352.5639650000003,359.48730499999965,221.41015599999992,716.5385740000002,227.82031300000017,373.7177729999994,407.6923829999996
179,397.4360349999997,433.9741210000002,301.15380900000036,524.4873049999997,360.0,105.64111300000059,286.2822270000006,348.3334960000002,351.9228520000006,208.0771479999994,722.1796880000002,230.6411130000006,368.46142599999985,409.3588869999994
180,404.10253900000043,429.3588869999994,309.3588869999994,530.6411130000006,357.94873000000007,107.94873000000007,294.48730499999965,354.10253900000043,352.5639650000003,205.89746099999957,729.1025390000004,235.89746099999957,371.0258789999998,414.23095699999976
181,406.15380900000036,434.3588869999994,312.94873000000007,524.7436520000001,366.15380900000036,109.35888699999941,301.9228520000006,363.5898440000001,358.3334960000002,212.43603499999972,728.9741210000002,239.61523400000078,376.53857400000015,417.17968800000017
182,398.9741210000002,440.6411130000006,308.7177729999994,508.9741210000002,373.84619099999964,108.9741210000002,302.05126999999993,367.6923829999996,361.4101559999999,218.46142599999985,717.1796880000002,238.46142599999985,378.0771479999994,412.94873000000007
183,385.12841800000024,438.9741210000002,297.94873000000007,492.6923829999996,373.7177729999994,107.43603499999972,293.84619099999964,361.9228520000006,356.79492200000004,216.53857400000015,697.1796880000002,232.17968800000017,371.6665039999998,401.53857400000015
184,372.5639650000003,428.5898440000001,286.15380900000036,484.23095699999976,368.20507799999996,106.41015599999992,283.0771479999994,349.87158199999976,347.05126999999993,207.94873000000007,678.7177729999994,224.48730499999965,360.6411130000006,388.3334960000002
185,367.82031300000017,416.53857400000015,279.23095699999976,483.84619099999964,365.2563479999999,106.41015599999992,276.53857400000015,339.48730499999965,339.23095699999976,200.6411130000006,669.6152340000008,219.23095699999976,352.4360349999997,380.2563479999999
186,370.89746099999957,410.3847659999992,278.7177729999994,484.10253900000043,366.79492200000004,106.41015599999992,276.53857400000015,335.2563479999999,337.6923829999996,200.0,670.7690430000002,217.82031300000017,351.53857400000015,379.48730499999965
187,374.87158199999976,409.7436520000001,281.0258789999998,477.82031300000017,366.53857400000015,104.87158199999976,279.23095699999976,335.12841800000024,339.6152340000008,203.7177729999994,674.8715819999998,217.94873000000007,355.12841800000024,381.4101559999999
188,372.5639650000003,408.7177729999994,281.15380900000036,464.6152340000008,357.5639650000003,102.05126999999993,279.6152340000008,333.84619099999964,338.5898440000001,204.7436520000001,673.4614259999998,216.53857400000015,355.76904300000024,379.87158199999976
189,363.3334960000002,403.0771479999994,277.5639650000003,450.6411130000006,342.5639650000003,99.87158199999976,276.15380900000036,329.3588869999994,331.79492200000004,199.3588869999994,663.3334960000002,213.3334960000002,350.0,372.94873000000007
190,352.6923829999996,395.3847659999992,272.17968800000017,442.6923829999996,331.9228520000006,100.89746099999957,271.53857400000015,324.10253900000043,322.6923829999996,189.7436520000001,649.2309569999998,209.87158199999976,340.51269500000035,363.9741210000002
191,347.4360349999997,390.51269500000035,268.5898440000001,443.20507799999996,333.5898440000001,105.0,268.84619099999964,321.79492200000004,317.5639650000003,181.2822270000006,639.3588869999994,208.58984400000008,333.7177729999994,358.0771479999994
192,349.6152340000008,390.76904300000024,268.20507799999996,448.9741210000002,344.7436520000001,109.10253900000043,269.23095699999976,323.5898440000001,318.9741210000002,177.43603499999972,638.0771479999994,209.61523400000078,333.0771479999994,357.17968800000017
193,354.87158199999976,394.10253900000043,269.3588869999994,454.7436520000001,355.76904300000024,109.87158199999976,271.6665039999998,327.3076170000004,324.48730499999965,177.6923829999996,641.5385740000002,211.6665039999998,337.5639650000003,359.10253900000043
194,357.3076170000004,396.15380900000036,269.48730499999965,457.5639650000003,358.0771479999994,106.9228520000006,273.5898440000001,330.2563479999999,328.7177729999994,179.48730499999965,642.4360349999997,212.43603499999972,342.05126999999993,359.87158199999976
195,354.23095699999976,394.3588869999994,267.94873000000007,457.17968800000017,350.12841800000024,102.82031300000017,273.3334960000002,330.89746099999957,327.94873000000007,180.2563479999999,636.794922,211.41015599999992,341.79492200000004,357.3076170000004
196,347.82031300000017,388.20507799999996,265.51269500000035,453.7177729999994,337.94873000000007,100.89746099999957,271.15380900000036,329.87158199999976,322.94873000000007,178.84619099999964,626.6665039999998,209.48730499999965,336.0258789999998,352.17968800000017
197,342.05126999999993,380.2563479999999,262.82031300000017,445.12841800000024,329.23095699999976,101.79492200000004,268.0771479999994,328.7177729999994,317.3076170000004,176.15380900000036,616.9228520000006,208.20507799999996,327.94873000000007,347.05126999999993
198,338.3334960000002,373.3334960000002,259.3588869999994,430.2563479999999,328.0771479999994,103.58984400000008,264.87158199999976,327.6923829999996,314.87158199999976,174.23095699999976,610.0,207.6923829999996,322.05126999999993,343.84619099999964
199,336.15380900000036,369.7436520000001,255.0,412.17968800000017,333.3334960000002,104.23095699999976,262.05126999999993,326.2822270000006,316.15380900000036,173.84619099999964,605.5126950000003,207.56396500000028,320.3847659999992,342.5639650000003
200,334.10253900000043,370.0,251.41015599999992,397.6923829999996,339.6152340000008,103.20507799999996,260.12841800000024,324.7436520000001,319.7436520000001,174.61523400000078,603.0771479999994,207.56396500000028,322.05126999999993,342.5639650000003
201,332.3076170000004,373.20507799999996,250.76904300000024,392.4360349999997,341.9228520000006,102.17968800000017,260.51269500000035,324.6152340000008,324.23095699999976,175.89746099999957,603.4614259999998,208.0771479999994,325.51269500000035,342.94873000000007
202,332.05126999999993,377.17968800000017,254.23095699999976,396.2822270000006,339.10253900000043,103.3334960000002,264.3588869999994,327.82031300000017,328.7177729999994,177.94873000000007,605.8974609999996,209.61523400000078,328.9741210000002,343.5898440000001
203,334.6152340000008,380.0,260.3847659999992,404.10253900000043,333.9741210000002,107.05126999999993,270.12841800000024,333.5898440000001,332.05126999999993,181.41015599999992,608.3334960000002,211.41015599999992,331.15380900000036,344.7436520000001
204,339.7436520000001,379.87158199999976,266.2822270000006,410.6411130000006,331.2822270000006,111.53857400000015,274.7436520000001,339.10253900000043,333.46142599999985,185.51269500000035,607.8203130000002,212.82031300000017,331.15380900000036,346.4101559999999
205,345.3847659999992,376.6665039999998,269.48730499999965,413.0771479999994,332.82031300000017,113.46142599999985,275.89746099999957,340.76904300000024,332.6923829999996,188.3334960000002,603.8461909999996,213.58984400000008,329.10253900000043,348.0771479999994
206,348.46142599999985,371.2822270000006,268.9741210000002,411.0258789999998,336.0258789999998,110.89746099999957,273.20507799999996,337.3076170000004,330.3847659999992,187.43603499999972,598.205078,213.9741210000002,324.6152340000008,347.94873000000007
207,346.53857400000015,365.6411130000006,265.12841800000024,406.15380900000036,336.53857400000015,105.38476599999922,268.84619099999964,330.0,327.17968800000017,182.43603499999972,591.9228520000006,213.7177729999994,318.0771479999994,345.0
208,339.6152340000008,361.4101559999999,260.2563479999999,400.12841800000024,332.05126999999993,100.64111300000059,264.87158199999976,322.6923829999996,323.46142599999985,174.87158199999976,584.8715819999998,212.6923829999996,310.3847659999992,339.87158199999976
209,331.2822270000006,359.10253900000043,256.79492200000004,394.7436520000001,323.9741210000002,99.74365200000011,262.3076170000004,318.46142599999985,319.10253900000043,167.6923829999996,577.1796880000002,210.89746099999957,303.5898440000001,334.48730499999965
210,325.51269500000035,357.6923829999996,256.15380900000036,391.2822270000006,315.51269500000035,102.82031300000017,260.76904300000024,317.17968800000017,314.6152340000008,162.43603499999972,570.7690430000002,208.9741210000002,299.6152340000008,330.51269500000035
211,324.6152340000008,356.4101559999999,257.94873000000007,389.87158199999976,308.20507799999996,106.2822270000006,258.9741210000002,316.6665039999998,310.76904300000024,159.10253900000043,569.2309569999998,207.3076170000004,299.48730499999965,328.5898440000001
212,326.9228520000006,354.48730499999965,259.87158199999976,388.9741210000002,301.9228520000006,106.53857400000015,256.15380900000036,315.0,308.5898440000001,157.43603499999972,573.0771479999994,206.53857400000015,302.17968800000017,327.94873000000007
213,328.9741210000002,351.79492200000004,259.7436520000001,387.5639650000003,296.6665039999998,103.84619099999964,252.17968800000017,312.4360349999997,308.46142599999985,157.56396500000028,578.9741210000002,206.6665039999998,305.6411130000006,328.20507799999996
214,329.10253900000043,349.48730499999965,257.6923829999996,386.4101559999999,294.48730499999965,101.41015599999992,248.3334960000002,310.89746099999957,309.87158199999976,160.51269500000035,581.6665039999998,207.56396500000028,308.46142599999985,329.48730499999965
215,328.46142599999985,349.7436520000001,255.76904300000024,388.0771479999994,298.5898440000001,102.82031300000017,246.9228520000006,313.20507799999996,312.4360349999997,166.41015599999992,578.8461909999996,209.10253900000043,310.89746099999957,332.6923829999996
216,329.6152340000008,354.23095699999976,256.53857400000015,392.94873000000007,310.0,107.69238299999961,249.7436520000001,319.87158199999976,315.51269500000035,174.61523400000078,572.8203130000002,210.89746099999957,315.12841800000024,337.82031300000017
217,333.7177729999994,361.79492200000004,259.7436520000001,397.5639650000003,323.9741210000002,112.30761700000039,255.89746099999957,327.5639650000003,318.3334960000002,182.05126999999993,567.8203130000002,212.43603499999972,321.2822270000006,343.46142599999985
218,338.5898440000001,368.5898440000001,262.82031300000017,396.15380900000036,332.4360349999997,113.46142599999985,261.6665039999998,330.76904300000024,319.6152340000008,185.51269500000035,565.7690430000002,212.94873000000007,326.9228520000006,346.9228520000006
219,341.6665039999998,370.76904300000024,263.20507799999996,386.4101559999999,330.51269500000035,110.64111300000059,263.9741210000002,326.6665039999998,319.23095699999976,183.46142599999985,566.5385740000002,212.43603499999972,328.5898440000001,346.6665039999998
220,341.79492200000004,367.82031300000017,260.76904300000024,372.82031300000017,320.2563479999999,106.9228520000006,262.5639650000003,318.0771479999994,318.9741210000002,179.10253900000043,568.7177729999994,211.53857400000015,325.51269500000035,344.23095699999976
221,340.2563479999999,362.6923829999996,257.94873000000007,364.23095699999976,308.9741210000002,105.76904300000024,259.7436520000001,311.53857400000015,319.87158199999976,177.17968800000017,570.7690430000002,211.0258789999998,320.89746099999957,342.3076170000004
222,338.84619099999964,358.7177729999994,257.6923829999996,366.79492200000004,302.6923829999996,108.0771479999994,258.3334960000002,311.53857400000015,321.6665039999998,179.87158199999976,571.1538090000004,211.2822270000006,318.3334960000002,342.4360349999997
223,338.3334960000002,357.17968800000017,260.12841800000024,378.20507799999996,301.79492200000004,111.53857400000015,258.9741210000002,317.6923829999996,322.82031300000017,184.87158199999976,569.2309569999998,212.17968800000017,319.6152340000008,343.3334960000002
224,337.05126999999993,356.79492200000004,262.94873000000007,389.10253900000043,302.94873000000007,112.69238299999961,260.0,325.0,321.6665039999998,187.05126999999993,565.2563479999999,212.6923829999996,323.0771479999994,342.3076170000004
225,332.17968800000017,355.12841800000024,262.3076170000004,390.0,302.4360349999997,109.48730499999965,258.46142599999985,327.17968800000017,317.3076170000004,182.82031300000017,559.1025390000004,211.9228520000006,325.0,337.05126999999993
226,323.20507799999996,351.15380900000036,256.6665039999998,379.10253900000043,300.3847659999992,103.9741210000002,253.20507799999996,321.0258789999998,310.3847659999992,173.0771479999994,550.2563479999999,209.61523400000078,321.79492200000004,328.0771479999994
227,313.20507799999996,346.2822270000006,248.46142599999985,363.0771479999994,299.3588869999994,100.51269500000035,246.15380900000036,309.10253900000043,302.94873000000007,162.94873000000007,539.7436520000001,206.79492200000004,312.94873000000007,318.46142599999985
228,307.94873000000007,343.20507799999996,243.0771479999994,351.9228520000006,302.17968800000017,101.9228520000006,241.15380900000036,298.46142599999985,298.7177729999994,157.56396500000028,530.3847659999992,205.2563479999999,302.17968800000017,312.3076170000004
229,310.2563479999999,343.20507799999996,243.7177729999994,351.15380900000036,308.20507799999996,107.05126999999993,241.15380900000036,295.2563479999999,299.7436520000001,159.10253900000043,526.1538090000004,205.6411130000006,294.6152340000008,312.05126999999993
230,317.82031300000017,344.48730499999965,248.9741210000002,357.94873000000007,313.0771479999994,111.79492200000004,245.12841800000024,299.7436520000001,304.3588869999994,164.61523400000078,527.8203130000002,207.05126999999993,292.17968800000017,315.76904300000024
231,323.9741210000002,343.46142599999985,254.23095699999976,365.0,311.6665039999998,112.82031300000017,248.9741210000002,307.3076170000004,307.5639650000003,168.46142599999985,531.1538090000004,208.0771479999994,293.0771479999994,319.23095699999976
232,323.9741210000002,338.3334960000002,255.6411130000006,367.17968800000017,302.82031300000017,110.25634799999989,248.84619099999964,311.9228520000006,305.89746099999957,167.6923829999996,531.0258789999998,207.6923829999996,293.5898440000001,319.23095699999976
233,317.82031300000017,331.6665039999998,252.3076170000004,363.5898440000001,291.15380900000036,106.6665039999998,244.7436520000001,310.6411130000006,300.51269500000035,164.10253900000043,525.7690430000002,206.15380900000036,291.79492200000004,315.76904300000024
234,310.6411130000006,328.0771479999994,247.43603499999972,356.9228520000006,283.7177729999994,105.0,240.51269500000035,305.6411130000006,296.0258789999998,161.41015599999992,518.8461909999996,204.23095699999976,289.10253900000043,311.9228520000006
235,307.17968800000017,329.48730499999965,244.10253900000043,349.87158199999976,283.7177729999994,105.76904300000024,239.48730499999965,300.89746099999957,295.51269500000035,161.79492200000004,515.1284180000002,202.56396500000028,288.20507799999996,310.3847659999992
236,307.82031300000017,332.6923829999996,243.7177729999994,344.48730499999965,288.0771479999994,107.30761700000039,241.6665039999998,298.9741210000002,297.82031300000017,163.7177729999994,515.8974609999996,201.41015599999992,289.3588869999994,311.15380900000036
237,308.7177729999994,331.79492200000004,244.48730499999965,342.17968800000017,290.6411130000006,108.3334960000002,243.84619099999964,297.94873000000007,298.20507799999996,163.20507799999996,517.4360349999997,200.2563479999999,290.51269500000035,311.6665039999998
238,306.2822270000006,324.3588869999994,244.10253900000043,342.94873000000007,287.6923829999996,108.84619099999964,242.6923829999996,294.48730499999965,292.3076170000004,157.43603499999972,514.4873049999997,198.46142599999985,288.7177729999994,308.7177729999994
239,300.3847659999992,313.84619099999964,241.6665039999998,344.6152340000008,281.53857400000015,109.35888699999941,238.20507799999996,287.82031300000017,281.0258789999998,147.56396500000028,505.89746099999957,195.6411130000006,283.3334960000002,301.79492200000004
240,295.3847659999992,307.3076170000004,238.46142599999985,344.3588869999994,278.0771479999994,110.38476599999922,233.7177729999994,281.2822270000006,270.2563479999999,138.7177729999994,495.89746099999957,192.6923829999996,277.17968800000017,294.48730499999965
241,296.2822270000006,310.0,237.17968800000017,340.0,281.53857400000015,111.9228520000006,233.0771479999994,279.6152340000008,266.6665039999998,136.53857400000015,491.0258789999998,191.79492200000004,274.6152340000008,291.9228520000006
242,303.9741210000002,321.15380900000036,239.3588869999994,333.20507799999996,289.7436520000001,113.9741210000002,237.3076170000004,284.48730499999965,273.20507799999996,142.94873000000007,494.10253900000043,194.10253900000043,277.82031300000017,296.6665039999998
243,313.7177729999994,333.9741210000002,243.84619099999964,327.5639650000003,295.89746099999957,115.51269500000035,243.7177729999994,293.20507799999996,285.76904300000024,154.10253900000043,502.4360349999997,198.46142599999985,285.12841800000024,305.89746099999957
244,318.84619099999964,340.12841800000024,246.6665039999998,327.05126999999993,293.84619099999964,115.76904300000024,247.56396500000028,299.3588869999994,296.0258789999998,162.17968800000017,510.0,202.17968800000017,291.2822270000006,313.20507799999996
245,316.0258789999998,336.79492200000004,244.87158199999976,331.0258789999998,283.9741210000002,114.74365200000011,246.41015599999992,298.20507799999996,297.4360349999997,161.9228520000006,511.53857400000015,203.0771479999994,291.53857400000015,313.5898440000001
246,307.4360349999997,328.20507799999996,238.46142599999985,335.3847659999992,273.7177729999994,113.7177729999994,241.2822270000006,290.2563479999999,289.87158199999976,154.23095699999976,506.0258789999998,201.15380900000036,285.0,306.9228520000006
247,299.10253900000043,321.6665039999998,230.76904300000024,335.0,271.0258789999998,113.46142599999985,236.0258789999998,281.15380900000036,279.3588869999994,145.2563479999999,496.79492200000004,197.94873000000007,275.2563479999999,297.94873000000007
248,295.2563479999999,321.2822270000006,226.0258789999998,330.0,277.5639650000003,113.46142599999985,233.58984400000008,276.53857400000015,272.17968800000017,140.76904300000024,488.46142599999985,194.87158199999976,267.6923829999996,292.17968800000017
249,296.4101559999999,324.3588869999994,226.15380900000036,324.87158199999976,287.3076170000004,112.94873000000007,234.23095699999976,277.17968800000017,270.51269500000035,142.05126999999993,483.5898440000001,193.20507799999996,266.15380900000036,291.79492200000004
250,300.0,325.6411130000006,230.2563479999999,325.12841800000024,292.05126999999993,112.43603499999972,235.76904300000024,279.7436520000001,272.17968800000017,145.38476599999922,482.17968800000017,193.20507799999996,270.12841800000024,295.3847659999992
251,302.4360349999997,322.4360349999997,235.12841800000024,330.3847659999992,287.6923829999996,113.0771479999994,235.51269500000035,279.48730499999965,273.20507799999996,146.0258789999998,482.3076170000004,194.7436520000001,275.51269500000035,299.10253900000043
252,301.53857400000015,317.3076170000004,237.6923829999996,334.6152340000008,277.94873000000007,114.61523400000078,232.56396500000028,275.12841800000024,271.79492200000004,142.43603499999972,482.5639650000003,196.41015599999992,278.20507799999996,299.7436520000001
253,297.6923829999996,314.6152340000008,236.6665039999998,331.0258789999998,270.51269500000035,115.51269500000035,228.3334960000002,269.10253900000043,268.84619099999964,137.6923829999996,482.82031300000017,196.2822270000006,277.05126999999993,297.05126999999993
254,293.7177729999994,316.9228520000006,233.9741210000002,319.3588869999994,270.89746099999957,115.25634799999989,225.38476599999922,266.2822270000006,267.4360349999997,136.41015599999992,483.7177729999994,194.48730499999965,275.3847659999992,293.5898440000001
255,293.3334960000002,323.20507799999996,232.94873000000007,306.15380900000036,278.0771479999994,114.35888699999941,226.2822270000006,269.23095699999976,270.3847659999992,141.41015599999992,485.6411130000006,192.94873000000007,277.6923829999996,293.0771479999994
256,297.05126999999993,329.10253900000043,236.0258789999998,299.6152340000008,286.15380900000036,114.10253900000043,232.05126999999993,276.6665039999998,277.3076170000004,151.15380900000036,487.17968800000017,193.58984400000008,285.6411130000006,297.05126999999993
257,301.9228520000006,329.48730499999965,241.53857400000015,302.5639650000003,289.23095699999976,115.0,239.87158199999976,283.3334960000002,284.6152340000008,160.12841800000024,486.2822270000006,195.89746099999957,295.12841800000024,302.94873000000007
258,303.5898440000001,322.82031300000017,245.38476599999922,310.12841800000024,285.3847659999992,116.2822270000006,245.2563479999999,284.6152340000008,287.82031300000017,162.3076170000004,481.79492200000004,197.94873000000007,299.48730499999965,306.4101559999999
259,300.2563479999999,313.20507799999996,245.2563479999999,315.3847659999992,278.9741210000002,117.05126999999993,245.38476599999922,281.0258789999998,285.51269500000035,157.3076170000004,475.51269500000035,198.7177729999994,295.89746099999957,305.12841800000024
260,294.3588869999994,307.82031300000017,242.17968800000017,314.48730499999965,276.4101559999999,116.53857400000015,240.76904300000024,276.2822270000006,280.6411130000006,150.12841800000024,470.76904300000024,198.84619099999964,287.94873000000007,301.15380900000036
261,290.12841800000024,310.3847659999992,239.10253900000043,308.7177729999994,280.12841800000024,114.87158199999976,234.87158199999976,274.10253900000043,276.79492200000004,145.89746099999957,468.7177729999994,198.7177729999994,281.15380900000036,297.6923829999996
262,289.3588869999994,316.6665039999998,237.17968800000017,301.53857400000015,285.51269500000035,112.94873000000007,229.61523400000078,274.23095699999976,274.6152340000008,145.6411130000006,466.53857400000015,197.3076170000004,278.3334960000002,295.6411130000006
263,291.15380900000036,319.23095699999976,236.2822270000006,296.9228520000006,285.76904300000024,111.9228520000006,226.15380900000036,274.48730499999965,272.5639650000003,146.2822270000006,461.15380900000036,194.10253900000043,278.3334960000002,294.10253900000043
264,293.7177729999994,316.15380900000036,236.6665039999998,296.79492200000004,279.23095699999976,112.17968800000017,225.89746099999957,274.3588869999994,270.89746099999957,146.15380900000036,453.9741210000002,191.53857400000015,279.23095699999976,293.7177729999994
265,297.17968800000017,312.82031300000017,240.0,301.15380900000036,271.9228520000006,113.84619099999964,230.38476599999922,276.0258789999998,272.17968800000017,146.9228520000006,450.89746099999957,193.3334960000002,281.79492200000004,296.6665039999998
266,302.3076170000004,316.0258789999998,246.9228520000006,306.9228520000006,272.05126999999993,116.0258789999998,238.7177729999994,281.4101559999999,278.20507799999996,151.0258789999998,456.6665039999998,200.76904300000024,286.9228520000006,303.7177729999994
267,306.9228520000006,325.2563479999999,253.9741210000002,309.48730499999965,281.0258789999998,117.94873000000007,246.2822270000006,288.20507799999996,285.89746099999957,157.94873000000007,468.0771479999994,209.61523400000078,293.46142599999985,311.6665039999998
268,307.4360349999997,332.6923829999996,255.6411130000006,306.0258789999998,291.53857400000015,118.58984400000008,246.9228520000006,290.3847659999992,288.46142599999985,162.6923829999996,475.6411130000006,213.3334960000002,296.6665039999998,314.23095699999976
269,300.89746099999957,329.48730499999965,249.23095699999976,296.6665039999998,294.48730499999965,117.82031300000017,238.9741210000002,284.6152340000008,281.2822270000006,160.51269500000035,470.51269500000035,208.3334960000002,292.94873000000007,307.5639650000003
270,289.48730499999965,315.12841800000024,237.43603499999972,285.0,286.53857400000015,116.15380900000036,225.76904300000024,272.94873000000007,266.6665039999998,150.89746099999957,453.46142599999985,196.53857400000015,283.46142599999985,293.9741210000002
271,278.46142599999985,297.5639650000003,226.79492200000004,274.7436520000001,272.5639650000003,114.48730499999965,214.7436520000001,262.05126999999993,252.43603499999972,138.46142599999985,433.84619099999964,184.87158199999976,273.84619099999964,280.6411130000006
272,273.20507799999996,286.2822270000006,222.82031300000017,268.3334960000002,261.0258789999998,113.9741210000002,211.15380900000036,257.94873000000007,245.89746099999957,129.7436520000001,422.4360349999997,180.0,269.7436520000001,274.23095699999976
273,274.3588869999994,284.6152340000008,226.2822270000006,265.6411130000006,257.3076170000004,114.74365200000011,215.38476599999922,260.6411130000006,248.9741210000002,128.0771479999994,423.0771479999994,184.10253900000043,272.3076170000004,276.15380900000036
274,278.0771479999994,288.20507799999996,232.82031300000017,264.48730499999965,260.0,116.15380900000036,222.43603499999972,265.2563479999999,257.3076170000004,132.43603499999972,430.3847659999992,193.0771479999994,276.79492200000004,281.2822270000006
275,278.84619099999964,290.2563479999999,236.79492200000004,262.4360349999997,263.5898440000001,117.17968800000017,226.15380900000036,266.2822270000006,263.46142599999985,138.3334960000002,435.0,199.61523400000078,276.79492200000004,282.5639650000003
276,274.23095699999976,287.82031300000017,235.12841800000024,258.20507799999996,263.9741210000002,117.30761700000039,224.23095699999976,262.6923829999996,263.3334960000002,141.9228520000006,431.2822270000006,199.48730499999965,270.3847659999992,277.17968800000017
277,267.4360349999997,283.84619099999964,229.7436520000001,253.7177729999994,262.17968800000017,116.41015599999992,219.3588869999994,258.84619099999964,258.46142599999985,142.6923829999996,422.05126999999993,194.3588869999994,261.4101559999999,269.3588869999994
278,263.9741210000002,283.84619099999964,225.51269500000035,252.56396500000028,261.9228520000006,115.25634799999989,217.17968800000017,259.6152340000008,254.7436520000001,142.82031300000017,414.6152340000008,189.48730499999965,256.15380900000036,266.2822270000006
279,265.89746099999957,288.7177729999994,225.12841800000024,256.0258789999998,264.6152340000008,114.23095699999976,220.12841800000024,265.3847659999992,255.89746099999957,142.82031300000017,413.9741210000002,188.0771479999994,256.6665039999998,270.3847659999992
280,269.87158199999976,292.5639650000003,227.05126999999993,260.51269500000035,266.4101559999999,113.0771479999994,224.61523400000078,270.2563479999999,259.3588869999994,140.51269500000035,417.3076170000004,188.9741210000002,258.3334960000002,276.53857400000015
281,269.87158199999976,288.46142599999985,226.9228520000006,260.76904300000024,262.5639650000003,111.6665039999998,224.61523400000078,267.94873000000007,259.48730499999965,133.3334960000002,417.5639650000003,188.3334960000002,255.12841800000024,276.53857400000015
282,264.87158199999976,276.2822270000006,223.20507799999996,254.87158199999976,253.9741210000002,110.51269500000035,218.46142599999985,258.9741210000002,254.10253900000043,123.20507799999996,411.15380900000036,185.51269500000035,246.15380900000036,268.20507799999996
283,260.2563479999999,264.23095699999976,219.87158199999976,246.53857400000015,247.82031300000017,110.76904300000024,211.41015599999992,251.53857400000015,247.6923829999996,117.69238299999961,402.82031300000017,183.46142599999985,238.7177729999994,258.84619099999964
284,261.79492200000004,261.4101559999999,221.53857400000015,241.9228520000006,251.79492200000004,112.69238299999961,210.2563479999999,253.84619099999964,247.17968800000017,122.43603499999972,400.3847659999992,185.2563479999999,240.38476599999922,257.6923829999996
285,269.3588869999994,268.0771479999994,228.0771479999994,243.9741210000002,264.10253900000043,115.64111300000059,216.6665039999998,265.2563479999999,253.7177729999994,135.0,405.51269500000035,190.89746099999957,250.89746099999957,266.15380900000036
286,275.6411130000006,275.76904300000024,234.48730499999965,249.61523400000078,273.84619099999964,117.69238299999961,224.61523400000078,276.6665039999998,261.2822270000006,146.15380900000036,412.17968800000017,195.76904300000024,261.2822270000006,275.76904300000024
287,273.20507799999996,275.0,234.61523400000078,252.3076170000004,269.48730499999965,116.79492200000004,226.6665039999998,277.4360349999997,261.9228520000006,146.79492200000004,411.6665039999998,195.12841800000024,262.05126999999993,276.15380900000036
288,261.0258789999998,264.7436520000001,227.56396500000028,247.56396500000028,250.38476599999922,113.20507799999996,220.2563479999999,265.2563479999999,253.46142599999985,135.76904300000024,401.4101559999999,188.0771479999994,250.51269500000035,264.48730499999965
289,246.53857400000015,252.94873000000007,217.6923829999996,236.6665039999998,228.58984400000008,109.35888699999941,209.7436520000001,247.43603499999972,241.41015599999992,120.38476599999922,387.05126999999993,178.84619099999964,233.84619099999964,248.3334960000002
290,239.3588869999994,249.3588869999994,211.53857400000015,225.51269500000035,219.48730499999965,108.58984400000008,202.05126999999993,236.0258789999998,234.23095699999976,111.2822270000006,377.94873000000007,173.3334960000002,222.94873000000007,239.3588869999994
291,243.46142599999985,256.53857400000015,212.43603499999972,220.38476599999922,228.46142599999985,111.53857400000015,201.2822270000006,237.3076170000004,236.0258789999998,113.9741210000002,379.23095699999976,175.0,224.10253900000043,242.82031300000017
292,254.61523400000078,267.94873000000007,219.10253900000043,221.79492200000004,246.9228520000006,115.64111300000059,206.2822270000006,248.20507799999996,244.23095699999976,125.0,388.0771479999994,182.05126999999993,234.48730499999965,254.48730499999965
293,264.10253900000043,274.3588869999994,226.53857400000015,225.12841800000024,260.51269500000035,116.9228520000006,212.05126999999993,258.7177729999994,251.41015599999992,135.51269500000035,396.15380900000036,189.48730499999965,244.87158199999976,265.12841800000024
294,266.2822270000006,272.4360349999997,230.2563479999999,224.3588869999994,260.51269500000035,113.9741210000002,214.61523400000078,261.4101559999999,252.43603499999972,139.10253900000043,397.6923829999996,192.82031300000017,248.3334960000002,268.3334960000002
295,261.6665039999998,266.79492200000004,229.10253900000043,218.0771479999994,250.38476599999922,109.35888699999941,213.3334960000002,256.0258789999998,247.94873000000007,135.89746099999957,393.9741210000002,191.15380900000036,244.7436520000001,265.12841800000024
296,254.7436520000001,263.0771479999994,224.87158199999976,209.23095699999976,238.9741210000002,106.6665039999998,210.6411130000006,247.82031300000017,242.56396500000028,130.76904300000024,390.3847659999992,186.9228520000006,239.3588869999994,260.12841800000024
297,249.23095699999976,262.3076170000004,219.87158199999976,201.15380900000036,232.05126999999993,108.0771479999994,208.84619099999964,241.79492200000004,240.12841800000024,127.05126999999993,390.3847659999992,183.20507799999996,235.51269500000035,256.4101559999999
298,245.0,260.3847659999992,214.7436520000001,194.23095699999976,228.0771479999994,112.17968800000017,207.6923829999996,239.10253900000043,240.12841800000024,124.87158199999976,392.05126999999993,180.51269500000035,232.94873000000007,252.94873000000007
299,241.0258789999998,253.9741210000002,209.7436520000001,187.6923829999996,223.58984400000008,115.64111300000059,206.0258789999998,238.46142599999985,240.0,123.0771479999994,390.6411130000006,178.7177729999994,230.0,248.0771479999994
300,238.0771479999994,246.53857400000015,206.6665039999998,182.17968800000017,220.12841800000024,116.53857400000015,204.10253900000043,239.61523400000078,238.9741210000002,122.69238299999961,384.48730499999965,178.0771479999994,227.94873000000007,243.46142599999985
301,239.48730499999965,245.6411130000006,207.82031300000017,181.15380900000036,223.84619099999964,115.38476599999922,204.61523400000078,244.61523400000078,240.0,126.79492200000004,377.4360349999997,180.0,230.6411130000006,244.23095699999976
302,246.9228520000006,255.89746099999957,213.9741210000002,186.41015599999992,237.43603499999972,114.61523400000078,209.10253900000043,253.84619099999964,246.0258789999998,136.41015599999992,375.2563479999999,184.3588869999994,240.12841800000024,252.6923829999996
303,256.9228520000006,272.3076170000004,222.17968800000017,193.7177729999994,255.12841800000024,115.38476599999922,214.7436520000001,263.3334960000002,254.7436520000001,147.05126999999993,380.51269500000035,188.9741210000002,252.3076170000004,264.6152340000008
304,262.3076170000004,282.82031300000017,226.53857400000015,195.38476599999922,264.7436520000001,117.05126999999993,216.41015599999992,265.76904300000024,259.6152340000008,150.89746099999957,388.0771479999994,190.12841800000024,259.10253900000043,271.15380900000036
305,257.5639650000003,278.0771479999994,223.3334960000002,186.41015599999992,257.6923829999996,117.94873000000007,210.76904300000024,256.6665039999998,254.48730499999965,142.94873000000007,388.7177729999994,186.15380900000036,253.3334960000002,265.51269500000035
306,243.46142599999985,259.48730499999965,214.10253900000043,169.48730499999965,237.3076170000004,117.17968800000017,200.0,239.48730499999965,239.87158199999976,125.38476599999922,377.94873000000007,178.58984400000008,236.53857400000015,249.48730499999965
307,227.82031300000017,239.23095699999976,204.48730499999965,154.48730499999965,217.56396500000028,115.25634799999989,190.6411130000006,223.84619099999964,224.10253900000043,108.0771479999994,361.2822270000006,171.79492200000004,217.6923829999996,232.6923829999996
308,219.87158199999976,230.12841800000024,200.12841800000024,149.7436520000001,211.6665039999998,113.3334960000002,188.3334960000002,218.7177729999994,216.79492200000004,100.89746099999957,350.0,168.9741210000002,208.0771479999994,224.87158199999976
309,223.46142599999985,236.41015599999992,202.17968800000017,156.41015599999992,221.2822270000006,112.69238299999961,194.10253900000043,225.76904300000024,221.15380900000036,107.05126999999993,351.2822270000006,171.15380900000036,211.79492200000004,228.7177729999994
310,233.84619099999964,250.38476599999922,207.43603499999972,167.43603499999972,236.53857400000015,113.58984400000008,203.58984400000008,238.3334960000002,231.79492200000004,121.15380900000036,362.4360349999997,176.15380900000036,224.48730499999965,238.84619099999964
311,242.82031300000017,259.7436520000001,211.9228520000006,173.9741210000002,244.7436520000001,115.64111300000059,211.41015599999992,247.94873000000007,240.76904300000024,133.20507799999996,373.84619099999964,180.6411130000006,237.17968800000017,247.43603499999972
312,244.3588869999994,257.05126999999993,213.58984400000008,171.0258789999998,240.76904300000024,117.30761700000039,214.10253900000043,249.3588869999994,242.82031300000017,137.05126999999993,377.17968800000017,182.3076170000004,243.0771479999994,249.7436520000001
313,238.46142599999985,245.2563479999999,212.43603499999972,160.38476599999922,229.61523400000078,117.43603499999972,211.9228520000006,244.10253900000043,239.10253900000043,133.46142599999985,371.53857400000015,181.0258789999998,241.15380900000036,246.41015599999992
314,230.2563479999999,233.20507799999996,209.61523400000078,148.58984400000008,221.15380900000036,116.0258789999998,207.43603499999972,237.94873000000007,233.84619099999964,128.58984400000008,363.20507799999996,178.20507799999996,236.15380900000036,240.89746099999957
315,225.76904300000024,228.7177729999994,206.53857400000015,140.6411130000006,221.2822270000006,113.58984400000008,204.23095699999976,235.89746099999957,231.53857400000015,128.7177729999994,360.0,175.6411130000006,233.7177729999994,237.3076170000004
316,227.56396500000028,233.7177729999994,204.48730499999965,137.94873000000007,228.84619099999964,111.2822270000006,203.58984400000008,238.7177729999994,233.7177729999994,135.0,364.87158199999976,173.9741210000002,236.41015599999992,237.3076170000004
317,234.3588869999994,244.7436520000001,203.9741210000002,138.58984400000008,237.82031300000017,110.0,204.87158199999976,243.84619099999964,239.61523400000078,144.61523400000078,373.46142599999985,173.20507799999996,242.82031300000017,241.2822270000006
318,242.05126999999993,256.4101559999999,205.38476599999922,141.41015599999992,243.0771479999994,110.38476599999922,206.6665039999998,248.46142599999985,246.79492200000004,152.94873000000007,379.48730499999965,173.84619099999964,249.61523400000078,247.94873000000007
319,246.9228520000006,263.46142599999985,208.46142599999985,145.6411130000006,243.3334960000002,112.30761700000039,207.94873000000007,251.2822270000006,252.6923829999996,157.3076170000004,380.12841800000024,176.41015599999992,254.23095699999976,254.87158199999976
320,246.6665039999998,262.5639650000003,211.41015599999992,149.48730499999965,239.7436520000001,114.87158199999976,207.43603499999972,251.53857400000015,254.48730499999965,156.6665039999998,376.79492200000004,180.2563479999999,254.61523400000078,258.46142599999985
321,240.89746099999957,253.58984400000008,212.05126999999993,148.46142599999985,233.7177729999994,116.41015599999992,203.84619099999964,248.84619099999964,250.12841800000024,151.79492200000004,372.5639650000003,183.0771479999994,249.87158199999976,255.76904300000024
322,231.9228520000006,240.51269500000035,209.23095699999976,139.3588869999994,226.6665039999998,116.41015599999992,197.56396500000028,243.7177729999994,240.89746099999957,145.12841800000024,368.7177729999994,182.56396500000028,241.79492200000004,247.17968800000017
323,224.23095699999976,229.7436520000001,204.87158199999976,124.48730499999965,220.38476599999922,115.25634799999989,191.0258789999998,238.3334960000002,231.15380900000036,140.51269500000035,365.2563479999999,179.48730499999965,235.0,237.82031300000017
324,221.9228520000006,226.0258789999998,201.53857400000015,111.41015599999992,217.6923829999996,114.48730499999965,187.56396500000028,234.87158199999976,226.41015599999992,140.38476599999922,362.05126999999993,176.79492200000004,234.10253900000043,233.9741210000002
325,225.0,229.3588869999994,200.51269500000035,106.15380900000036,219.10253900000043,114.87158199999976,188.58984400000008,234.48730499999965,228.3334960000002,144.10253900000043,359.7436520000001,176.53857400000015,239.23095699999976,237.17968800000017
326,229.23095699999976,235.0,200.6411130000006,107.17968800000017,222.43603499999972,116.2822270000006,191.9228520000006,235.51269500000035,233.9741210000002,148.58984400000008,358.9741210000002,177.82031300000017,245.12841800000024,243.3334960000002
327,229.23095699999976,236.9228520000006,199.61523400000078,107.17968800000017,223.0771479999994,117.56396500000028,193.84619099999964,235.0,237.94873000000007,150.2563479999999,358.7177729999994,178.3334960000002,246.6665039999998,246.41015599999992
328,223.58984400000008,232.3076170000004,196.79492200000004,100.25634799999989,218.46142599999985,117.69238299999961,191.79492200000004,231.53857400000015,236.53857400000015,147.17968800000017,357.17968800000017,176.41015599999992,242.05126999999993,242.94873000000007
329,215.12841800000024,223.7177729999994,193.58984400000008,88.3334960000002,210.0,116.6665039999998,186.2822270000006,226.15380900000036,230.2563479999999,139.61523400000078,353.5898440000001,172.82031300000017,234.23095699999976,234.7436520000001
330,209.23095699999976,216.79492200000004,192.05126999999993,79.10253900000043,202.82031300000017,115.38476599999922,180.6411130000006,221.9228520000006,222.6923829999996,130.89746099999957,349.23095699999976,169.61523400000078,228.46142599999985,227.05126999999993
331,209.61523400000078,216.15380900000036,193.0771479999994,79.35888699999941,201.53857400000015,114.61523400000078,177.82031300000017,220.89746099999957,218.0771479999994,125.38476599999922,347.4360349999997,168.7177729999994,227.6923829999996,225.12841800000024
332,214.87158199999976,221.6665039999998,195.38476599999922,87.30761700000039,206.79492200000004,114.61523400000078,178.3334960000002,222.82031300000017,217.82031300000017,126.0258789999998,349.48730499999965,169.7436520000001,230.6411130000006,229.48730499999965
333,220.0,228.3334960000002,197.05126999999993,95.51269500000035,214.3588869999994,115.0,180.0,225.12841800000024,220.12841800000024,131.53857400000015,353.0771479999994,170.76904300000024,233.3334960000002,236.15380900000036
334,220.2563479999999,230.6411130000006,196.41015599999992,96.2822270000006,218.9741210000002,115.76904300000024,180.2563479999999,225.2563479999999,222.05126999999993,138.0771479999994,353.20507799999996,170.51269500000035,232.43603499999972,239.61523400000078
335,215.6411130000006,226.9228520000006,193.9741210000002,88.7177729999994,218.9741210000002,116.6665039999998,178.58984400000008,222.6923829999996,222.6923829999996,142.3076170000004,348.20507799999996,169.48730499999965,228.20507799999996,238.0771479999994
336,210.76904300000024,221.0258789999998,191.53857400000015,78.7177729999994,216.2822270000006,116.9228520000006,176.2822270000006,219.87158199999976,223.46142599999985,143.7177729999994,341.2822270000006,169.7436520000001,223.84619099999964,234.23095699999976
337,210.76904300000024,217.6923829999996,191.0258789999998,73.46142599999985,213.0771479999994,116.41015599999992,175.76904300000024,219.3588869999994,225.76904300000024,143.7177729999994,337.94873000000007,172.56396500000028,222.05126999999993,232.17968800000017
338,216.0258789999998,218.7177729999994,193.3334960000002,75.38476599999922,210.38476599999922,115.25634799999989,177.94873000000007,221.79492200000004,228.46142599999985,143.7177729999994,340.76904300000024,177.05126999999993,223.7177729999994,233.58984400000008
339,222.6923829999996,221.6665039999998,197.17968800000017,80.25634799999989,207.43603499999972,114.48730499999965,181.6665039999998,224.87158199999976,228.9741210000002,143.7177729999994,346.79492200000004,180.12841800000024,226.79492200000004,236.6665039999998
340,224.87158199999976,222.6923829999996,199.23095699999976,81.15380900000036,203.84619099999964,114.61523400000078,183.9741210000002,225.6411130000006,225.6411130000006,142.56396500000028,349.10253900000043,178.84619099999964,228.0771479999994,237.3076170000004
341,220.38476599999922,220.12841800000024,197.17968800000017,75.51269500000035,201.2822270000006,115.51269500000035,183.0771479999994,222.17968800000017,219.7436520000001,139.23095699999976,343.3334960000002,172.94873000000007,225.51269500000035,233.20507799999996
342,211.9228520000006,215.76904300000024,191.53857400000015,67.82031300000017,201.79492200000004,116.53857400000015,179.61523400000078,215.89746099999957,213.7177729999994,134.48730499999965,331.4101559999999,165.6411130000006,220.51269500000035,226.41015599999992
343,205.6411130000006,212.6923829999996,185.6411130000006,64.74365200000011,206.53857400000015,117.05126999999993,176.2822270000006,210.2563479999999,210.51269500000035,130.51269500000035,320.76904300000024,161.41015599999992,216.0258789999998,221.41015599999992
344,205.12841800000024,212.43603499999972,183.20507799999996,68.3334960000002,212.94873000000007,116.9228520000006,175.51269500000035,208.20507799999996,210.89746099999957,128.9741210000002,317.5639650000003,162.17968800000017,213.84619099999964,221.0258789999998
345,208.46142599999985,213.3334960000002,185.2563479999999,73.0771479999994,216.15380900000036,116.2822270000006,177.3076170000004,210.2563479999999,213.20507799999996,129.7436520000001,321.4101559999999,165.51269500000035,212.94873000000007,223.7177729999994
346,210.89746099999957,213.0771479999994,189.61523400000078,71.0258789999998,212.05126999999993,115.25634799999989,179.7436520000001,213.3334960000002,214.3588869999994,130.38476599999922,326.15380900000036,167.82031300000017,211.41015599999992,225.51269500000035
347,209.7436520000001,210.6411130000006,192.82031300000017,61.53857400000015,202.6923829999996,114.23095699999976,180.6411130000006,213.9741210000002,212.56396500000028,129.48730499999965,327.05126999999993,167.17968800000017,209.61523400000078,224.23095699999976
348,206.6665039999998,207.82031300000017,192.6923829999996,52.43603499999972,195.0,113.7177729999994,179.23095699999976,211.9228520000006,209.10253900000043,127.82031300000017,324.87158199999976,165.2563479999999,209.61523400000078,221.2822270000006
349,205.76904300000024,207.43603499999972,190.51269500000035,53.46142599999985,194.87158199999976,114.35888699999941,177.05126999999993,209.48730499999965,207.17968800000017,127.69238299999961,324.23095699999976,165.38476599999922,212.17968800000017,220.51269500000035
350,208.9741210000002,210.12841800000024,188.9741210000002,65.12841800000024,201.6665039999998,116.0258789999998,176.15380900000036,209.87158199999976,208.9741210000002,131.15380900000036,327.6923829999996,168.9741210000002,216.15380900000036,223.84619099999964
351,214.23095699999976,214.23095699999976,189.7436520000001,76.6665039999998,208.9741210000002,117.17968800000017,177.3076170000004,213.58984400000008,213.46142599999985,137.05126999999993,332.82031300000017,175.0,219.10253900000043,229.61523400000078
352,217.6923829999996,215.89746099999957,192.17968800000017,76.0258789999998,210.6411130000006,116.79492200000004,179.61523400000078,218.20507799999996,217.43603499999972,142.56396500000028,334.87158199999976,179.87158199999976,220.2563479999999,233.7177729999994
353,217.43603499999972,213.7177729999994,194.48730499999965,62.43603499999972,205.89746099999957,115.38476599999922,181.6665039999998,220.51269500000035,218.58984400000008,144.48730499999965,331.4101559999999,180.89746099999957,220.2563479999999,233.3334960000002
354,214.7436520000001,209.10253900000043,195.2563479999999,46.9228520000006,200.2563479999999,114.61523400000078,182.56396500000028,219.3588869999994,217.56396500000028,142.56396500000028,324.87158199999976,177.94873000000007,220.51269500000035,229.87158199999976
355,212.56396500000028,206.15380900000036,195.0,42.05126999999993,199.10253900000043,114.61523400000078,181.6665039999998,216.2822270000006,215.89746099999957,138.9741210000002,319.87158199999976,173.20507799999996,220.51269500000035,226.9228520000006
356,211.6665039999998,207.3076170000004,194.23095699999976,49.48730499999965,203.3334960000002,114.23095699999976,179.61523400000078,213.58984400000008,214.61523400000078,136.0258789999998,318.84619099999964,169.7436520000001,218.58984400000008,226.15380900000036
357,210.12841800000024,210.89746099999957,193.20507799999996,59.87158199999976,207.05126999999993,112.56396500000028,177.05126999999993,211.79492200000004,212.05126999999993,134.10253900000043,319.48730499999965,168.3334960000002,213.46142599999985,225.51269500000035
358,206.0258789999998,212.56396500000028,191.79492200000004,62.17968800000017,204.3588869999994,110.0,174.61523400000078,210.12841800000024,207.05126999999993,132.56396500000028,317.05126999999993,167.94873000000007,205.38476599999922,222.17968800000017
359,200.6411130000006,210.0,189.61523400000078,53.974121000000196,195.12841800000024,107.94873000000007,173.0771479999994,207.82031300000017,201.15380900000036,130.89746099999957,310.2563479999999,166.9228520000006,197.43603499999972,216.41015599999992
360,197.82031300000017,205.0,187.56396500000028,43.46142599999985,185.89746099999957,107.05126999999993,173.58984400000008,205.6411130000006,198.0771479999994,130.12841800000024,302.5639650000003,165.38476599999922,193.9741210000002,211.9228520000006
361,200.6411130000006,202.05126999999993,187.6923829999996,41.025878999999804,184.10253900000043,108.20507799999996,176.41015599999992,205.76904300000024,200.0,131.53857400000015,299.23095699999976,164.3588869999994,197.56396500000028,212.43603499999972
362,207.56396500000028,203.9741210000002,190.76904300000024,49.87158199999976,191.41015599999992,110.89746099999957,180.51269500000035,208.58984400000008,205.2563479999999,135.2563479999999,302.4360349999997,164.87158199999976,206.79492200000004,217.6923829999996
363,213.46142599999985,209.48730499999965,195.12841800000024,63.0771479999994,202.05126999999993,113.58984400000008,182.94873000000007,212.3076170000004,209.61523400000078,138.84619099999964,308.7177729999994,166.41015599999992,216.0258789999998,223.9741210000002
364,213.46142599999985,213.7177729999994,197.3076170000004,71.0258789999998,207.82031300000017,113.58984400000008,182.05126999999993,213.58984400000008,209.23095699999976,139.48730499999965,311.6665039999998,167.6923829999996,219.23095699999976,226.6665039999998
365,206.9228520000006,213.0771479999994,195.2563479999999,69.61523400000078,205.0,110.38476599999922,177.82031300000017,210.76904300000024,203.84619099999964,135.12841800000024,307.6923829999996,167.3076170000004,214.23095699999976,223.84619099999964
366,197.43603499999972,207.3076170000004,189.61523400000078,62.05126999999993,196.6665039999998,106.41015599999992,172.05126999999993,204.3588869999994,196.6665039999998,127.30761700000039,298.46142599999985,165.2563479999999,203.84619099999964,217.05126999999993
367,190.51269500000035,199.87158199999976,182.94873000000007,53.7177729999994,189.10253900000043,104.87158199999976,167.43603499999972,197.94873000000007,191.9228520000006,119.23095699999976,288.7177729999994,162.6923829999996,193.7177729999994,209.61523400000078
368,188.20507799999996,194.48730499999965,178.20507799999996,46.666503999999804,186.2822270000006,106.53857400000015,165.2563479999999,194.3588869999994,190.76904300000024,114.10253900000043,282.17968800000017,160.6411130000006,187.43603499999972,203.0771479999994
369,189.10253900000043,192.56396500000028,176.15380900000036,39.74365200000011,186.79492200000004,108.9741210000002,165.12841800000024,194.23095699999976,191.15380900000036,112.43603499999972,278.9741210000002,159.61523400000078,185.12841800000024,198.0771479999994
370,190.51269500000035,193.58984400000008,176.9228520000006,33.589844000000085,187.94873000000007,110.12841800000024,165.6411130000006,195.76904300000024,190.89746099999957,114.23095699999976,278.3334960000002,159.61523400000078,186.0258789999998,195.0
371,191.6665039999998,195.89746099999957,179.23095699999976,31.922852000000603,189.61523400000078,110.0,166.53857400000015,197.17968800000017,190.2563479999999,118.58984400000008,280.2563479999999,160.2563479999999,189.48730499999965,196.0258789999998
372,193.20507799999996,198.0771479999994,181.6665039999998,37.94873000000007,192.56396500000028,109.87158199999976,167.82031300000017,198.0771479999994,191.2822270000006,124.48730499999965,284.6152340000008,161.41015599999992,194.7436520000001,201.53857400000015
373,194.61523400000078,198.58984400000008,182.05126999999993,48.974121000000196,195.6411130000006,110.25634799999989,168.58984400000008,198.0771479999994,194.23095699999976,129.10253900000043,288.5898440000001,161.9228520000006,198.20507799999996,208.20507799999996
374,194.23095699999976,196.6665039999998,179.48730499999965,56.53857400000015,196.0258789999998,110.76904300000024,167.17968800000017,196.53857400000015,196.0258789999998,129.61523400000078,287.94873000000007,160.51269500000035,196.53857400000015,210.76904300000024
375,191.41015599999992,193.46142599999985,175.6411130000006,54.23095699999976,192.3076170000004,110.51269500000035,163.9741210000002,193.7177729999994,193.84619099999964,126.41015599999992,281.6665039999998,158.0771479999994,190.0,206.6665039999998
376,188.3334960000002,191.6665039999998,174.10253900000043,45.25634799999989,187.3076170000004,109.35888699999941,161.53857400000015,191.6665039999998,188.9741210000002,123.3334960000002,273.5898440000001,156.9228520000006,183.58984400000008,199.23095699999976
377,188.84619099999964,193.0771479999994,177.82031300000017,40.12841800000024,185.2563479999999,108.0771479999994,163.0771479999994,192.43603499999972,186.15380900000036,124.35888699999941,268.9741210000002,158.7177729999994,182.6923829999996,195.0
378,192.94873000000007,196.6665039999998,185.0,47.05126999999993,188.20507799999996,107.69238299999961,168.84619099999964,196.41015599999992,187.82031300000017,129.10253900000043,269.3588869999994,162.43603499999972,187.56396500000028,197.05126999999993
379,196.79492200000004,199.61523400000078,189.87158199999976,62.43603499999972,194.23095699999976,108.0771479999994,175.2563479999999,201.0258789999998,192.05126999999993,133.58984400000008,271.6665039999998,164.87158199999976,193.3334960000002,202.82031300000017
380,195.89746099999957,199.10253900000043,187.94873000000007,72.94873000000007,198.0771479999994,108.84619099999964,177.82031300000017,203.0771479999994,194.61523400000078,133.58984400000008,271.6665039999998,163.58984400000008,194.3588869999994,205.6411130000006
381,189.48730499999965,194.23095699999976,179.3588869999994,67.56396500000028,195.2563479999999,109.74365200000011,174.61523400000078,201.0258789999998,192.6923829999996,128.20507799999996,267.94873000000007,159.23095699999976,189.10253900000043,201.9228520000006
382,181.2822270000006,186.53857400000015,169.87158199999976,47.69238299999961,185.89746099999957,110.76904300000024,167.6923829999996,196.2822270000006,187.94873000000007,120.51269500000035,263.5898440000001,155.0,181.2822270000006,193.9741210000002
383,176.15380900000036,179.10253900000043,165.89746099999957,26.025878999999804,175.0,111.53857400000015,161.2822270000006,191.79492200000004,184.61523400000078,115.76904300000024,263.20507799999996,154.23095699999976,176.2822270000006,187.82031300000017
