,EEG.AF3,EEG.F7,EEG.F3,EEG.FC5,EEG.T7,EEG.P7,EEG.O1,EEG.O2,EEG.P8,EEG.T8,EEG.FC6,EEG.F4,EEG.F8,EEG.AF4
0,-85.76928699999962,53.846190999999635,53.20507799999996,83.20507799999996,157.3076170000004,90.38476599999922,150.38476599999922,157.94873000000007,175.89746099999957,175.2563479999999,144.3588869999994,158.84619099999964,104.87158199999976,38.333496000000196
1,-192.0512700000004,20.25634799999989,33.333496000000196,36.410155999999915,122.69238299999961,81.6665039999998,140.12841800000024,142.17968800000017,153.0771479999994,154.7436520000001,118.7177729999994,156.41015599999992,66.15380900000036,-4.230713000000378
2,-242.179443,10.128418000000238,-2.4360349999997197,-5.769286999999622,69.61523400000078,71.0258789999998,120.51269500000035,110.0,116.2822270000006,119.74365200000011,84.87158199999976,143.0771479999994,21.794922000000042,-25.89746100000002
3,-227.0512700000004,16.153809000000365,-34.23071300000038,-22.051270000000386,31.282227000000603,62.94873000000007,101.2822270000006,79.48730499999965,84.74365200000011,87.69238299999961,53.589844000000085,125.51269500000035,-14.230713000000378,-18.974365000000034
4,-177.56420900000057,29.615234000000783,-50.38452099999995,-3.846190999999635,25.51269500000035,59.23095699999976,88.46142599999985,63.46142599999985,68.58984400000008,68.9741210000002,35.897460999999566,111.6665039999998,-36.41015600000037,3.077147999999397
5,-129.23071300000038,50.25634799999989,-55.1281740000004,42.94873000000007,46.79492200000004,59.61523400000078,83.7177729999994,66.2822270000006,68.84619099999964,66.0258789999998,38.46142599999985,106.9228520000006,-42.435790999999426,22.05126999999993
6,-92.30761700000039,82.82031300000017,-61.79492200000004,103.58984400000008,76.53857400000015,62.94873000000007,87.69238299999961,87.30761700000039,82.94873000000007,77.17968800000017,60.25634799999989,113.20507799999996,-29.61547900000005,33.20507799999996
7,-55.76928699999962,122.82031300000017,-79.74365200000011,164.7436520000001,99.35888699999941,68.3334960000002,98.3334960000002,120.51269500000035,106.79492200000004,96.79492200000004,90.38476599999922,126.15380900000036,1.2822270000006029,48.589844000000085
8,-11.923095999999987,149.87158199999976,-106.79492200000004,219.7436520000001,107.82031300000017,74.23095699999976,109.74365200000011,153.84619099999964,131.79492200000004,115.12841800000024,113.58984400000008,137.94873000000007,40.25634799999989,82.82031300000017
9,28.717772999999397,139.3588869999994,-132.6923829999996,267.6923829999996,102.05126999999993,78.46142599999985,114.10253900000043,173.20507799999996,146.6665039999998,121.41015599999992,119.23095699999976,141.2822270000006,68.58984400000008,140.38476599999922
10,48.0771479999994,85.25634799999989,-148.33325200000036,308.46142599999985,86.2822270000006,79.35888699999941,107.56396500000028,171.79492200000004,143.84619099999964,112.30761700000039,109.23095699999976,133.9741210000002,69.74365200000011,212.3076170000004
11,45.0,12.43603499999972,-153.20507799999996,340.3847659999992,66.6665039999998,78.3334960000002,92.82031300000017,156.53857400000015,124.61523400000078,93.0771479999994,96.15380900000036,119.61523400000078,42.17968800000017,282.82031300000017
12,40.76904300000024,-36.153809000000365,-156.923096,361.2822270000006,48.7177729999994,78.84619099999964,77.69238299999961,144.10253900000043,99.48730499999965,72.17968800000017,93.7177729999994,105.0,2.3076170000003913,339.7436520000001
13,58.333496000000196,-28.71801800000003,-171.28198199999997,373.9741210000002,34.74365200000011,85.0,69.35888699999941,150.6411130000006,80.64111300000059,54.48730499999965,106.9228520000006,95.25634799999989,-24.74365200000011,382.5639650000003
14,97.30761700000039,31.794922000000042,-198.58984399999963,390.0,25.384765999999217,98.0771479999994,70.89746099999957,181.9228520000006,76.6665039999998,43.46142599999985,131.6665039999998,91.9228520000006,-20.512939000000188,420.89746099999957
15,130.2563479999999,108.9741210000002,-228.20507799999996,424.7436520000001,21.922852000000603,116.53857400000015,81.41015599999992,232.94873000000007,89.23095699999976,42.82031300000017,162.56396500000028,93.7177729999994,15.769043000000238,466.2822270000006
16,127.69238299999961,159.3588869999994,-244.4870609999998,484.7436520000001,25.897460999999566,136.41015599999992,98.3334960000002,292.17968800000017,113.46142599999985,55.38476599999922,197.05126999999993,99.87158199999976,66.41015599999992,522.0512699999999
17,87.69238299999961,160.38476599999922,-242.9487299999996,559.6152340000008,34.35888699999941,152.17968800000017,117.82031300000017,346.15380900000036,139.7436520000001,75.51269500000035,234.23095699999976,109.23095699999976,104.74365200000011,581.2822270000006
18,41.025878999999804,119.87158199999976,-236.02563499999997,627.3076170000004,38.20507799999996,159.48730499999965,134.10253900000043,383.7177729999994,156.2822270000006,87.82031300000017,269.87158199999976,119.23095699999976,112.30761700000039,632.6923829999996
19,25.384765999999217,65.12841800000024,-244.61547900000005,668.0771479999994,28.077147999999397,158.20507799999996,141.2822270000006,400.6411130000006,154.7436520000001,77.82031300000017,296.4101559999999,124.74365200000011,91.41015599999992,669.1025390000004
20,52.56396500000028,25.0,-281.66674799999964,676.0258789999998,2.4360349999997197,153.46142599999985,137.05126999999993,403.84619099999964,136.79492200000004,45.64111300000059,311.15380900000036,121.0258789999998,60.897460999999566,691.794922
21,98.9741210000002,15.256347999999889,-344.2307130000004,661.4101559999999,-30.769286999999622,152.82031300000017,125.51269500000035,408.7177729999994,112.94873000000007,7.307617000000391,319.48730499999965,108.84619099999964,40.51269500000035,707.6923829999996
22,126.0258789999998,34.23095699999976,-417.179443,643.3334960000002,-60.89746100000002,159.61523400000078,114.35888699999941,428.46142599999985,95.38476599999922,-17.051270000000386,332.82031300000017,94.61523400000078,37.05126999999993,723.0771479999994
23,111.9228520000006,66.2822270000006,-481.79492200000004,638.9741210000002,-81.53857400000015,170.89746099999957,110.76904300000024,465.6411130000006,90.76904300000024,-17.820557000000008,360.12841800000024,87.69238299999961,47.30761700000039,742.3076170000004
24,68.20507799999996,95.25634799999989,-524.615479,653.4614259999998,-90.25634799999989,181.79492200000004,118.3334960000002,513.7177729999994,99.87158199999976,0.38476599999921746,402.5639650000003,92.82031300000017,67.43603499999972,770.8974609999996
25,28.717772999999397,114.10253900000043,-544.7436520000001,677.8203130000002,-87.43579099999943,190.2563479999999,135.2563479999999,562.3076170000004,119.48730499999965,24.358886999999413,453.0771479999994,107.30761700000039,97.56396500000028,814.1025390000004
26,21.282227000000603,125.76904300000024,-554.7436520000001,696.2822270000006,-78.84619099999964,197.17968800000017,154.10253900000043,601.1538090000004,141.79492200000004,39.102539000000434,498.0771479999994,121.2822270000006,136.15380900000036,869.3588869999994
27,47.05126999999993,136.79492200000004,-573.5898439999996,697.8203130000002,-76.02563499999997,203.7177729999994,164.61523400000078,621.6665039999998,155.12841800000024,34.48730499999965,525.7690430000002,125.0,175.2563479999999,921.6665039999998
28,81.2822270000006,150.0,-613.974365,681.1538090000004,-90.1281740000004,210.2563479999999,162.3076170000004,622.5639650000003,151.79492200000004,12.43603499999972,533.7177729999994,116.9228520000006,203.84619099999964,951.2822270000006
29,91.79492200000004,160.38476599999922,-672.4357909999994,651.2822270000006,-122.56420900000057,216.6665039999998,152.3076170000004,612.9487300000001,136.0258789999998,-12.948729999999614,531.9228520000006,104.74365200000011,214.10253900000043,947.6923829999996
30,62.56396500000028,158.58984400000008,-733.076904,615.2563479999999,-162.43579099999943,222.94873000000007,145.51269500000035,606.9228520000006,120.51269500000035,-25.38452099999995,533.4614259999998,97.82031300000017,205.89746099999957,916.9228520000006
31,3.4614259999998467,138.9741210000002,-779.3588870000003,582.1796880000002,-195.76928699999962,227.82031300000017,148.58984400000008,613.205078,116.41015599999992,-20.1281740000004,543.5898440000001,99.61523400000078,187.6923829999996,876.6665039999998
32,-59.61547900000005,106.41015599999992,-805.897461,563.7177729999994,-215.38452099999995,229.23095699999976,160.12841800000024,629.8715819999998,124.10253900000043,-6.025634999999966,555.7690430000002,106.53857400000015,171.9228520000006,845.0
33,-105.51293900000019,73.84619099999964,-819.615479,568.3334960000002,-225.1281740000004,225.0,171.53857400000015,647.4360349999997,135.38476599999922,3.077147999999397,558.0771479999994,112.94873000000007,167.05126999999993,828.0771479999994
34,-131.02563499999997,53.20507799999996,-833.4614260000003,594.2309569999998,-236.15380900000036,214.48730499999965,173.84619099999964,655.8974609999996,138.20507799999996,-2.1796869999998307,543.3334960000002,115.38476599999922,171.0258789999998,819.2309569999998
35,-142.56420900000057,47.82031300000017,-857.820557,628.9741210000002,-260.0,200.51269500000035,162.56396500000028,648.9741210000002,125.25634799999989,-23.076904000000013,515.5126950000003,113.3334960000002,172.94873000000007,808.5898440000001
36,-143.58984399999963,53.7177729999994,-894.7436520000001,656.2822270000006,-299.4870609999998,187.17968800000017,140.6411130000006,627.9487300000001,98.58984400000008,-53.71801800000003,486.0258789999998,107.43603499999972,165.12841800000024,795.5126950000003
37,-133.076904,64.48730499999965,-937.0512699999999,665.6411130000006,-345.7692869999996,178.46142599999985,117.43603499999972,600.8974609999996,70.12841800000024,-83.71801800000003,465.12841800000024,98.58984400000008,151.53857400000015,790.2563479999999
38,-113.20507799999996,74.87158199999976,-972.6923829999996,657.9487300000001,-381.79492200000004,175.89746099999957,104.10253900000043,580.6411130000006,54.61523400000078,-100.89746100000002,457.3076170000004,89.10253900000043,145.0,802.1796880000002
39,-95.51293900000019,79.48730499999965,-993.205078,642.5639650000003,-393.076904,178.58984400000008,106.79492200000004,578.205078,59.87158199999976,-97.43579099999943,461.2822270000006,82.69238299999961,154.3588869999994,827.3076170000004
40,-92.82055700000001,73.58984400000008,-1000.0,630.5126950000003,-378.71801800000003,183.84619099999964,121.9228520000006,593.8461909999996,80.89746099999957,-76.79492200000004,471.53857400000015,82.56396500000028,173.46142599999985,846.2822270000006
41,-108.84619099999964,54.87158199999976,-1002.0512699999999,628.8461909999996,-354.8718259999996,188.0771479999994,137.82031300000017,615.0,101.79492200000004,-53.46142599999985,478.84619099999964,88.20507799999996,184.87158199999976,837.9487300000001
42,-133.84619099999964,29.102539000000434,-1006.923096,638.5898440000001,-342.3076170000004,188.7177729999994,141.9228520000006,623.8461909999996,107.82031300000017,-42.948729999999614,474.3588869999994,94.74365200000011,174.7436520000001,798.0771479999994
43,-154.35888699999987,10.0,-1013.974365,652.3076170000004,-351.02563499999997,186.53857400000015,130.12841800000024,611.5385740000002,95.89746099999957,-50.89746100000002,454.7436520000001,96.6665039999998,146.41015599999992,744.6152340000008
44,-164.23071300000038,11.666503999999804,-1016.025635,656.9228520000006,-373.84619099999964,185.0,109.23095699999976,584.3588869999994,75.76904300000024,-70.0,426.0258789999998,91.9228520000006,117.05126999999993,704.2309569999998
45,-165.38452099999995,37.69238299999961,-1009.2307129999999,643.0771479999994,-392.3076170000004,186.79492200000004,92.30761700000039,559.4873049999997,62.05126999999993,-86.28198199999997,400.12841800000024,83.58984400000008,104.23095699999976,693.205078
46,-160.89746100000002,75.64111300000059,-997.5642090000001,615.7690430000002,-390.5129390000002,192.3076170000004,89.10253900000043,551.9228520000006,64.10253900000043,-88.71801800000003,387.4360349999997,77.17968800000017,114.74365200000011,708.205078
47,-151.53857400000015,102.94873000000007,-990.7692870000001,591.2822270000006,-366.41015600000037,198.7177729999994,99.74365200000011,563.7177729999994,80.0,-76.41015600000037,390.6411130000006,76.15380900000036,140.38476599999922,731.9228520000006
48,-138.97436500000003,100.64111300000059,-995.7692870000001,581.6665039999998,-335.38452099999995,202.82031300000017,114.48730499999965,582.4360349999997,98.20507799999996,-59.10253899999998,401.79492200000004,80.0,163.3334960000002,744.7436520000001
49,-127.56420900000057,67.69238299999961,-1010.5129390000002,584.6152340000008,-318.46142599999985,204.23095699999976,122.05126999999993,591.1538090000004,106.6665039999998,-49.48706099999981,410.12841800000024,85.25634799999989,167.43603499999972,738.4614259999998
50,-120.89746100000002,23.974121000000196,-1025.6411129999997,589.2309569999998,-322.820557,204.61523400000078,118.46142599999985,583.4614259999998,103.0771479999994,-51.41015600000037,410.89746099999957,88.9741210000002,151.2822270000006,720.3847659999992
51,-120.51293900000019,-2.3076170000003913,-1032.94873,589.1025390000004,-336.02563499999997,206.79492200000004,111.0258789999998,569.1025390000004,97.69238299999961,-56.41015600000037,407.6923829999996,91.2822270000006,129.7436520000001,704.6152340000008
52,-128.58984399999963,5.897460999999566,-1031.794922,585.6411130000006,-337.9487299999996,211.41015599999992,110.0,563.9741210000002,102.56396500000028,-52.30761700000039,404.7436520000001,94.23095699999976,121.2822270000006,695.8974609999996
53,-145.38452099999995,43.846190999999635,-1029.871826,583.8461909999996,-321.15380900000036,216.0258789999998,119.23095699999976,575.1284180000002,119.35888699999941,-35.89746100000002,401.15380900000036,97.82031300000017,131.6665039999998,686.4101559999999
54,-161.02563499999997,92.17968800000017,-1035.128174,586.9228520000006,-297.5642090000006,217.43603499999972,131.53857400000015,593.8461909999996,137.94873000000007,-16.28198199999997,392.17968800000017,99.61523400000078,150.38476599999922,667.0512699999999
55,-158.46142599999985,130.0,-1047.4357909999999,594.6152340000008,-285.5129390000002,213.7177729999994,136.2822270000006,604.8715819999998,146.2822270000006,-6.538574000000153,377.05126999999993,97.17968800000017,162.82031300000017,641.794922
56,-130.2563479999999,145.6411130000006,-1056.794922,605.0,-290.7692869999996,206.15380900000036,130.12841800000024,600.8974609999996,142.82031300000017,-9.743652000000111,362.4360349999997,91.6665039999998,163.0771479999994,626.6665039999998
57,-92.69238299999961,137.43603499999972,-1053.333252,613.8461909999996,-300.1281740000004,198.9741210000002,119.61523400000078,588.7177729999994,137.05126999999993,-17.179442999999992,357.5639650000003,88.58984400000008,156.53857400000015,632.4360349999997
58,-75.76928699999962,110.76904300000024,-1037.3076170000004,615.3847659999992,-295.2563479999999,195.2563479999999,115.25634799999989,580.8974609999996,139.10253900000043,-18.076904000000013,364.7436520000001,92.17968800000017,151.2822270000006,650.6411130000006
59,-94.8718259999996,76.9228520000006,-1020.5129390000002,604.7436520000001,-272.179443,195.12841800000024,121.0258789999998,583.5898440000001,149.61523400000078,-10.0,376.0258789999998,101.53857400000015,148.58984400000008,659.8715819999998
60,-134.7436520000001,53.20507799999996,-1016.6667480000001,581.9228520000006,-246.15380900000036,196.41015599999992,131.2822270000006,591.1538090000004,160.2563479999999,-0.38476599999921746,377.3076170000004,109.87158199999976,144.3588869999994,645.7690430000002
61,-163.58984399999963,54.23095699999976,-1028.589844,552.5639650000003,-239.23071300000038,196.2822270000006,135.89746099999957,592.5639650000003,161.6665039999998,0.256347999999889,360.2563479999999,109.48730499999965,133.9741210000002,614.6152340000008
62,-161.53857400000015,79.87158199999976,-1046.923096,526.5385740000002,-259.8718259999996,193.9741210000002,129.23095699999976,581.0258789999998,151.2822270000006,-11.28198199999997,328.9741210000002,98.0771479999994,117.82031300000017,586.5385740000002
63,-135.5129390000002,112.05126999999993,-1058.589844,512.6923829999996,-294.2307130000004,191.15380900000036,113.9741210000002,560.6411130000006,135.6411130000006,-27.30761700000039,298.5898440000001,81.2822270000006,100.0,575.1284180000002
64,-110.64111300000013,126.6665039999998,-1056.794922,515.2563479999999,-316.41015600000037,189.61523400000078,99.35888699999941,544.2309569999998,126.0258789999998,-34.48706099999981,283.3334960000002,68.84619099999964,85.76904300000024,575.5126950000003
65,-108.97436500000003,111.41015599999992,-1045.128174,529.6152340000008,-308.33325200000036,189.87158199999976,94.10253900000043,542.4360349999997,129.7436520000001,-25.512939000000188,286.15380900000036,67.69238299999961,77.94873000000007,572.1796880000002
66,-135.38452099999995,74.10253900000043,-1033.076904,543.3334960000002,-274.61547900000005,189.7436520000001,99.35888699999941,554.4873049999997,143.7177729999994,-6.153809000000365,296.0258789999998,76.9228520000006,75.64111300000059,556.2822270000006
67,-176.28198199999997,36.025878999999804,-1027.3076170000004,541.9228520000006,-238.58984399999963,186.6665039999998,107.82031300000017,568.9741210000002,157.05126999999993,7.820313000000169,296.79492200000004,88.7177729999994,75.25634799999989,534.4873049999997
68,-206.41015600000037,19.871581999999762,-1027.6923829999996,520.0,-221.66674799999964,181.0258789999998,111.2822270000006,573.8461909999996,159.87158199999976,5.641113000000587,282.5639650000003,95.51269500000035,75.25634799999989,521.794922
69,-202.9487299999996,36.2822270000006,-1028.4614260000003,488.84619099999964,-225.5129390000002,177.05126999999993,109.10253900000043,568.9741210000002,154.61523400000078,-7.564209000000574,263.0771479999994,95.0,80.0,529.2309569999998
70,-161.15380900000036,78.0771479999994,-1024.230713,469.87158199999976,-232.820557,179.10253900000043,107.82031300000017,564.8715819999998,152.82031300000017,-15.512939000000188,256.0258789999998,91.15380900000036,95.76904300000024,554.3588869999994
71,-100.64111300000013,123.9741210000002,-1014.615479,476.4101559999999,-227.0512700000004,187.6923829999996,113.0771479999994,570.8974609999996,164.10253900000043,-6.281981999999971,268.9741210000002,89.87158199999976,121.53857400000015,581.6665039999998
72,-53.33325200000036,152.3076170000004,-1004.102539,501.0258789999998,-209.35888699999987,198.0771479999994,123.7177729999994,584.7436520000001,184.87158199999976,16.410155999999915,291.2822270000006,93.9741210000002,144.7436520000001,594.7436520000001
73,-42.564209000000574,152.94873000000007,-998.974365,521.2822270000006,-195.76928699999962,202.94873000000007,131.0258789999998,594.3588869999994,200.89746099999957,37.30761700000039,303.3334960000002,100.38476599999922,150.51269500000035,588.4614259999998
74,-69.74365200000011,130.12841800000024,-1001.923096,518.3334960000002,-199.35888699999987,198.7177729999994,128.20507799999996,589.7436520000001,200.76904300000024,42.94873000000007,292.17968800000017,102.82031300000017,134.23095699999976,571.6665039999998
75,-118.46142599999985,96.9228520000006,-1009.2307129999999,491.6665039999998,-216.28198199999997,188.3334960000002,115.38476599999922,572.8203130000002,186.0258789999998,31.922852000000603,261.6665039999998,97.17968800000017,106.2822270000006,554.7436520000001
76,-165.64111300000013,70.25634799999989,-1012.820557,456.2822270000006,-230.1281740000004,178.20507799999996,100.89746099999957,555.7690430000002,168.7177729999994,14.743652000000111,228.58984400000008,86.0258789999998,84.23095699999976,539.6152340000008
77,-192.820557,65.64111300000059,-1006.6667480000001,430.6411130000006,-228.71801800000003,174.61523400000078,93.7177729999994,550.1284180000002,161.2822270000006,4.102539000000434,210.38476599999922,77.17968800000017,79.87158199999976,521.9228520000006
78,-191.923096,87.82031300000017,-992.0512699999999,423.46142599999985,-214.8718259999996,178.20507799999996,96.6665039999998,557.3076170000004,167.05126999999993,6.666503999999804,213.3334960000002,76.6665039999998,91.2822270000006,501.4101559999999
79,-167.43579099999943,122.30761700000039,-978.205078,430.6411130000006,-201.66674799999964,184.23095699999976,105.12841800000024,568.5898440000001,179.3588869999994,19.615234000000783,229.3588869999994,83.58984400000008,106.2822270000006,486.2822270000006
80,-133.58984399999963,141.6665039999998,-973.718018,441.6665039999998,-197.179443,186.9228520000006,112.30761700000039,574.8715819999998,189.7436520000001,35.51269500000035,243.0771479999994,92.82031300000017,112.82031300000017,485.89746099999957
81,-106.53857400000015,127.05126999999993,-979.7436520000001,447.6923829999996,-196.66674799999964,185.0,115.0,574.7436520000001,195.6411130000006,48.46142599999985,245.38476599999922,99.23095699999976,108.7177729999994,500.3847659999992
82,-95.0,85.64111300000059,-989.102539,445.89746099999957,-191.28198199999997,181.41015599999992,115.64111300000059,574.3588869999994,200.38476599999922,56.410155999999915,239.10253900000043,102.43603499999972,101.2822270000006,518.8461909999996
83,-97.56420900000057,45.25634799999989,-992.6923829999996,436.9228520000006,-180.5129390000002,179.61523400000078,117.05126999999993,578.3334960000002,206.79492200000004,59.48730499999965,233.84619099999964,104.35888699999941,98.0771479999994,526.794922
84,-107.43579099999943,33.846190999999635,-986.5385739999997,422.5639650000003,-175.76928699999962,180.0,119.10253900000043,583.3334960000002,212.3076170000004,57.94873000000007,233.7177729999994,105.38476599999922,99.74365200000011,518.9741210000002
85,-117.69238299999961,58.333496000000196,-973.974365,404.87158199999976,-187.6923829999996,179.87158199999976,118.46142599999985,580.0,209.7436520000001,51.153809000000365,232.56396500000028,103.58984400000008,99.87158199999976,502.05126999999993
86,-123.46142599999985,100.89746099999957,-963.4614260000003,388.84619099999964,-215.0,176.9228520000006,111.41015599999992,562.6923829999996,194.61523400000078,39.74365200000011,220.89746099999957,96.79492200000004,92.30761700000039,486.4101559999999
87,-123.71801800000003,133.58984400000008,-960.6411129999997,380.6411130000006,-241.66674799999964,171.9228520000006,99.61523400000078,537.9487300000001,172.6923829999996,28.589844000000085,198.20507799999996,86.79492200000004,78.46142599999985,477.05126999999993
88,-120.64111300000013,138.7177729999994,-964.2307129999999,383.46142599999985,-247.0512700000004,167.82031300000017,90.64111300000059,522.3076170000004,159.10253900000043,25.25634799999989,177.3076170000004,79.35888699999941,68.46142599999985,472.94873000000007
89,-119.23071300000038,118.9741210000002,-967.0512699999999,392.94873000000007,-221.28198199999997,167.3076170000004,93.3334960000002,529.3588869999994,167.6923829999996,34.87158199999976,174.10253900000043,79.61523400000078,73.0771479999994,471.53857400000015
90,-125.89746100000002,91.15380900000036,-963.8461910000001,398.46142599999985,-176.15380900000036,170.12841800000024,108.20507799999996,555.8974609999996,197.17968800000017,53.589844000000085,191.79492200000004,88.84619099999964,92.30761700000039,470.2563479999999
91,-143.33325200000036,71.41015599999992,-955.7692870000001,390.12841800000024,-140.5129390000002,172.43603499999972,125.76904300000024,581.2822270000006,227.82031300000017,68.84619099999964,215.0,101.15380900000036,111.41015599999992,465.2563479999999
92,-166.53857400000015,65.0,-949.3588870000003,367.4360349999997,-138.97436500000003,170.38476599999922,132.6923829999996,582.8203130000002,235.38476599999922,67.17968800000017,221.15380900000036,107.82031300000017,112.43603499999972,454.10253900000043
93,-183.33325200000036,68.20507799999996,-950.5129390000002,343.5898440000001,-171.923096,164.23095699999976,123.20507799999996,555.3847659999992,211.15380900000036,46.666503999999804,200.76904300000024,103.0771479999994,89.35888699999941,440.2563479999999
94,-180.38452099999995,77.17968800000017,-957.3076170000004,336.0258789999998,-212.3076170000004,158.46142599999985,104.35888699999941,516.6665039999998,171.79492200000004,20.769043000000238,165.38476599999922,89.35888699999941,55.0,431.9228520000006
95,-153.20507799999996,92.43603499999972,-961.281982,353.84619099999964,-226.53857400000015,158.46142599999985,90.89746099999957,493.5898440000001,146.53857400000015,9.743652000000111,139.23095699999976,76.6665039999998,30.641113000000587,435.2563479999999
96,-109.74365200000011,116.41015599999992,-955.128174,387.17968800000017,-201.41015600000037,165.2563479999999,93.46142599999985,499.48730499999965,153.20507799999996,23.846190999999635,137.6923829999996,74.61523400000078,29.615234000000783,447.94873000000007
97,-68.33325200000036,145.2563479999999,-941.025635,413.84619099999964,-154.35888699999987,173.9741210000002,108.9741210000002,524.6152340000008,183.58984400000008,53.846190999999635,155.12841800000024,84.61523400000078,45.51269500000035,460.2563479999999
98,-49.74365200000011,166.15380900000036,-928.3332519999999,414.3588869999994,-119.23071300000038,177.3076170000004,123.7177729999994,544.3588869999994,211.0258789999998,77.30761700000039,170.2563479999999,97.82031300000017,58.974121000000196,461.9228520000006
99,-64.8718259999996,165.76904300000024,-924.871826,385.89746099999957,-118.84619099999964,171.9228520000006,124.48730499999965,540.0,213.46142599999985,76.6665039999998,165.6411130000006,103.20507799999996,54.102539000000434,448.7177729999994
100,-107.05127000000039,143.0771479999994,-930.128174,344.6152340000008,-148.84619099999964,160.2563479999999,109.87158199999976,512.8203130000002,189.87158199999976,53.333496000000196,142.56396500000028,96.15380900000036,31.538574000000153,426.2822270000006
101,-154.8718259999996,111.79492200000004,-936.281982,313.20507799999996,-184.10253899999998,149.3588869999994,90.25634799999989,481.2822270000006,158.84619099999964,24.871581999999762,117.17968800000017,81.2822270000006,6.794922000000042,405.76904300000024
102,-183.97436500000003,89.35888699999941,-936.794922,305.12841800000024,-200.38452099999995,144.7436520000001,78.84619099999964,464.23095699999976,141.2822270000006,9.358886999999413,104.35888699999941,68.46142599999985,-4.743652000000111,396.6665039999998
103,-181.41015600000037,84.61523400000078,-930.2563479999999,316.4101559999999,-190.89746100000002,146.2822270000006,80.76904300000024,467.05126999999993,145.12841800000024,12.43603499999972,105.25634799999989,65.0,0.6411130000005869,400.3847659999992
104,-150.1281740000004,95.38476599999922,-920.2563479999999,331.4101559999999,-167.179443,150.2563479999999,91.15380900000036,480.89746099999957,162.82031300000017,27.05126999999993,110.0,71.6665039999998,14.487304999999651,410.6411130000006
105,-106.28198199999997,112.94873000000007,-911.1538089999999,336.9228520000006,-147.9487299999996,152.56396500000028,100.76904300000024,492.05126999999993,179.61523400000078,41.2822270000006,109.87158199999976,82.30761700000039,23.974121000000196,419.3588869999994
106,-70.38452099999995,127.17968800000017,-906.281982,331.0258789999998,-144.8718259999996,151.53857400000015,103.84619099999964,493.3334960000002,185.76904300000024,47.43603499999972,104.35888699999941,88.84619099999964,22.69238299999961,421.4101559999999
107,-56.66674799999964,129.87158199999976,-905.384521,320.89746099999957,-154.61547900000005,148.20507799999996,101.2822270000006,487.3076170000004,182.3076170000004,47.30761700000039,99.48730499999965,87.30761700000039,14.487304999999651,416.4101559999999
108,-64.61547900000005,120.89746099999957,-904.3588870000003,316.4101559999999,-161.923096,144.7436520000001,99.35888699999941,483.0771479999994,178.9741210000002,49.48730499999965,102.30761700000039,81.53857400000015,9.871581999999762,407.82031300000017
109,-81.15380900000036,110.0,-898.205078,321.4101559999999,-152.6923829999996,143.7177729999994,103.3334960000002,488.7177729999994,185.38476599999922,62.17968800000017,114.61523400000078,78.7177729999994,17.69238299999961,401.0258789999998
110,-90.25634799999989,107.94873000000007,-885.2563479999999,332.6923829999996,-128.076904,145.51269500000035,113.3334960000002,503.5898440000001,201.79492200000004,84.74365200000011,131.41015599999992,83.7177729999994,37.43603499999972,398.46142599999985
111,-84.61547900000005,116.6665039999998,-870.5129390000002,342.5639650000003,-103.97436500000003,148.58984400000008,123.0771479999994,518.0771479999994,218.20507799999996,106.41015599999992,142.43603499999972,93.46142599999985,57.56396500000028,398.20507799999996
112,-69.10253899999998,128.84619099999964,-861.025635,346.15380900000036,-96.02563499999997,150.6411130000006,125.0,520.5126950000003,223.0771479999994,113.84619099999964,140.51269500000035,100.64111300000059,64.87158199999976,397.5639650000003
113,-54.48706099999981,135.51269500000035,-860.5129390000002,344.48730499999965,-104.61547900000005,150.89746099999957,117.94873000000007,506.79492200000004,213.20507799999996,102.30761700000039,127.05126999999993,100.0,54.74365200000011,395.6411130000006
114,-49.23071300000038,133.3334960000002,-865.384521,342.4360349999997,-117.56420900000057,149.3588869999994,107.17968800000017,484.7436520000001,196.2822270000006,80.51269500000035,111.53857400000015,92.94873000000007,34.74365200000011,392.4360349999997
115,-53.46142599999985,125.25634799999989,-868.718018,344.10253900000043,-122.94872999999961,146.0258789999998,99.87158199999976,467.4360349999997,183.3334960000002,62.94873000000007,103.46142599999985,85.12841800000024,17.69238299999961,388.46142599999985
116,-59.23071300000038,116.53857400000015,-864.871826,351.0258789999998,-118.46142599999985,141.6665039999998,99.61523400000078,464.7436520000001,181.53857400000015,61.2822270000006,106.15380900000036,82.05126999999993,12.051269999999931,385.12841800000024
117,-56.53857400000015,112.56396500000028,-852.820557,365.0,-107.69238299999961,137.56396500000028,105.51269500000035,477.3076170000004,191.2822270000006,77.94873000000007,115.89746099999957,85.64111300000059,18.589844000000085,385.89746099999957
118,-41.41015600000037,115.12841800000024,-836.4101559999999,387.05126999999993,-94.35888699999987,135.12841800000024,114.48730499999965,496.79492200000004,207.82031300000017,106.41015599999992,125.64111300000059,94.23095699999976,31.794922000000042,392.5639650000003
119,-20.25634799999989,120.76904300000024,-823.4614260000003,413.46142599999985,-81.02563499999997,134.23095699999976,122.69238299999961,510.51269500000035,222.05126999999993,132.6923829999996,129.3588869999994,102.69238299999961,43.333496000000196,401.53857400000015
120,-2.4360349999997197,124.35888699999941,-821.4101559999999,435.51269500000035,-69.8718259999996,133.0771479999994,126.9228520000006,509.87158199999976,225.51269500000035,142.3076170000004,124.74365200000011,106.53857400000015,46.53857400000015,406.4101559999999
121,9.487304999999651,123.0771479999994,-831.923096,445.76904300000024,-62.051270000000386,129.3588869999994,126.79492200000004,496.4101559999999,216.2822270000006,131.2822270000006,114.87158199999976,104.35888699999941,40.12841800000024,403.84619099999964
122,22.94873000000007,118.46142599999985,-849.3588870000003,444.87158199999976,-55.38452099999995,122.82031300000017,125.12841800000024,481.4101559999999,202.05126999999993,111.9228520000006,106.2822270000006,99.74365200000011,30.128418000000238,396.2822270000006
123,48.589844000000085,114.74365200000011,-863.8461910000001,442.5639650000003,-45.89746100000002,115.64111300000059,126.53857400000015,475.6411130000006,194.7436520000001,104.74365200000011,105.51269500000035,97.82031300000017,25.641113000000587,390.51269500000035
124,90.51269500000035,115.64111300000059,-867.5642090000001,451.9228520000006,-30.769286999999622,111.15380900000036,134.61523400000078,481.15380900000036,201.79492200000004,121.6665039999998,115.0,101.41015599999992,32.43603499999972,392.05126999999993
125,142.05126999999993,122.05126999999993,-858.974365,479.23095699999976,-10.641113000000132,111.53857400000015,148.7177729999994,490.12841800000024,220.12841800000024,155.51269500000035,131.9228520000006,110.0,48.7177729999994,401.9228520000006
126,190.12841800000024,131.53857400000015,-843.4614260000003,518.5898440000001,10.769043000000238,115.38476599999922,162.82031300000017,491.15380900000036,238.84619099999964,186.0258789999998,149.61523400000078,119.74365200000011,66.2822270000006,414.7436520000001
127,223.58984400000008,140.0,-830.128174,555.6411130000006,28.333496000000196,118.9741210000002,170.0,477.3076170000004,247.56396500000028,196.53857400000015,161.9228520000006,127.17968800000017,76.79492200000004,421.9228520000006
128,240.89746099999957,144.10253900000043,-826.6667480000001,579.3588869999994,39.102539000000434,118.84619099999964,168.20507799999996,452.5639650000003,244.23095699999976,186.9228520000006,166.9228520000006,130.76904300000024,78.20507799999996,418.0771479999994
129,250.51269500000035,143.9741210000002,-836.025635,591.0258789999998,44.87158199999976,114.10253900000043,162.56396500000028,428.46142599999985,236.0258789999998,171.41015599999992,166.0258789999998,131.41015599999992,75.76904300000024,406.0258789999998
130,263.9741210000002,143.0771479999994,-854.7436520000001,601.0258789999998,51.666503999999804,107.05126999999993,160.0,415.2563479999999,232.3076170000004,165.89746099999957,162.43603499999972,130.89746099999957,77.05126999999993,393.5898440000001
131,285.51269500000035,144.23095699999976,-876.4101559999999,617.6923829999996,64.87158199999976,101.2822270000006,163.58984400000008,413.5898440000001,236.15380900000036,175.12841800000024,157.82031300000017,130.12841800000024,84.61523400000078,385.6411130000006
132,309.87158199999976,148.3334960000002,-894.871826,637.8203130000002,84.35888699999941,98.3334960000002,169.61523400000078,414.6152340000008,242.56396500000028,190.12841800000024,152.17968800000017,129.48730499999965,93.84619099999964,379.6152340000008
133,328.20507799999996,153.7177729999994,-905.2563479999999,650.8974609999996,106.0258789999998,97.82031300000017,172.82031300000017,410.0,245.0,198.3334960000002,146.0258789999998,128.84619099999964,97.94873000000007,370.12841800000024
134,339.3588869999994,159.61523400000078,-904.615479,650.2563479999999,126.53857400000015,99.35888699999941,171.79492200000004,399.3588869999994,242.3076170000004,195.51269500000035,142.43603499999972,128.9741210000002,96.41015599999992,356.53857400000015
135,349.3588869999994,165.76904300000024,-893.4614260000003,637.5639650000003,146.0258789999998,102.43603499999972,169.87158199999976,388.5898440000001,240.0,188.9741210000002,144.7436520000001,130.76904300000024,95.64111300000059,344.48730499999965
136,364.3588869999994,171.6665039999998,-876.6667480000001,619.6152340000008,165.12841800000024,105.76904300000024,170.89746099999957,381.4101559999999,242.43603499999972,188.3334960000002,152.43603499999972,134.23095699999976,100.89746099999957,338.3334960000002
137,381.53857400000015,173.7177729999994,-860.2563479999999,600.3847659999992,180.51269500000035,106.9228520000006,174.48730499999965,375.0,246.9228520000006,195.6411130000006,159.87158199999976,138.3334960000002,109.87158199999976,336.15380900000036
138,391.2822270000006,168.20507799999996,-847.820557,579.1025390000004,185.6411130000006,104.10253900000043,176.15380900000036,363.5898440000001,245.38476599999922,202.94873000000007,158.46142599999985,140.6411130000006,114.35888699999941,331.2822270000006
139,387.3076170000004,155.0,-838.076904,553.7177729999994,177.6923829999996,98.9741210000002,171.79492200000004,345.12841800000024,232.6923829999996,199.61523400000078,144.23095699999976,139.48730499999965,108.46142599999985,318.7177729999994
140,373.84619099999964,140.2563479999999,-826.281982,526.794922,163.9741210000002,96.0258789999998,161.6665039999998,322.94873000000007,212.3076170000004,183.7177729999994,121.53857400000015,135.38476599999922,95.76904300000024,300.2563479999999
141,364.48730499999965,132.82031300000017,-808.205078,506.2822270000006,158.46142599999985,99.61523400000078,151.53857400000015,302.3076170000004,194.23095699999976,164.23095699999976,100.25634799999989,131.15380900000036,86.6665039999998,281.9228520000006
142,371.2822270000006,136.79492200000004,-782.0512699999999,498.9741210000002,170.89746099999957,110.0,147.17968800000017,284.23095699999976,187.82031300000017,154.61523400000078,88.46142599999985,129.48730499999965,89.48730499999965,268.9741210000002
143,396.0258789999998,149.3588869999994,-749.3588870000003,505.89746099999957,199.48730499999965,123.58984400000008,150.12841800000024,265.76904300000024,194.3588869999994,162.3076170000004,88.7177729999994,131.2822270000006,104.10253900000043,262.4360349999997
144,429.6152340000008,162.94873000000007,-713.205078,521.4101559999999,233.46142599999985,134.7436520000001,156.53857400000015,243.58984400000008,207.43603499999972,182.6923829999996,96.9228520000006,134.87158199999976,122.05126999999993,259.6152340000008
145,460.0,170.51269500000035,-677.0512700000004,536.4101559999999,260.2563479999999,139.3588869999994,160.51269500000035,218.7177729999994,217.43603499999972,204.10253900000043,105.76904300000024,137.56396500000028,133.0771479999994,256.2822270000006
146,480.51269500000035,169.10253900000043,-642.820557,543.205078,272.94873000000007,137.05126999999993,158.0771479999994,195.6411130000006,218.46142599999985,215.6411130000006,109.23095699999976,137.82031300000017,132.56396500000028,249.3588869999994
147,493.5898440000001,161.53857400000015,-610.2563479999999,539.7436520000001,273.46142599999985,131.0258789999998,150.12841800000024,178.58984400000008,211.6665039999998,214.61523400000078,107.43603499999972,135.76904300000024,125.51269500000035,239.10253900000043
148,507.82031300000017,155.0,-575.5129390000002,529.8715819999998,270.51269500000035,127.30761700000039,141.79492200000004,169.87158199999976,203.20507799999996,206.41015599999992,105.76904300000024,133.46142599999985,121.79492200000004,229.10253900000043
149,529.1025390000004,155.2563479999999,-533.974365,520.1284180000002,273.20507799999996,129.10253900000043,138.20507799999996,166.9228520000006,199.10253900000043,199.48730499999965,109.61523400000078,132.43603499999972,127.56396500000028,222.56396500000028
150,556.1538090000004,161.2822270000006,-484.4870609999998,513.0771479999994,283.7177729999994,135.51269500000035,139.48730499999965,163.84619099999964,199.23095699999976,197.56396500000028,118.20507799999996,133.46142599999985,139.48730499999965,218.3334960000002
151,581.0258789999998,167.05126999999993,-430.897461,507.05126999999993,296.15380900000036,141.41015599999992,141.6665039999998,153.7177729999994,197.82031300000017,197.43603499999972,124.74365200000011,135.2563479999999,147.82031300000017,211.79492200000004
152,596.6665039999998,167.17968800000017,-380.1281740000004,499.6152340000008,304.10253900000043,142.05126999999993,140.2563479999999,134.7436520000001,190.0,194.61523400000078,122.82031300000017,136.0258789999998,146.9228520000006,200.51269500000035
153,603.5898440000001,163.0771479999994,-336.923096,491.15380900000036,307.17968800000017,136.41015599999992,134.61523400000078,110.64111300000059,177.43603499999972,188.46142599999985,113.46142599999985,135.12841800000024,140.0,187.43603499999972
154,608.0771479999994,160.12841800000024,-301.53857400000015,482.82031300000017,310.51269500000035,127.17968800000017,127.17968800000017,87.82031300000017,166.41015599999992,182.56396500000028,103.3334960000002,133.7177729999994,134.87158199999976,177.82031300000017
155,616.1538090000004,161.53857400000015,-271.41015600000037,472.5639650000003,317.82031300000017,118.7177729999994,120.76904300000024,70.12841800000024,161.2822270000006,180.6411130000006,98.9741210000002,132.94873000000007,136.0258789999998,172.43603499999972
156,628.0771479999994,165.38476599999922,-243.20507799999996,456.2822270000006,327.05126999999993,114.10253900000043,116.9228520000006,57.05126999999993,161.41015599999992,183.58984400000008,101.15380900000036,133.20507799999996,141.9228520000006,166.79492200000004
157,639.3588869999994,167.94873000000007,-215.2563479999999,433.3334960000002,333.7177729999994,114.48730499999965,116.2822270000006,47.17968800000017,162.6923829999996,190.38476599999922,105.64111300000059,134.23095699999976,148.20507799999996,156.41015599999992
158,644.4873049999997,167.82031300000017,-187.0512700000004,408.0771479999994,335.2563479999999,119.23095699999976,118.20507799999996,38.974121000000196,161.9228520000006,197.56396500000028,107.30761700000039,135.38476599999922,152.3076170000004,141.9228520000006
159,640.8974609999996,166.2822270000006,-158.46142599999985,386.15380900000036,331.79492200000004,126.41015599999992,120.76904300000024,31.153809000000365,158.20507799999996,199.48730499999965,103.58984400000008,135.76904300000024,153.0771479999994,128.20507799999996
160,630.3847659999992,165.12841800000024,-128.33325200000036,370.51269500000035,325.0,132.43603499999972,120.51269500000035,21.922852000000603,151.9228520000006,192.3076170000004,95.51269500000035,134.61523400000078,150.12841800000024,119.87158199999976
161,618.4614259999998,164.87158199999976,-94.10253899999998,359.87158199999976,317.05126999999993,134.61523400000078,115.38476599999922,10.897460999999566,144.23095699999976,178.7177729999994,86.9228520000006,132.56396500000028,143.9741210000002,117.05126999999993
162,611.1538090000004,165.0,-52.948729999999614,350.3847659999992,311.2822270000006,132.17968800000017,107.05126999999993,-0.512695000000349,137.17968800000017,167.05126999999993,82.56396500000028,130.6411130000006,136.9228520000006,116.15380900000036
163,610.7690430000002,164.87158199999976,-5.512939000000188,338.84619099999964,310.2563479999999,126.79492200000004,99.48730499999965,-9.61547900000005,131.79492200000004,164.10253900000043,84.10253900000043,130.2563479999999,131.2822270000006,112.82031300000017
164,615.6411130000006,164.48730499999965,43.846190999999635,324.23095699999976,313.5898440000001,120.89746099999957,95.89746099999957,-15.0,128.46142599999985,168.58984400000008,88.20507799999996,131.6665039999998,128.20507799999996,106.15380900000036
165,621.9228520000006,164.7436520000001,89.87158199999976,308.9741210000002,317.3076170000004,116.2822270000006,96.41015599999992,-17.435790999999426,127.69238299999961,173.46142599999985,88.84619099999964,133.58984400000008,127.17968800000017,99.23095699999976
166,627.1796880000002,168.0771479999994,131.15380900000036,297.6923829999996,317.5639650000003,114.35888699999941,98.58984400000008,-18.846190999999635,130.76904300000024,173.3334960000002,83.58984400000008,134.3588869999994,128.7177729999994,97.17968800000017
167,632.0512699999999,175.89746099999957,170.89746099999957,294.87158199999976,315.0,115.51269500000035,101.0258789999998,-20.1281740000004,138.20507799999996,169.3588869999994,75.89746099999957,133.7177729999994,133.20507799999996,102.82031300000017
168,636.5385740000002,186.53857400000015,213.46142599999985,299.87158199999976,313.0771479999994,118.9741210000002,103.0771479999994,-21.923095999999987,145.38476599999922,166.15380900000036,71.15380900000036,132.94873000000007,139.23095699999976,112.82031300000017
169,638.3334960000002,194.3588869999994,259.10253900000043,305.76904300000024,313.0771479999994,121.79492200000004,104.10253900000043,-25.641113000000132,144.7436520000001,166.6665039999998,70.0,133.0771479999994,143.20507799999996,118.46142599999985
170,632.9487300000001,194.10253900000043,303.9741210000002,303.5898440000001,311.9228520000006,120.38476599999922,102.17968800000017,-33.46142599999985,131.53857400000015,168.9741210000002,67.94873000000007,133.7177729999994,142.05126999999993,111.9228520000006
171,618.205078,185.38476599999922,342.94873000000007,289.7436520000001,305.2563479999999,114.23095699999976,96.41015599999992,-45.0,109.61523400000078,169.3588869999994,61.666503999999804,133.3334960000002,136.9228520000006,93.3334960000002
172,597.5639650000003,173.3334960000002,373.20507799999996,268.20507799999996,292.5639650000003,106.2822270000006,88.46142599999985,-56.53857400000015,90.0,165.38476599999922,51.2822270000006,130.89746099999957,131.6665039999998,70.89746099999957
173,578.8461909999996,163.84619099999964,394.6152340000008,247.17968800000017,278.0771479999994,101.41015599999992,82.82031300000017,-62.69238299999961,83.3334960000002,158.20507799999996,39.61523400000078,126.79492200000004,129.23095699999976,54.87158199999976
174,569.1025390000004,159.87158199999976,409.10253900000043,232.05126999999993,267.94873000000007,102.43603499999972,83.58984400000008,-61.153809000000365,91.2822270000006,152.3076170000004,29.230956999999762,123.3334960000002,129.3588869999994,50.12841800000024
175,569.6152340000008,161.53857400000015,420.12841800000024,223.7177729999994,267.3076170000004,108.3334960000002,90.38476599999922,-53.846190999999635,105.76904300000024,153.9741210000002,20.51269500000035,122.69238299999961,131.15380900000036,54.102539000000434
176,574.6152340000008,167.05126999999993,432.05126999999993,219.3588869999994,276.6665039999998,115.0,98.84619099999964,-46.53857400000015,115.51269500000035,167.6923829999996,12.307617000000391,125.64111300000059,133.7177729999994,58.974121000000196
177,574.8715819999998,173.84619099999964,448.3334960000002,215.2563479999999,290.6411130000006,117.56396500000028,102.94873000000007,-45.89746100000002,113.84619099999964,189.61523400000078,2.3076170000003913,130.6411130000006,135.89746099999957,58.46142599999985
178,565.1284180000002,177.82031300000017,470.12841800000024,209.23095699999976,300.3847659999992,114.10253900000043,99.23095699999976,-54.61547900000005,104.10253900000043,206.6665039999998,-9.358886999999868,134.48730499999965,135.6411130000006,51.025878999999804
179,547.6923829999996,176.0258789999998,495.51269500000035,201.0258789999998,298.3334960000002,106.15380900000036,90.25634799999989,-68.71801800000003,95.51269500000035,204.23095699999976,-20.0,135.12841800000024,131.6665039999998,41.2822270000006
180,530.0,169.23095699999976,520.6411130000006,192.3076170000004,283.7177729999994,98.20507799999996,83.20507799999996,-80.0,94.61523400000078,179.48730499999965,-25.38452099999995,132.6923829999996,125.25634799999989,35.25634799999989
181,518.9741210000002,162.17968800000017,542.4360349999997,185.12841800000024,263.3334960000002,94.48730499999965,83.7177729999994,-81.28198199999997,99.48730499999965,145.12841800000024,-24.10253899999998,130.12841800000024,119.23095699999976,35.897460999999566
182,516.1538090000004,160.38476599999922,559.6152340000008,180.12841800000024,248.20507799999996,95.64111300000059,91.9228520000006,-71.79492200000004,102.69238299999961,121.6665039999998,-20.25634799999989,130.12841800000024,116.79492200000004,41.025878999999804
183,517.8203130000002,166.15380900000036,573.7177729999994,176.15380900000036,247.05126999999993,99.23095699999976,102.05126999999993,-56.92309599999999,99.87158199999976,124.35888699999941,-19.487060999999812,132.43603499999972,118.9741210000002,45.0
184,517.3076170000004,176.41015599999992,587.5639650000003,170.89746099999957,259.48730499999965,100.76904300000024,106.6665039999998,-45.64111300000013,93.84619099999964,154.10253900000043,-24.8718259999996,134.61523400000078,125.0,43.589844000000085
185,508.46142599999985,184.10253900000043,603.205078,161.79492200000004,275.3847659999992,97.56396500000028,102.82031300000017,-45.76928699999962,90.64111300000059,197.05126999999993,-35.1281740000004,133.9741210000002,130.6411130000006,35.51269500000035
186,489.87158199999976,182.56396500000028,620.1284180000002,147.05126999999993,281.6665039999998,90.38476599999922,93.0771479999994,-59.48706099999981,92.56396500000028,230.6411130000006,-47.435790999999426,129.7436520000001,130.6411130000006,22.56396500000028
187,465.6411130000006,171.41015599999992,636.5385740000002,127.05126999999993,273.3334960000002,82.43603499999972,83.3334960000002,-80.51293900000019,96.2822270000006,236.41015599999992,-59.74365200000011,123.0771479999994,122.17968800000017,9.230956999999762
188,443.9741210000002,157.56396500000028,651.1538090000004,104.61523400000078,257.17968800000017,77.56396500000028,78.20507799999996,-97.56420900000057,96.79492200000004,212.94873000000007,-70.51293900000019,116.9228520000006,109.10253900000043,-0.6411130000005869
189,431.79492200000004,150.2563479999999,664.7436520000001,83.9741210000002,245.76904300000024,77.43603499999972,78.58984400000008,-102.05127000000039,92.43603499999972,178.46142599999985,-77.05127000000039,113.84619099999964,98.84619099999964,-4.871825999999601
190,430.6411130000006,154.23095699999976,679.7436520000001,68.3334960000002,246.9228520000006,80.89746099999957,82.17968800000017,-94.48706099999981,86.9228520000006,156.6665039999998,-76.92309599999999,115.0,97.56396500000028,-4.871825999999601
191,436.53857400000015,165.6411130000006,697.3076170000004,58.846190999999635,258.0771479999994,84.87158199999976,85.89746099999957,-82.30761700000039,85.76904300000024,159.10253900000043,-70.38452099999995,119.61523400000078,105.0,-2.6923829999996087
192,441.9228520000006,175.51269500000035,717.1796880000002,53.589844000000085,269.10253900000043,86.79492200000004,88.0771479999994,-74.35888699999987,91.41015599999992,177.17968800000017,-61.153809000000365,125.38476599999922,115.0,-0.512695000000349
193,439.7436520000001,176.15380900000036,737.0512699999999,48.20507799999996,270.76904300000024,86.41015599999992,87.69238299999961,-74.61547900000005,100.25634799999989,191.79492200000004,-55.1281740000004,129.61523400000078,119.35888699999941,-0.256347999999889
194,426.0258789999998,165.6411130000006,754.1025390000004,38.20507799999996,260.2563479999999,85.25634799999989,84.74365200000011,-81.79492200000004,104.87158199999976,189.61523400000078,-56.28198199999997,130.0,114.10253900000043,-4.102538999999979
195,403.3334960000002,148.3334960000002,767.8203130000002,22.82031300000017,243.0771479999994,86.15380900000036,79.48730499999965,-91.41015600000037,100.51269500000035,173.3334960000002,-64.61547900000005,126.53857400000015,101.6665039999998,-12.435790999999426
196,379.10253900000043,131.79492200000004,780.6411130000006,5.769043000000238,228.0771479999994,90.12841800000024,73.20507799999996,-100.25634799999989,88.20507799999996,156.53857400000015,-75.89746100000002,121.15380900000036,88.7177729999994,-22.820557000000008
197,361.4101559999999,122.43603499999972,795.8974609999996,-7.051270000000386,221.6665039999998,95.51269500000035,67.82031300000017,-107.17944299999999,74.35888699999941,150.12841800000024,-85.76928699999962,116.53857400000015,81.79492200000004,-31.153809000000365
198,354.48730499999965,123.84619099999964,815.2563479999999,-11.41015600000037,223.84619099999964,99.48730499999965,64.87158199999976,-112.69238299999961,65.38476599999922,154.3588869999994,-90.38452099999995,114.87158199999976,83.20507799999996,-33.974365000000034
199,356.2822270000006,136.15380900000036,837.0512699999999,-8.076904000000013,231.0258789999998,101.0258789999998,65.12841800000024,-116.02563499999997,64.10253900000043,161.9228520000006,-88.71801800000003,116.15380900000036,90.12841800000024,-31.025634999999966
200,360.2563479999999,154.87158199999976,856.9228520000006,-2.0512699999999313,239.48730499999965,101.15380900000036,67.94873000000007,-115.76928699999962,68.84619099999964,166.15380900000036,-82.56420900000057,118.7177729999994,96.6665039999998,-25.769286999999622
201,359.3588869999994,170.89746099999957,870.7690430000002,-0.512695000000349,246.41015599999992,101.15380900000036,70.89746099999957,-112.69238299999961,74.87158199999976,166.0258789999998,-76.92309599999999,120.25634799999989,96.9228520000006,-23.333252000000357
202,349.10253900000043,174.87158199999976,877.1796880000002,-8.461425999999847,250.2563479999999,101.15380900000036,71.79492200000004,-110.38452099999995,77.43603499999972,164.23095699999976,-76.66674799999964,118.84619099999964,89.87158199999976,-27.564209000000574
203,330.2563479999999,164.10253900000043,879.6152340000008,-23.974365000000034,249.61523400000078,100.38476599999922,69.35888699999941,-112.05127000000039,74.48730499999965,163.3334960000002,-82.05127000000039,114.61523400000078,78.84619099999964,-37.435790999999426
204,308.0771479999994,145.2563479999999,883.205078,-40.64111300000013,244.10253900000043,97.69238299999961,64.23095699999976,-118.20507799999996,67.05126999999993,163.58984400000008,-89.10253899999998,110.38476599999922,70.0,-48.71801800000003
205,288.46142599999985,128.20507799999996,890.6411130000006,-53.07690400000001,233.9741210000002,93.0771479999994,58.846190999999635,-125.89746100000002,58.0771479999994,161.2822270000006,-93.58984399999963,108.58984400000008,66.2822270000006,-57.564209000000574
206,275.12841800000024,118.7177729999994,899.4873049999997,-61.28198199999997,220.76904300000024,87.94873000000007,54.87158199999976,-131.66674799999964,50.12841800000024,152.17968800000017,-95.89746100000002,109.87158199999976,66.0258789999998,-63.20507799999996
207,269.23095699999976,116.79492200000004,904.3588869999994,-68.07690400000001,207.94873000000007,84.35888699999941,53.7177729999994,-133.46142599999985,45.12841800000024,136.41015599999992,-99.23071300000038,112.43603499999972,65.64111300000059,-66.02563499999997
208,270.51269500000035,119.74365200000011,901.794922,-74.35888699999987,199.3588869999994,83.84619099999964,55.25634799999989,-131.66674799999964,44.35888699999941,121.6665039999998,-104.8718259999996,113.9741210000002,63.20507799999996,-66.02563499999997
209,276.15380900000036,123.84619099999964,893.4614259999998,-78.71801800000003,197.17968800000017,85.89746099999957,57.69238299999961,-129.7436520000001,47.30761700000039,117.43603499999972,-110.76928699999962,112.82031300000017,59.61523400000078,-63.20507799999996
210,280.89746099999957,125.76904300000024,884.2309569999998,-81.02563499999997,199.87158199999976,88.46142599999985,58.333496000000196,-132.179443,50.25634799999989,125.89746099999957,-114.10253899999998,108.9741210000002,55.64111300000059,-59.74365200000011
211,279.10253900000043,123.7177729999994,879.6152340000008,-83.46142599999985,205.0,89.48730499999965,55.51269500000035,-140.1281740000004,49.87158199999976,139.3588869999994,-112.69238299999961,103.58984400000008,51.9228520000006,-58.846190999999635
212,269.6152340000008,119.87158199999976,882.3076170000004,-88.46142599999985,210.51269500000035,88.46142599999985,50.64111300000059,-148.97436500000003,46.153809000000365,147.43603499999972,-105.89746100000002,99.35888699999941,49.35888699999941,-61.92309599999999
213,257.05126999999993,118.84619099999964,891.4101559999999,-95.25634799999989,215.89746099999957,86.53857400000015,48.333496000000196,-152.179443,43.333496000000196,145.2563479999999,-94.74365200000011,98.58984400000008,49.61523400000078,-67.30761700000039
214,248.3334960000002,123.20507799999996,902.3076170000004,-101.28198199999997,220.89746099999957,84.87158199999976,51.9228520000006,-146.66674799999964,45.64111300000059,136.6665039999998,-83.58984399999963,102.30761700000039,53.7177729999994,-70.89746100000002
215,246.2822270000006,131.9228520000006,909.7436520000001,-104.48706099999981,225.12841800000024,83.7177729999994,60.51269500000035,-135.5129390000002,53.20507799999996,129.48730499999965,-77.94872999999961,108.84619099999964,60.51269500000035,-70.1281740000004
216,247.3076170000004,140.76904300000024,910.7690430000002,-106.28198199999997,226.9228520000006,83.3334960000002,68.84619099999964,-125.89746100000002,61.666503999999804,129.61523400000078,-79.74365200000011,115.0,66.79492200000004,-65.76928699999962
217,244.48730499999965,145.2563479999999,905.7690430000002,-109.74365200000011,224.10253900000043,83.3334960000002,71.53857400000015,-124.10253899999998,65.0,136.53857400000015,-85.89746100000002,117.43603499999972,68.20507799999996,-61.79492200000004
218,234.23095699999976,143.3334960000002,898.7177729999994,-116.15380900000036,215.76904300000024,83.58984400000008,67.69238299999961,-131.02563499999997,61.025878999999804,145.2563479999999,-90.51293900000019,115.89746099999957,63.589844000000085,-61.28198199999997
219,219.61523400000078,137.56396500000028,895.0,-122.69238299999961,206.2822270000006,84.23095699999976,62.05126999999993,-141.02563499999997,53.46142599999985,150.38476599999922,-89.61547900000005,113.20507799999996,56.410155999999915,-64.48706099999981
220,208.3334960000002,133.0771479999994,897.5639650000003,-124.61547900000005,202.17968800000017,85.25634799999989,60.897460999999566,-146.923096,48.589844000000085,149.48730499999965,-82.94872999999961,112.94873000000007,51.9228520000006,-68.97436500000003
221,205.0,134.23095699999976,904.4873049999997,-120.76928699999962,205.89746099999957,85.38476599999922,65.38476599999922,-145.5129390000002,49.61523400000078,143.84619099999964,-75.0,115.51269500000035,52.82031300000017,-72.82055700000001
222,206.53857400000015,140.76904300000024,910.1284180000002,-115.25634799999989,212.82031300000017,84.61523400000078,71.2822270000006,-140.38452099999995,53.333496000000196,136.6665039999998,-71.41015600000037,118.3334960000002,56.79492200000004,-74.8718259999996
223,205.76904300000024,148.46142599999985,910.5126950000003,-113.58984399999963,215.6411130000006,83.58984400000008,72.43603499999972,-137.0512700000004,55.38476599999922,131.9228520000006,-73.71801800000003,118.20507799999996,59.102539000000434,-74.35888699999987
224,197.6923829999996,152.6923829999996,905.5126950000003,-117.82055700000001,210.76904300000024,84.23095699999976,67.43603499999972,-137.3076170000004,54.61523400000078,132.82031300000017,-79.23071300000038,113.9741210000002,57.69238299999961,-70.38452099999995
225,184.7436520000001,151.2822270000006,898.9741210000002,-126.02563499999997,201.6665039999998,86.6665039999998,59.87158199999976,-138.97436500000003,53.46142599999985,139.87158199999976,-83.20507799999996,107.69238299999961,54.23095699999976,-64.35888699999987
226,173.3334960000002,146.79492200000004,894.7436520000001,-133.58984399999963,196.15380900000036,89.87158199999976,55.25634799999989,-138.46142599999985,54.23095699999976,149.7436520000001,-82.30761700000039,102.82031300000017,53.0771479999994,-59.74365200000011
227,168.84619099999964,144.7436520000001,894.2309569999998,-137.0512700000004,201.0258789999998,92.56396500000028,56.2822270000006,-134.35888699999987,57.30761700000039,157.94873000000007,-76.53857400000015,103.20507799999996,57.05126999999993,-59.10253899999998
228,171.15380900000036,148.20507799999996,895.7690430000002,-136.02563499999997,215.38476599999922,93.7177729999994,61.79492200000004,-127.94872999999961,60.897460999999566,160.12841800000024,-68.20507799999996,109.35888699999941,65.51269500000035,-62.17944299999999
229,173.84619099999964,153.3334960000002,895.5126950000003,-135.2563479999999,228.46142599999985,92.69238299999961,67.05126999999993,-123.46142599999985,61.410155999999915,153.84619099999964,-61.53857400000015,117.82031300000017,73.3334960000002,-66.92309599999999
230,168.9741210000002,151.9228520000006,890.2563479999999,-140.76928699999962,227.05126999999993,89.35888699999941,67.30761700000039,-124.8718259999996,55.64111300000059,139.48730499999965,-60.89746100000002,122.82031300000017,73.9741210000002,-72.30761700000039
231,153.9741210000002,139.61523400000078,880.5126950000003,-154.23071300000038,206.0258789999998,85.25634799999989,61.025878999999804,-133.20507799999996,44.61523400000078,121.9228520000006,-67.43579099999943,120.38476599999922,64.35888699999941,-77.94872999999961
232,133.7177729999994,121.53857400000015,870.1284180000002,-170.2563479999999,176.2822270000006,82.69238299999961,52.17968800000017,-144.23071300000038,33.846190999999635,109.61523400000078,-78.07690400000001,111.6665039999998,47.82031300000017,-83.46142599999985
233,116.79492200000004,108.46142599999985,863.205078,-180.76928699999962,157.6923829999996,83.0771479999994,46.410155999999915,-151.66674799999964,28.974121000000196,108.84619099999964,-86.53857400000015,101.79492200000004,31.922852000000603,-88.20507799999996
234,109.35888699999941,109.87158199999976,861.9228520000006,-180.38452099999995,165.51269500000035,85.89746099999957,46.9228520000006,-151.02563499999997,32.43603499999972,119.87158199999976,-87.30761700000039,97.05126999999993,24.74365200000011,-89.35888699999987
235,112.56396500000028,126.53857400000015,865.5126950000003,-169.10253899999998,197.56396500000028,89.74365200000011,53.0771479999994,-142.3076170000004,41.79492200000004,136.6665039999998,-77.82055700000001,100.12841800000024,31.153809000000365,-83.46142599999985
236,122.82031300000017,150.89746099999957,871.2822270000006,-151.79492200000004,234.23095699999976,93.20507799999996,60.897460999999566,-130.0,52.30761700000039,150.6411130000006,-60.25634799999989,109.10253900000043,48.7177729999994,-69.8718259999996
237,132.82031300000017,170.12841800000024,875.8974609999996,-137.3076170000004,250.76904300000024,94.10253900000043,65.64111300000059,-121.02563499999997,58.7177729999994,155.76904300000024,-42.82055700000001,118.84619099999964,67.05126999999993,-54.74365200000011
238,134.23095699999976,173.20507799999996,875.5126950000003,-134.4870609999998,235.0,91.53857400000015,64.87158199999976,-120.76928699999962,57.30761700000039,150.0,-36.28198199999997,123.84619099999964,72.82031300000017,-49.23071300000038
239,122.82031300000017,157.56396500000028,868.7177729999994,-147.179443,195.6411130000006,85.38476599999922,59.35888699999941,-129.61547900000005,47.69238299999961,136.15380900000036,-46.153809000000365,120.89746099999957,59.35888699999941,-60.51293900000019
240,102.30761700000039,131.6665039999998,857.5639650000003,-169.61547900000005,155.2563479999999,77.56396500000028,52.43603499999972,-142.56420900000057,34.102539000000434,120.89746099999957,-67.05127000000039,111.9228520000006,33.20507799999996,-83.84619099999964
241,81.6665039999998,110.25634799999989,847.0512699999999,-190.1281740000004,135.2563479999999,71.41015599999992,47.56396500000028,-151.79492200000004,22.69238299999961,111.9228520000006,-85.51293900000019,101.9228520000006,10.641113000000587,-105.0
242,70.12841800000024,103.7177729999994,841.9228520000006,-198.33325200000036,143.0771479999994,68.7177729999994,46.410155999999915,-152.3076170000004,19.102539000000434,113.3334960000002,-89.48706099999981,96.79492200000004,6.025878999999804,-110.76928699999962
243,70.89746099999957,111.53857400000015,843.4614259999998,-192.3076170000004,168.9741210000002,69.35888699999941,48.20507799999996,-145.2563479999999,24.230956999999762,122.69238299999961,-76.92309599999999,98.7177729999994,21.794922000000042,-99.61547900000005
244,79.74365200000011,124.23095699999976,849.3588869999994,-178.71801800000003,194.87158199999976,71.15380900000036,51.153809000000365,-135.89746100000002,35.0,133.7177729999994,-55.25634799999989,105.25634799999989,48.7177729999994,-81.02563499999997
245,88.3334960000002,131.9228520000006,855.2563479999999,-167.6923829999996,206.41015599999992,72.43603499999972,53.7177729999994,-129.23071300000038,46.2822270000006,141.15380900000036,-35.76928699999962,111.9228520000006,74.35888699999941,-67.17944299999999
246,91.0258789999998,132.17968800000017,857.8203130000002,-164.35888699999987,201.41015599999992,73.0771479999994,55.64111300000059,-125.51293900000019,55.38476599999922,145.38476599999922,-23.461425999999847,115.64111300000059,92.56396500000028,-62.30761700000039
247,88.84619099999964,129.87158199999976,857.1796880000002,-165.89746100000002,190.12841800000024,74.35888699999941,58.0771479999994,-120.25634799999989,63.974121000000196,152.05126999999993,-14.743652000000111,117.69238299999961,106.9228520000006,-61.53857400000015
248,87.94873000000007,131.6665039999998,855.7690430000002,-165.89746100000002,185.89746099999957,76.79492200000004,62.43603499999972,-107.94872999999961,75.64111300000059,165.76904300000024,-1.5385740000001533,121.2822270000006,123.9741210000002,-57.564209000000574
249,94.10253900000043,138.84619099999964,855.3847659999992,-160.76928699999962,195.51269500000035,79.48730499999965,68.84619099999964,-88.58984399999963,91.6665039999998,185.12841800000024,20.25634799999989,127.69238299999961,144.87158199999976,-48.20507799999996
250,104.87158199999976,145.6411130000006,855.0,-154.23071300000038,213.20507799999996,80.89746099999957,75.12841800000024,-68.71801800000003,107.43603499999972,201.53857400000015,44.87158199999976,134.7436520000001,162.94873000000007,-38.46142599999985
251,111.41015599999992,144.61523400000078,851.4101559999999,-153.076904,225.12841800000024,80.12841800000024,78.46142599999985,-57.948729999999614,115.25634799999989,206.0258789999998,60.25634799999989,137.94873000000007,168.7177729999994,-35.51293900000019
252,104.48730499999965,132.3076170000004,842.4360349999997,-160.64111300000013,220.76904300000024,77.56396500000028,76.2822270000006,-62.30761700000039,110.0,196.15380900000036,57.56396500000028,135.12841800000024,159.10253900000043,-42.30761700000039
253,83.0771479999994,112.17968800000017,829.1025390000004,-174.23071300000038,200.0,73.9741210000002,69.10253900000043,-78.84619099999964,93.58984400000008,177.43603499999972,38.46142599999985,127.05126999999993,139.7436520000001,-55.76928699999962
254,55.897460999999566,92.43603499999972,815.8974609999996,-187.179443,173.3334960000002,70.89746099999957,59.87158199999976,-98.46142599999985,74.10253900000043,160.6411130000006,13.846190999999635,118.0771479999994,120.89746099999957,-69.61547900000005
255,35.25634799999989,80.12841800000024,807.0512699999999,-194.23071300000038,154.48730499999965,70.38476599999922,53.0771479999994,-110.76928699999962,61.53857400000015,154.3588869999994,-4.358886999999868,112.69238299999961,110.12841800000024,-78.58984399999963
256,28.974121000000196,77.43603499999972,804.3588869999994,-194.35888699999987,151.79492200000004,72.43603499999972,51.666503999999804,-111.53857400000015,60.51269500000035,159.48730499999965,-10.38452099999995,112.82031300000017,107.94873000000007,-81.28198199999997
257,36.025878999999804,81.6665039999998,805.6411130000006,-190.89746100000002,162.82031300000017,76.53857400000015,55.12841800000024,-103.33325200000036,69.10253900000043,169.48730499999965,-5.897461000000021,116.15380900000036,110.38476599999922,-79.48706099999981
258,48.7177729999994,87.69238299999961,806.5385740000002,-187.3076170000004,177.94873000000007,81.41015599999992,60.51269500000035,-93.07690400000001,80.64111300000059,176.41015599999992,3.9741210000001956,119.10253900000043,114.10253900000043,-74.8718259999996
259,58.7177729999994,92.43603499999972,803.8461909999996,-184.4870609999998,187.43603499999972,85.89746099999957,64.35888699999941,-86.53857400000015,88.58984400000008,176.79492200000004,14.615234000000783,119.48730499999965,118.3334960000002,-68.97436500000003
260,62.17968800000017,96.6665039999998,798.205078,-181.02563499999997,189.23095699999976,88.58984400000008,64.74365200000011,-85.25634799999989,89.74365200000011,173.20507799999996,24.358886999999413,118.20507799999996,123.9741210000002,-62.435790999999426
261,60.38476599999922,103.9741210000002,792.5639650000003,-175.1281740000004,188.9741210000002,87.82031300000017,62.94873000000007,-86.28198199999997,86.0258789999998,170.51269500000035,32.43603499999972,118.58984400000008,130.0,-56.92309599999999
262,56.79492200000004,115.76904300000024,790.5126950000003,-167.56420900000057,193.0771479999994,83.3334960000002,62.17968800000017,-85.64111300000013,82.43603499999972,171.2822270000006,38.333496000000196,122.56396500000028,133.7177729999994,-54.61547900000005
263,53.0771479999994,128.84619099999964,792.0512699999999,-160.64111300000013,201.0258789999998,77.05126999999993,64.74365200000011,-81.66674799999964,83.3334960000002,173.46142599999985,40.38476599999922,127.94873000000007,133.0771479999994,-55.89746100000002
264,49.87158199999976,137.82031300000017,794.2309569999998,-157.43579099999943,206.0258789999998,72.56396500000028,70.38476599999922,-75.38452099999995,88.20507799999996,174.48730499999965,37.56396500000028,131.2822270000006,129.48730499999965,-58.846190999999635
265,47.69238299999961,140.51269500000035,793.205078,-158.46142599999985,203.58984400000008,73.20507799999996,76.9228520000006,-69.23071300000038,93.7177729999994,174.10253900000043,32.43603499999972,130.38476599999922,127.30761700000039,-59.8718259999996
266,49.35888699999941,139.87158199999976,788.205078,-159.61547900000005,197.3076170000004,78.9741210000002,81.6665039999998,-64.10253899999998,97.56396500000028,176.41015599999992,30.384765999999217,127.05126999999993,129.7436520000001,-57.051270000000386
267,55.51269500000035,140.0,781.0258789999998,-156.923096,195.51269500000035,86.15380900000036,83.46142599999985,-59.8718259999996,99.87158199999976,183.58984400000008,35.51269500000035,124.87158199999976,135.76904300000024,-51.025634999999966
268,61.153809000000365,141.0258789999998,774.2309569999998,-151.66674799999964,199.87158199999976,89.48730499999965,81.53857400000015,-58.07690400000001,100.76904300000024,190.76904300000024,45.0,125.0,140.2563479999999,-46.153809000000365
269,57.05126999999993,137.43603499999972,767.6923829999996,-151.41015600000037,201.41015599999992,85.89746099999957,75.38476599999922,-62.051270000000386,97.69238299999961,187.82031300000017,48.974121000000196,125.51269500000035,136.15380900000036,-47.69238299999961
270,37.94873000000007,123.9741210000002,759.7436520000001,-162.0512700000004,189.10253900000043,77.05126999999993,65.38476599999922,-73.97436500000003,87.30761700000039,168.84619099999964,39.61523400000078,122.82031300000017,121.2822270000006,-57.82055700000001
271,10.897460999999566,102.94873000000007,750.3847659999992,-180.89746100000002,163.58984400000008,67.82031300000017,55.0,-90.64111300000013,71.6665039999998,140.51269500000035,19.615234000000783,116.41015599999992,101.15380900000036,-73.07690400000001
272,-8.58984399999963,85.12841800000024,742.9487300000001,-195.64111300000013,140.89746099999957,63.974121000000196,49.61523400000078,-102.43579099999943,59.48730499999965,120.12841800000024,2.1796880000001693,109.87158199999976,87.30761700000039,-85.25634799999989
273,-7.435790999999426,82.56396500000028,741.2822270000006,-193.97436500000003,139.61523400000078,67.43603499999972,53.46142599999985,-99.48706099999981,60.76904300000024,123.46142599999985,1.2822270000006029,108.3334960000002,90.25634799999989,-85.76928699999962
274,14.230956999999762,98.84619099999964,746.2822270000006,-173.58984399999963,165.12841800000024,76.15380900000036,66.41015599999992,-80.38452099999995,77.56396500000028,151.53857400000015,19.871581999999762,114.48730499999965,110.12841800000024,-72.17944299999999
275,42.43603499999972,126.41015599999992,753.8461909999996,-144.61547900000005,203.9741210000002,85.25634799999989,82.30761700000039,-54.23071300000038,102.05126999999993,188.0771479999994,48.0771479999994,125.64111300000059,136.15380900000036,-50.89746100000002
276,59.23095699999976,150.76904300000024,757.5639650000003,-123.33325200000036,234.10253900000043,90.51269500000035,93.0771479999994,-34.10253899999998,120.89746099999957,211.0258789999998,70.12841800000024,135.38476599999922,153.58984400000008,-33.20507799999996
277,55.76904300000024,160.38476599999922,753.4614259999998,-121.15380900000036,240.51269500000035,90.38476599999922,94.35888699999941,-28.076904000000013,125.64111300000059,208.7177729999994,76.2822270000006,138.46142599999985,154.48730499999965,-27.948729999999614
278,37.30761700000039,154.10253900000043,742.5639650000003,-136.79492200000004,223.20507799999996,86.79492200000004,88.58984400000008,-34.48706099999981,117.17968800000017,187.82031300000017,68.20507799999996,133.9741210000002,141.53857400000015,-36.153809000000365
279,17.94873000000007,139.61523400000078,729.2309569999998,-157.6923829999996,194.7436520000001,81.79492200000004,80.51269500000035,-45.38452099999995,103.46142599999985,165.2563479999999,54.74365200000011,125.51269500000035,125.12841800000024,-50.76928699999962
280,8.333496000000196,126.0258789999998,718.0771479999994,-170.64111300000013,169.23095699999976,76.53857400000015,73.46142599999985,-54.74365200000011,91.6665039999998,153.7177729999994,43.974121000000196,117.82031300000017,113.7177729999994,-63.20507799999996
281,10.128418000000238,117.43603499999972,711.4101559999999,-170.89746100000002,153.9741210000002,71.0258789999998,67.94873000000007,-61.28198199999997,84.23095699999976,152.6923829999996,37.30761700000039,113.46142599999985,109.48730499999965,-68.71801800000003
282,17.17968800000017,113.3334960000002,708.8461909999996,-163.20507799999996,149.48730499999965,65.76904300000024,64.61523400000078,-65.64111300000013,80.25634799999989,153.58984400000008,32.94873000000007,113.0771479999994,109.10253900000043,-67.94872999999961
283,22.94873000000007,112.43603499999972,709.3588869999994,-156.53857400000015,153.3334960000002,63.0771479999994,64.61523400000078,-66.66674799999964,80.0,150.89746099999957,30.51269500000035,115.89746099999957,110.12841800000024,-63.46142599999985
284,25.384765999999217,116.0258789999998,711.2822270000006,-154.8718259999996,163.9741210000002,64.48730499999965,68.9741210000002,-61.41015600000037,85.0,147.43603499999972,33.974121000000196,121.0258789999998,113.3334960000002,-56.92309599999999
285,26.282227000000603,124.87158199999976,713.5898440000001,-156.02563499999997,178.46142599999985,69.61523400000078,76.41015599999992,-48.846190999999635,95.76904300000024,150.12841800000024,45.897460999999566,127.05126999999993,119.87158199999976,-48.974365000000034
286,27.56396500000028,134.7436520000001,714.2309569999998,-155.0,190.6411130000006,75.38476599999922,83.0771479999994,-33.46142599999985,108.3334960000002,160.89746099999957,62.56396500000028,131.53857400000015,128.0771479999994,-42.051270000000386
287,28.461425999999847,138.84619099999964,711.2822270000006,-149.4870609999998,193.46142599999985,78.0771479999994,85.0,-23.205077999999958,115.51269500000035,173.7177729999994,74.61523400000078,132.3076170000004,132.43603499999972,-40.0
288,26.922852000000603,134.48730499999965,704.1025390000004,-142.6923829999996,184.61523400000078,76.41015599999992,81.2822270000006,-24.10253899999998,112.17968800000017,178.9741210000002,74.61523400000078,129.10253900000043,129.48730499999965,-43.974365000000034
289,21.922852000000603,126.2822270000006,693.7177729999994,-139.4870609999998,170.89746099999957,72.43603499999972,74.48730499999965,-34.48706099999981,100.0,172.6923829999996,64.23095699999976,123.84619099999964,120.25634799999989,-50.76928699999962
290,15.128418000000238,122.56396500000028,683.8461909999996,-141.41015600000037,163.46142599999985,69.87158199999976,68.20507799999996,-46.41015600000037,86.6665039999998,160.0,52.05126999999993,119.48730499999965,111.15380900000036,-55.38452099999995
291,9.615234000000783,127.94873000000007,677.9487300000001,-144.61547900000005,169.23095699999976,71.0258789999998,65.12841800000024,-51.025634999999966,81.2822270000006,151.0258789999998,47.30761700000039,118.46142599999985,108.3334960000002,-54.8718259999996
292,9.230956999999762,139.7436520000001,677.9487300000001,-143.076904,184.61523400000078,76.0258789999998,66.41015599999992,-44.61547900000005,87.94873000000007,152.94873000000007,53.46142599999985,121.41015599999992,114.48730499999965,-49.74365200000011
293,15.641113000000587,150.38476599999922,681.794922,-134.10253899999998,198.46142599999985,82.30761700000039,71.53857400000015,-31.153809000000365,102.30761700000039,163.7177729999994,66.9228520000006,126.53857400000015,126.41015599999992,-43.58984399999963
294,26.666503999999804,153.46142599999985,685.0,-121.66674799999964,201.0258789999998,86.53857400000015,78.58984400000008,-19.10253899999998,115.25634799999989,174.48730499999965,80.25634799999989,131.2822270000006,137.05126999999993,-39.8718259999996
295,35.897460999999566,148.46142599999985,683.3334960000002,-113.84619099999964,191.2822270000006,86.2822270000006,84.10253900000043,-15.0,120.25634799999989,177.17968800000017,86.6665039999998,132.82031300000017,140.6411130000006,-40.1281740000004
296,37.69238299999961,141.2822270000006,676.0258789999998,-115.64111300000013,177.3076170000004,82.82031300000017,85.38476599999922,-19.10253899999998,117.69238299999961,171.9228520000006,84.35888699999941,131.41015599999992,138.0771479999994,-42.82055700000001
297,32.43603499999972,139.10253900000043,666.0258789999998,-124.61547900000005,169.10253900000043,79.48730499999965,82.94873000000007,-25.769286999999622,112.69238299999961,165.51269500000035,77.69238299999961,128.58984400000008,135.6411130000006,-44.35888699999987
298,26.794922000000042,145.2563479999999,658.3334960000002,-132.3076170000004,170.6411130000006,79.23095699999976,79.61523400000078,-28.205077999999958,111.15380900000036,165.12841800000024,74.10253900000043,126.9228520000006,138.3334960000002,-42.435790999999426
299,26.666503999999804,155.89746099999957,655.6411130000006,-131.66674799999964,177.82031300000017,81.53857400000015,78.3334960000002,-24.8718259999996,114.23095699999976,172.17968800000017,77.56396500000028,127.17968800000017,145.0,-37.69238299999961
300,29.74365200000011,161.41015599999992,656.0258789999998,-123.71801800000003,183.0771479999994,83.0771479999994,79.10253900000043,-20.38452099999995,117.43603499999972,180.0,85.25634799999989,128.0771479999994,148.58984400000008,-34.10253899999998
301,27.69238299999961,154.23095699999976,654.3588869999994,-117.30761700000039,180.76904300000024,80.38476599999922,79.23095699999976,-21.538574000000153,114.87158199999976,180.2563479999999,89.48730499999965,127.43603499999972,142.6923829999996,-36.53857400000015
302,13.461425999999847,135.76904300000024,647.5639650000003,-121.02563499999997,171.15380900000036,73.9741210000002,76.15380900000036,-31.28198199999997,103.9741210000002,168.46142599999985,84.74365200000011,123.9741210000002,127.05126999999993,-45.51293900000019
303,-9.487060999999812,116.41015599999992,636.9228520000006,-135.0,160.76904300000024,68.3334960000002,70.12841800000024,-45.38452099999995,88.7177729999994,148.7177729999994,72.94873000000007,118.9741210000002,109.23095699999976,-56.79492200000004
304,-28.205077999999958,107.69238299999961,627.3076170000004,-149.10253899999998,157.82031300000017,68.3334960000002,64.61523400000078,-55.64111300000013,77.43603499999972,131.79492200000004,62.17968800000017,115.38476599999922,98.46142599999985,-63.974365000000034
305,-29.358886999999868,113.58984400000008,622.5639650000003,-151.66674799999964,165.0,74.61523400000078,63.589844000000085,-56.025634999999966,76.79492200000004,127.17968800000017,59.74365200000011,115.38476599999922,99.87158199999976,-63.58984399999963
306,-10.641113000000132,127.43603499999972,622.5639650000003,-139.4870609999998,177.56396500000028,83.3334960000002,68.3334960000002,-47.30761700000039,86.2822270000006,135.6411130000006,65.89746099999957,118.9741210000002,110.25634799999989,-57.82055700000001
307,15.128418000000238,138.20507799999996,623.4614259999998,-121.41015600000037,186.0258789999998,89.35888699999941,75.12841800000024,-36.79492200000004,99.23095699999976,148.58984400000008,73.9741210000002,123.58984400000008,120.64111300000059,-52.564209000000574
308,28.974121000000196,138.3334960000002,620.8974609999996,-110.51293900000019,184.48730499999965,90.12841800000024,78.7177729999994,-31.794922000000042,106.53857400000015,155.12841800000024,76.15380900000036,126.0258789999998,123.58984400000008,-51.92309599999999
309,21.282227000000603,128.7177729999994,614.3588869999994,-114.61547900000005,173.46142599999985,87.30761700000039,76.6665039999998,-34.23071300000038,103.46142599999985,150.38476599999922,70.25634799999989,124.23095699999976,118.58984400000008,-56.28198199999997
310,-1.6665039999998044,117.05126999999993,606.5385740000002,-130.2563479999999,157.82031300000017,84.35888699999941,71.6665039999998,-39.35888699999987,93.0771479999994,138.9741210000002,60.897460999999566,119.61523400000078,110.12841800000024,-62.948729999999614
311,-23.205077999999958,111.79492200000004,601.1538090000004,-146.66674799999964,143.7177729999994,83.20507799999996,68.0771479999994,-41.025634999999966,83.7177729999994,130.76904300000024,55.76904300000024,115.76904300000024,103.84619099999964,-67.82055700000001
312,-30.25634799999989,116.2822270000006,599.8715819999998,-154.10253899999998,135.2563479999999,83.58984400000008,68.3334960000002,-36.79492200000004,81.9228520000006,131.41015599999992,58.974121000000196,115.0,101.15380900000036,-68.97436500000003
313,-24.10253899999998,125.0,599.6152340000008,-152.0512700000004,133.20507799999996,83.3334960000002,69.48730499999965,-31.538574000000153,86.2822270000006,137.43603499999972,65.38476599999922,116.41015599999992,99.10253900000043,-67.82055700000001
314,-17.051270000000386,127.94873000000007,596.1538090000004,-147.9487299999996,135.6411130000006,81.0258789999998,66.6665039999998,-33.07690400000001,90.25634799999989,140.51269500000035,64.74365200000011,116.6665039999998,93.84619099999964,-68.20507799999996
315,-19.358886999999868,121.0258789999998,587.9487300000001,-147.3076170000004,141.15380900000036,78.0771479999994,59.48730499999965,-43.58984399999963,89.10253900000043,136.2822270000006,53.46142599999985,114.74365200000011,86.6665039999998,-71.41015600000037
316,-29.358886999999868,110.51269500000035,579.2309569999998,-148.97436500000003,150.38476599999922,77.56396500000028,53.0771479999994,-55.64111300000013,85.0,130.2563479999999,40.51269500000035,112.94873000000007,83.58984400000008,-73.71801800000003
317,-37.17944299999999,107.17968800000017,575.0,-146.53857400000015,163.84619099999964,80.64111300000059,53.974121000000196,-58.58984399999963,84.61523400000078,131.0258789999998,40.76904300000024,114.10253900000043,90.89746099999957,-69.74365200000011
318,-35.76928699999962,114.87158199999976,576.1538090000004,-136.66674799999964,177.94873000000007,85.51269500000035,62.43603499999972,-48.846190999999635,90.64111300000059,141.0258789999998,59.61523400000078,117.94873000000007,107.30761700000039,-59.10253899999998
319,-26.538574000000153,127.56396500000028,578.8461909999996,-122.43579099999943,186.41015599999992,88.58984400000008,72.69238299999961,-32.564209000000574,100.25634799999989,153.58984400000008,86.79492200000004,121.15380900000036,123.84619099999964,-47.564209000000574
320,-16.538574000000153,135.0,577.3076170000004,-111.53857400000015,184.61523400000078,88.20507799999996,78.20507799999996,-20.512939000000188,107.30761700000039,158.7177729999994,104.61523400000078,121.15380900000036,130.51269500000035,-42.69238299999961
321,-10.897461000000021,133.20507799999996,569.6152340000008,-110.0,173.3334960000002,85.64111300000059,76.6665039999998,-19.230713000000378,108.46142599999985,151.79492200000004,102.94873000000007,118.20507799999996,124.48730499999965,-47.82055700000001
322,-10.0,126.79492200000004,558.4614259999998,-118.46142599999985,158.46142599999985,83.20507799999996,71.53857400000015,-26.153809000000365,104.48730499999965,137.6923829999996,86.15380900000036,115.38476599999922,110.76904300000024,-59.23071300000038
323,-11.666747999999643,123.20507799999996,548.205078,-130.38452099999995,147.82031300000017,81.79492200000004,67.56396500000028,-33.974365000000034,99.61523400000078,126.0258789999998,67.82031300000017,115.12841800000024,98.84619099999964,-68.97436500000003
324,-14.358886999999868,125.25634799999989,542.5639650000003,-136.28198199999997,146.9228520000006,81.0258789999998,67.56396500000028,-36.28198199999997,97.43603499999972,125.0,60.64111300000059,117.94873000000007,95.51269500000035,-70.38452099999995
325,-18.205077999999958,130.51269500000035,541.9228520000006,-131.41015600000037,155.0,80.89746099999957,70.51269500000035,-31.923095999999987,98.84619099999964,135.12841800000024,67.69238299999961,121.41015599999992,101.79492200000004,-62.948729999999614
326,-22.435790999999426,134.3588869999994,543.9741210000002,-118.84619099999964,165.6411130000006,81.53857400000015,73.0771479999994,-25.0,102.05126999999993,149.48730499999965,82.05126999999993,123.0771479999994,112.56396500000028,-51.79492200000004
327,-25.1281740000004,135.38476599999922,544.7436520000001,-107.05127000000039,170.2563479999999,82.82031300000017,72.94873000000007,-20.641113000000132,104.48730499999965,159.10253900000043,93.46142599999985,122.17968800000017,121.2822270000006,-43.71801800000003
328,-23.71801800000003,134.10253900000043,541.6665039999998,-103.33325200000036,164.10253900000043,83.3334960000002,69.35888699999941,-21.794922000000042,104.23095699999976,158.9741210000002,95.64111300000059,119.74365200000011,123.46142599999985,-42.17944299999999
329,-19.487060999999812,131.0258789999998,534.8715819999998,-108.58984399999963,148.7177729999994,81.0258789999998,63.7177729999994,-28.205077999999958,100.25634799999989,150.76904300000024,89.10253900000043,117.56396500000028,118.46142599999985,-46.53857400000015
330,-17.564209000000574,126.2822270000006,526.9228520000006,-117.69238299999961,131.9228520000006,75.51269500000035,57.94873000000007,-37.435790999999426,92.69238299999961,139.87158199999976,78.84619099999964,116.53857400000015,108.9741210000002,-52.948729999999614
331,-22.051270000000386,121.41015599999992,520.7690430000002,-123.33325200000036,123.20507799999996,69.61523400000078,53.46142599999985,-45.38452099999995,84.10253900000043,131.15380900000036,70.89746099999957,116.15380900000036,99.35888699999941,-57.051270000000386
332,-31.41015600000037,119.23095699999976,517.4360349999997,-122.30761700000039,126.2822270000006,67.69238299999961,51.79492200000004,-47.564209000000574,77.94873000000007,126.53857400000015,68.84619099999964,115.89746099999957,93.46142599999985,-56.153809000000365
333,-38.20507799999996,122.05126999999993,515.5126950000003,-116.79492200000004,137.3076170000004,71.6665039999998,54.48730499999965,-41.79492200000004,77.30761700000039,125.0,72.56396500000028,115.64111300000059,93.58984400000008,-50.25634799999989
334,-35.64111300000013,130.38476599999922,512.8203130000002,-111.15380900000036,148.58984400000008,79.74365200000011,61.53857400000015,-30.0,83.58984400000008,126.15380900000036,80.12841800000024,116.6665039999998,99.74365200000011,-41.41015600000037
335,-23.71801800000003,141.2822270000006,509.23095699999976,-107.56420900000057,155.76904300000024,87.30761700000039,71.15380900000036,-16.666747999999643,95.12841800000024,130.76904300000024,88.46142599999985,118.84619099999964,109.61523400000078,-33.974365000000034
336,-10.0,149.23095699999976,506.15380900000036,-105.1281740000004,158.9741210000002,90.64111300000059,78.9741210000002,-7.948729999999614,106.2822270000006,138.7177729999994,94.35888699999941,120.89746099999957,118.20507799999996,-32.17944299999999
337,-4.358886999999868,148.3334960000002,503.9741210000002,-103.20507799999996,159.61523400000078,88.58984400000008,81.2822270000006,-7.948729999999614,110.38476599999922,146.15380900000036,94.87158199999976,121.0258789999998,120.38476599999922,-38.20507799999996
338,-10.512939000000188,137.3076170000004,501.15380900000036,-102.56420900000057,157.56396500000028,83.7177729999994,77.43603499999972,-16.025634999999966,104.23095699999976,147.43603499999972,88.9741210000002,119.23095699999976,114.35888699999941,-49.10253899999998
339,-22.051270000000386,123.7177729999994,496.6665039999998,-102.82055700000001,153.58984400000008,80.25634799999989,71.53857400000015,-24.74365200000011,93.3334960000002,141.2822270000006,80.64111300000059,117.43603499999972,105.0,-56.41015600000037
340,-27.051270000000386,119.74365200000011,491.6665039999998,-100.89746100000002,150.89746099999957,81.15380900000036,69.48730499999965,-24.358886999999868,88.84619099999964,134.23095699999976,77.94873000000007,118.0771479999994,101.53857400000015,-52.051270000000386
341,-19.358886999999868,130.76904300000024,488.46142599999985,-94.23071300000038,152.43603499999972,85.64111300000059,74.35888699999941,-11.538574000000153,98.0771479999994,135.6411130000006,86.2822270000006,121.79492200000004,110.51269500000035,-35.38452099999995
342,-5.256347999999889,148.58984400000008,487.94873000000007,-85.1281740000004,156.41015599999992,89.23095699999976,82.56396500000028,5.769043000000238,116.0258789999998,147.56396500000028,101.9228520000006,126.15380900000036,128.0771479999994,-17.051270000000386
343,1.7949220000000423,156.41015599999992,487.5639650000003,-81.28198199999997,156.2822270000006,87.30761700000039,86.79492200000004,13.333496000000196,127.69238299999961,160.38476599999922,112.82031300000017,127.30761700000039,140.38476599999922,-11.666747999999643
344,-7.435790999999426,143.3334960000002,484.3588869999994,-89.8718259999996,147.05126999999993,79.23095699999976,81.53857400000015,3.077147999999397,120.51269500000035,161.0258789999998,108.84619099999964,123.46142599999985,134.48730499999965,-25.89746100000002
345,-28.58984399999963,115.38476599999922,477.3076170000004,-108.97436500000003,130.76904300000024,70.0,68.84619099999964,-19.61547900000005,96.41015599999992,145.12841800000024,90.51269500000035,116.53857400000015,110.0,-51.025634999999966
346,-46.28198199999997,91.9228520000006,469.10253900000043,-127.05127000000039,117.17968800000017,66.15380900000036,57.17968800000017,-38.20507799999996,71.41015599999992,122.17968800000017,70.12841800000024,110.89746099999957,81.2822270000006,-68.97436500000003
347,-46.025634999999966,90.64111300000059,463.9741210000002,-130.2563479999999,117.94873000000007,69.87158199999976,55.51269500000035,-38.33325200000036,64.35888699999941,109.48730499999965,62.82031300000017,110.12841800000024,68.20507799999996,-66.15380900000036
348,-25.89746100000002,112.94873000000007,465.0,-113.46142599999985,137.43603499999972,77.82031300000017,66.0258789999998,-17.69238299999961,82.17968800000017,118.3334960000002,76.0258789999998,114.61523400000078,81.2822270000006,-42.82055700000001
349,1.6665039999998044,143.58984400000008,470.51269500000035,-86.28198199999997,167.17968800000017,83.84619099999964,82.17968800000017,10.897460999999566,113.9741210000002,143.9741210000002,102.82031300000017,120.89746099999957,112.56396500000028,-14.102538999999979
350,18.461425999999847,161.79492200000004,474.87158199999976,-66.41015600000037,189.23095699999976,83.7177729999994,93.58984400000008,29.230956999999762,138.3334960000002,167.56396500000028,126.0258789999998,124.87158199999976,140.51269500000035,1.5385740000001533
351,14.358886999999413,157.05126999999993,471.9228520000006,-66.15380900000036,188.58984400000008,78.20507799999996,93.0771479999994,26.666503999999804,139.3588869999994,170.76904300000024,130.2563479999999,124.10253900000043,145.89746099999957,-4.230713000000378
352,-5.256347999999889,135.76904300000024,460.3847659999992,-82.56420900000057,166.15380900000036,72.56396500000028,82.94873000000007,7.56396500000028,118.84619099999964,151.2822270000006,113.9741210000002,120.0,126.79492200000004,-24.10253899999998
353,-23.974365000000034,115.76904300000024,445.51269500000035,-99.8718259999996,138.7177729999994,72.05126999999993,72.69238299999961,-12.179442999999992,94.23095699999976,126.15380900000036,91.41015599999992,115.76904300000024,100.51269500000035,-40.38452099999995
354,-27.564209000000574,112.17968800000017,435.6411130000006,-103.71801800000003,126.53857400000015,77.69238299999961,71.0258789999998,-17.435790999999426,85.76904300000024,116.9228520000006,80.12841800000024,114.74365200000011,88.84619099999964,-40.38452099999995
355,-15.769286999999622,126.0258789999998,435.12841800000024,-92.94872999999961,135.76904300000024,85.38476599999922,78.9741210000002,-5.0,99.48730499999965,131.0258789999998,86.6665039999998,117.17968800000017,100.25634799999989,-25.25634799999989
356,-1.5385740000001533,144.10253900000043,440.3847659999992,-79.74365200000011,154.10253900000043,88.7177729999994,89.35888699999941,13.846190999999635,123.20507799999996,156.0258789999998,102.17968800000017,120.64111300000059,122.17968800000017,-8.58984399999963
357,-0.12841800000023795,150.12841800000024,443.0771479999994,-79.10253899999998,162.43603499999972,84.48730499999965,92.82031300000017,22.94873000000007,136.15380900000036,170.12841800000024,110.89746099999957,122.56396500000028,133.46142599999985,-3.846190999999635
358,-15.256347999999889,138.3334960000002,436.79492200000004,-94.74365200000011,151.53857400000015,75.25634799999989,85.64111300000059,14.358886999999413,126.79492200000004,160.51269500000035,103.46142599999985,121.41015599999992,121.9228520000006,-13.974365000000034
359,-35.89746100000002,117.94873000000007,422.94873000000007,-115.64111300000013,130.76904300000024,66.9228520000006,72.30761700000039,-5.38452099999995,101.79492200000004,133.20507799999996,84.74365200000011,117.94873000000007,95.0,-30.38452099999995
360,-44.35888699999987,105.64111300000059,409.6152340000008,-124.61547900000005,119.35888699999941,63.589844000000085,61.9228520000006,-20.641113000000132,79.87158199999976,108.46142599999985,69.61523400000078,114.10253900000043,72.82031300000017,-40.0
361,-30.89746100000002,112.17968800000017,404.3588869999994,-113.20507799999996,129.87158199999976,65.51269500000035,61.410155999999915,-20.0,76.53857400000015,103.3334960000002,70.25634799999989,112.94873000000007,71.79492200000004,-35.76928699999962
362,-2.5639650000002803,134.61523400000078,408.46142599999985,-88.58984399999963,156.79492200000004,69.35888699999941,69.87158199999976,-4.487060999999812,92.30761700000039,119.48730499999965,86.6665039999998,115.38476599999922,92.05126999999993,-21.538574000000153
363,21.538574000000153,158.0771479999994,415.76904300000024,-67.17944299999999,180.89746099999957,71.79492200000004,80.51269500000035,13.461425999999847,113.9741210000002,143.7177729999994,106.2822270000006,119.87158199999976,117.30761700000039,-7.692382999999609
364,24.102539000000434,166.9228520000006,418.5898440000001,-61.53857400000015,183.0771479999994,70.89746099999957,85.64111300000059,20.25634799999989,125.12841800000024,159.3588869999994,115.25634799999989,122.43603499999972,127.05126999999993,-4.230713000000378
365,2.0512699999999313,155.2563479999999,412.82031300000017,-72.94872999999961,160.51269500000035,67.82031300000017,81.53857400000015,10.769043000000238,117.94873000000007,157.82031300000017,108.3334960000002,120.51269500000035,111.6665039999998,-14.230713000000378
366,-30.769286999999622,130.51269500000035,401.2822270000006,-91.28198199999997,128.84619099999964,64.48730499999965,71.15380900000036,-7.820557000000008,98.3334960000002,142.3076170000004,92.05126999999993,115.25634799999989,79.35888699999941,-31.41015600000037
367,-52.30761700000039,110.38476599999922,391.79492200000004,-102.43579099999943,113.20507799999996,63.846190999999635,62.05126999999993,-20.512939000000188,82.17968800000017,124.10253900000043,79.74365200000011,111.15380900000036,52.30761700000039,-43.46142599999985
368,-46.92309599999999,110.89746099999957,391.6665039999998,-95.76928699999962,128.84619099999964,68.0771479999994,62.17968800000017,-14.230713000000378,85.12841800000024,116.6665039999998,82.56396500000028,112.30761700000039,50.76904300000024,-39.48706099999981
369,-16.923095999999987,135.12841800000024,401.53857400000015,-71.41015600000037,168.84619099999964,76.53857400000015,73.7177729999994,12.051269999999931,110.51269500000035,127.05126999999993,101.0258789999998,119.61523400000078,78.0771479999994,-18.205077999999958
370,18.077147999999397,167.82031300000017,413.9741210000002,-42.564209000000574,206.41015599999992,84.61523400000078,91.2822270000006,44.35888699999941,144.87158199999976,149.61523400000078,123.7177729999994,129.10253900000043,116.9228520000006,8.589844000000085
371,34.35888699999941,186.53857400000015,418.46142599999985,-27.820557000000008,213.3334960000002,85.89746099999957,104.10253900000043,62.43603499999972,166.15380900000036,169.3588869999994,135.2563479999999,134.61523400000078,142.3076170000004,23.077147999999397
372,22.30761700000039,178.84619099999964,410.12841800000024,-36.53857400000015,183.46142599999985,78.46142599999985,103.84619099999964,54.61523400000078,160.89746099999957,173.3334960000002,128.0771479999994,132.56396500000028,139.87158199999976,15.384765999999217
373,-6.538574000000153,152.43603499999972,393.20507799999996,-60.38452099999995,137.94873000000007,66.9228520000006,91.15380900000036,27.05126999999993,134.48730499999965,160.6411130000006,108.84619099999964,124.10253900000043,117.05126999999993,-8.076904000000013
374,-29.10253899999998,127.94873000000007,378.0771479999994,-79.8718259999996,108.58984400000008,58.20507799999996,74.48730499999965,-0.512695000000349,106.6665039999998,142.3076170000004,91.79492200000004,115.0,94.48730499999965,-30.0
375,-29.358886999999868,122.17968800000017,372.3076170000004,-81.02563499999997,113.0771479999994,56.2822270000006,64.35888699999941,-11.28198199999997,94.87158199999976,131.6665039999998,87.17968800000017,110.64111300000059,89.10253900000043,-36.025634999999966
376,-10.38452099999995,134.61523400000078,374.7436520000001,-66.79492200000004,141.53857400000015,59.61523400000078,64.74365200000011,-2.6923829999996087,101.2822270000006,133.3334960000002,93.84619099999964,112.43603499999972,100.64111300000059,-25.89746100000002
377,9.743652000000111,149.87158199999976,378.46142599999985,-51.92309599999999,166.2822270000006,63.46142599999985,71.53857400000015,12.56396500000028,114.10253900000043,140.6411130000006,102.94873000000007,116.9228520000006,114.23095699999976,-11.923095999999987
378,14.230956999999762,152.3076170000004,376.79492200000004,-48.33325200000036,166.0258789999998,63.846190999999635,77.17968800000017,19.230956999999762,118.84619099999964,142.94873000000007,106.41015599999992,119.10253900000043,115.12841800000024,-7.435790999999426
379,0.769043000000238,140.38476599999922,369.7436520000001,-54.74365200000011,143.58984400000008,61.2822270000006,77.30761700000039,13.077147999999397,111.79492200000004,136.79492200000004,103.58984400000008,117.82031300000017,102.30761700000039,-14.487060999999812
380,-17.30761700000039,127.05126999999993,362.3076170000004,-61.025634999999966,121.79492200000004,59.61523400000078,74.10253900000043,1.9228520000006029,100.64111300000059,129.10253900000043,100.51269500000035,115.64111300000059,88.0771479999994,-23.974365000000034
381,-24.61547900000005,126.2822270000006,358.46142599999985,-60.0,122.30761700000039,61.666503999999804,71.53857400000015,-3.4614259999998467,95.89746099999957,128.84619099999964,102.43603499999972,115.76904300000024,85.64111300000059,-25.0
382,-16.153809000000365,139.61523400000078,358.0771479999994,-54.48706099999981,146.2822270000006,66.6665039999998,72.30761700000039,0.512695000000349,101.0258789999998,137.05126999999993,108.46142599999985,118.0771479999994,97.30761700000039,-15.641113000000132
383,-0.256347999999889,155.89746099999957,358.9741210000002,-51.53857400000015,175.6411130000006,71.15380900000036,76.2822270000006,8.974121000000196,111.2822270000006,146.41015599999992,114.23095699999976,120.0,113.3334960000002,-2.6923829999996087
