,EEG.AF3,EEG.F7,EEG.F3,EEG.FC5,EEG.T7,EEG.P7,EEG.O1,EEG.O2,EEG.P8,EEG.T8,EEG.FC6,EEG.F4,EEG.F8,EEG.AF4
0,85.76904300000024,115.89746099999957,99.10253900000043,221.41015599999992,114.61523400000078,109.10253900000043,112.82031300000017,110.25634799999989,113.84619099999964,115.38476599999922,116.79492200000004,99.48730499999965,85.76904300000024,113.84619099999964
1,81.6665039999998,111.53857400000015,93.9741210000002,211.53857400000015,106.79492200000004,107.94873000000007,113.0771479999994,105.38476599999922,107.94873000000007,110.38476599999922,111.9228520000006,97.05126999999993,82.69238299999961,112.17968800000017
2,84.87158199999976,109.10253900000043,91.9228520000006,206.41015599999992,103.20507799999996,107.43603499999972,115.12841800000024,101.53857400000015,103.0771479999994,107.69238299999961,110.12841800000024,97.17968800000017,84.35888699999941,113.0771479999994
3,94.35888699999941,110.38476599999922,94.10253900000043,207.56396500000028,106.79492200000004,107.94873000000007,117.17968800000017,100.76904300000024,101.15380900000036,108.0771479999994,112.56396500000028,99.48730499999965,90.76904300000024,116.2822270000006
4,103.58984400000008,114.61523400000078,97.94873000000007,211.79492200000004,114.23095699999976,109.23095699999976,118.0771479999994,102.43603499999972,101.2822270000006,108.46142599999985,116.2822270000006,101.53857400000015,98.46142599999985,119.61523400000078
5,105.12841800000024,118.46142599999985,99.35888699999941,214.61523400000078,119.10253900000043,110.64111300000059,117.43603499999972,103.0771479999994,100.64111300000059,105.51269500000035,116.9228520000006,100.76904300000024,102.43603499999972,120.51269500000035
6,96.79492200000004,118.84619099999964,96.41015599999992,213.46142599999985,116.53857400000015,112.05126999999993,115.25634799999989,100.64111300000059,97.43603499999972,99.61523400000078,112.30761700000039,96.53857400000015,100.25634799999989,118.0771479999994
7,84.35888699999941,115.64111300000059,91.15380900000036,209.87158199999976,108.3334960000002,113.46142599999985,112.94873000000007,96.53857400000015,93.3334960000002,94.35888699999941,104.48730499999965,91.9228520000006,94.48730499999965,113.7177729999994
8,77.56396500000028,111.9228520000006,88.0771479999994,208.46142599999985,101.15380900000036,114.74365200000011,111.9228520000006,95.12841800000024,92.69238299999961,94.10253900000043,99.35888699999941,90.64111300000059,91.2822270000006,110.76904300000024
9,83.58984400000008,111.79492200000004,90.89746099999957,212.17968800000017,102.17968800000017,116.0258789999998,113.58984400000008,99.23095699999976,97.94873000000007,100.64111300000059,102.69238299999961,94.23095699999976,95.25634799999989,112.43603499999972
10,100.12841800000024,117.56396500000028,98.84619099999964,220.38476599999922,111.79492200000004,116.6665039999998,117.56396500000028,108.0771479999994,107.69238299999961,111.41015599999992,114.61523400000078,101.15380900000036,105.76904300000024,118.7177729999994
11,117.17968800000017,126.6665039999998,107.30761700000039,228.9741210000002,123.0771479999994,116.6665039999998,121.9228520000006,117.43603499999972,116.79492200000004,120.89746099999957,129.23095699999976,107.17968800000017,117.56396500000028,126.0258789999998
12,124.23095699999976,133.58984400000008,111.0258789999998,233.3334960000002,126.53857400000015,116.15380900000036,123.7177729999994,122.94873000000007,120.38476599999922,123.9741210000002,137.94873000000007,109.23095699999976,124.35888699999941,129.23095699999976
13,118.0771479999994,133.9741210000002,108.0771479999994,231.9228520000006,118.58984400000008,115.25634799999989,122.17968800000017,122.69238299999961,117.69238299999961,120.0,136.41015599999992,106.79492200000004,123.7177729999994,126.6665039999998
14,105.38476599999922,127.94873000000007,101.9228520000006,226.6665039999998,104.35888699999941,114.61523400000078,118.58984400000008,118.58984400000008,113.0771479999994,112.82031300000017,127.05126999999993,102.30761700000039,117.94873000000007,121.15380900000036
15,96.53857400000015,120.51269500000035,98.20507799999996,221.53857400000015,94.23095699999976,114.87158199999976,115.64111300000059,114.48730499999965,111.53857400000015,108.58984400000008,117.94873000000007,98.3334960000002,112.82031300000017,117.56396500000028
16,97.17968800000017,117.43603499999972,100.0,219.7436520000001,95.64111300000059,116.53857400000015,115.0,113.58984400000008,115.25634799999989,111.41015599999992,116.2822270000006,96.79492200000004,112.69238299999961,117.94873000000007
17,105.0,120.76904300000024,105.89746099999957,221.41015599999992,107.56396500000028,118.3334960000002,116.6665039999998,116.2822270000006,121.41015599999992,120.51269500000035,123.46142599999985,98.0771479999994,119.10253900000043,121.2822270000006
18,113.84619099999964,128.46142599999985,111.79492200000004,224.23095699999976,122.82031300000017,118.58984400000008,118.9741210000002,120.76904300000024,126.0258789999998,131.2822270000006,135.51269500000035,101.6665039999998,130.2563479999999,125.64111300000059
19,119.87158199999976,136.6665039999998,115.0,226.2822270000006,132.3076170000004,117.17968800000017,121.0258789999998,124.35888699999941,127.05126999999993,138.58984400000008,146.79492200000004,106.0258789999998,142.94873000000007,130.0
20,122.82031300000017,142.43603499999972,115.89746099999957,226.6665039999998,131.0258789999998,115.25634799999989,122.17968800000017,125.64111300000059,125.12841800000024,139.48730499999965,153.0771479999994,108.9741210000002,154.23095699999976,134.10253900000043
21,123.84619099999964,145.12841800000024,115.51269500000035,225.76904300000024,120.51269500000035,114.48730499999965,122.17968800000017,124.48730499999965,122.43603499999972,134.3588869999994,153.0771479999994,109.35888699999941,161.15380900000036,136.79492200000004
22,124.10253900000043,145.51269500000035,114.35888699999941,224.23095699999976,106.6665039999998,114.35888699999941,120.89746099999957,121.6665039999998,120.38476599999922,126.41015599999992,147.94873000000007,107.30761700000039,162.94873000000007,137.43603499999972
23,126.0258789999998,145.38476599999922,112.17968800000017,223.0771479999994,96.9228520000006,114.35888699999941,118.3334960000002,117.56396500000028,118.46142599999985,118.84619099999964,141.6665039999998,104.87158199999976,161.79492200000004,137.17968800000017
24,132.82031300000017,147.05126999999993,110.89746099999957,223.84619099999964,96.0258789999998,113.9741210000002,115.25634799999989,113.3334960000002,115.38476599999922,114.23095699999976,139.3588869999994,103.9741210000002,163.46142599999985,139.10253900000043
25,146.6665039999998,153.20507799999996,112.82031300000017,228.46142599999985,103.9741210000002,113.7177729999994,113.0771479999994,110.89746099999957,111.6665039999998,113.20507799999996,144.23095699999976,106.41015599999992,173.3334960000002,145.0
26,164.61523400000078,165.6411130000006,118.7177729999994,237.17968800000017,116.0258789999998,114.35888699999941,112.82031300000017,111.9228520000006,110.25634799999989,115.51269500000035,155.76904300000024,111.79492200000004,192.6923829999996,154.10253900000043
27,181.53857400000015,182.17968800000017,126.79492200000004,247.6923829999996,124.87158199999976,115.64111300000059,115.0,116.41015599999992,113.3334960000002,119.48730499999965,168.7177729999994,117.94873000000007,217.17968800000017,163.7177729999994
28,194.3588869999994,196.79492200000004,134.48730499999965,256.79492200000004,125.38476599999922,116.41015599999992,118.20507799999996,121.41015599999992,119.87158199999976,123.0771479999994,178.0771479999994,122.56396500000028,239.23095699999976,172.6923829999996
29,206.53857400000015,202.43603499999972,141.0258789999998,262.82031300000017,117.69238299999961,115.89746099999957,120.89746099999957,122.94873000000007,125.89746099999957,125.38476599999922,182.94873000000007,125.64111300000059,253.3334960000002,182.43603499999972
30,224.48730499999965,199.48730499999965,147.56396500000028,267.82031300000017,106.79492200000004,114.61523400000078,121.15380900000036,119.61523400000078,127.05126999999993,125.64111300000059,186.6665039999998,128.46142599999985,259.6152340000008,195.0
31,249.48730499999965,197.6923829999996,155.0,275.51269500000035,99.23095699999976,113.46142599999985,118.3334960000002,112.30761700000039,121.41015599999992,123.84619099999964,193.46142599999985,132.17968800000017,263.5898440000001,209.87158199999976
32,276.2822270000006,209.87158199999976,163.46142599999985,287.6923829999996,98.84619099999964,113.7177729999994,112.82031300000017,104.10253900000043,111.0258789999998,120.38476599999922,203.9741210000002,135.76904300000024,273.0771479999994,224.3588869999994
33,297.5639650000003,239.7436520000001,171.79492200000004,302.94873000000007,105.51269500000035,114.74365200000011,106.53857400000015,97.82031300000017,100.76904300000024,116.53857400000015,214.7436520000001,138.20507799999996,292.6923829999996,237.82031300000017
34,311.0258789999998,276.0258789999998,179.3588869999994,317.94873000000007,114.74365200000011,115.38476599999922,101.79492200000004,95.64111300000059,95.0,114.23095699999976,221.53857400000015,139.3588869999994,318.9741210000002,253.46142599999985
35,321.2822270000006,301.15380900000036,186.53857400000015,330.12841800000024,121.15380900000036,113.84619099999964,100.64111300000059,97.05126999999993,95.38476599999922,114.10253900000043,223.0771479999994,140.76904300000024,342.17968800000017,276.15380900000036
36,335.51269500000035,305.3847659999992,194.3588869999994,340.12841800000024,122.17968800000017,109.87158199999976,102.94873000000007,99.74365200000011,99.48730499999965,115.25634799999989,221.79492200000004,143.58984400000008,353.5898440000001,307.4360349999997
37,356.2822270000006,296.53857400000015,204.10253900000043,351.0258789999998,118.9741210000002,104.74365200000011,106.79492200000004,100.76904300000024,103.3334960000002,116.15380900000036,221.9228520000006,148.0771479999994,353.84619099999964,341.9228520000006
38,378.3334960000002,294.3588869999994,215.51269500000035,365.89746099999957,114.87158199999976,100.76904300000024,109.87158199999976,98.9741210000002,103.84619099999964,115.89746099999957,226.53857400000015,152.6923829999996,352.94873000000007,369.3588869999994
39,392.3076170000004,313.9741210000002,226.41015599999992,384.3588869999994,112.82031300000017,100.0,111.0258789999998,95.51269500000035,101.15380900000036,114.87158199999976,235.2563479999999,155.6411130000006,362.05126999999993,380.89746099999957
40,393.5898440000001,351.2822270000006,234.23095699999976,402.94873000000007,114.10253900000043,102.05126999999993,110.51269500000035,92.94873000000007,98.58984400000008,114.74365200000011,244.48730499999965,156.0258789999998,382.05126999999993,376.0258789999998
41,387.17968800000017,384.7436520000001,238.0771479999994,417.6923829999996,117.82031300000017,104.48730499999965,108.46142599999985,92.30761700000039,98.84619099999964,115.76904300000024,249.87158199999976,155.38476599999922,402.82031300000017,364.10253900000043
42,383.5898440000001,392.05126999999993,239.3588869999994,427.6923829999996,120.76904300000024,105.12841800000024,105.12841800000024,91.53857400000015,101.15380900000036,115.38476599999922,248.3334960000002,155.12841800000024,410.0,356.9228520000006
43,386.9228520000006,369.10253900000043,239.87158199999976,435.12841800000024,119.74365200000011,103.0771479999994,100.89746099999957,88.3334960000002,101.79492200000004,110.76904300000024,239.48730499999965,155.0,397.5639650000003,358.5898440000001
44,391.2822270000006,335.12841800000024,240.0,442.82031300000017,114.48730499999965,99.61523400000078,97.56396500000028,83.0771479999994,98.46142599999985,102.43603499999972,226.6665039999998,153.58984400000008,373.7177729999994,362.6923829999996
45,388.0771479999994,319.10253900000043,240.0,453.0771479999994,109.48730499999965,97.43603499999972,97.43603499999972,79.35888699999941,93.3334960000002,95.51269500000035,214.87158199999976,150.6411130000006,356.2822270000006,361.15380900000036
46,378.5898440000001,336.53857400000015,241.41015599999992,467.17968800000017,110.0,97.69238299999961,101.6665039999998,81.41015599999992,91.15380900000036,95.12841800000024,208.7177729999994,148.20507799999996,360.51269500000035,353.20507799999996
47,374.3588869999994,378.20507799999996,246.2822270000006,485.6411130000006,118.0771479999994,99.87158199999976,109.23095699999976,89.61523400000078,94.87158199999976,101.79492200000004,209.61523400000078,148.20507799999996,390.3847659999992,347.3076170000004
48,387.5639650000003,418.20507799999996,255.89746099999957,507.17968800000017,131.41015599999992,101.9228520000006,116.41015599999992,100.0,102.43603499999972,111.0258789999998,215.89746099999957,151.41015599999992,441.4101559999999,352.17968800000017
49,420.12841800000024,436.6665039999998,268.7177729999994,529.7436520000001,144.7436520000001,102.56396500000028,120.0,107.56396500000028,109.10253900000043,116.53857400000015,224.48730499999965,156.15380900000036,510.0,368.9741210000002
50,460.76904300000024,437.05126999999993,280.6411130000006,550.7690430000002,152.94873000000007,101.79492200000004,119.23095699999976,109.10253900000043,110.89746099999957,115.12841800000024,231.53857400000015,159.7436520000001,601.2822270000006,388.84619099999964
51,492.94873000000007,441.53857400000015,287.3076170000004,567.8203130000002,153.46142599999985,100.64111300000059,115.64111300000059,104.87158199999976,106.9228520000006,107.69238299999961,233.9741210000002,159.48730499999965,726.6665039999998,400.76904300000024
52,507.82031300000017,471.4101559999999,287.3076170000004,579.2309569999998,146.79492200000004,100.0,112.30761700000039,98.7177729999994,99.61523400000078,98.9741210000002,230.76904300000024,155.51269500000035,897.6923829999996,399.3588869999994
53,511.53857400000015,530.3847659999992,282.82031300000017,586.1538090000004,136.9228520000006,100.0,110.89746099999957,94.87158199999976,94.48730499999965,94.23095699999976,224.3588869999994,150.0,1119.4873049999997,390.12841800000024
54,520.5126950000003,606.4101559999999,279.10253900000043,592.8203130000002,128.9741210000002,100.64111300000059,111.79492200000004,95.64111300000059,95.38476599999922,95.76904300000024,220.12841800000024,146.6665039999998,1390.5126950000003,384.23095699999976
55,547.1796880000002,687.9487300000001,280.89746099999957,604.4873049999997,127.05126999999993,101.2822270000006,113.20507799999996,99.74365200000011,101.9228520000006,101.79492200000004,223.20507799999996,147.43603499999972,1703.7177729999994,390.0
56,588.7177729999994,776.5385740000002,289.10253900000043,623.0771479999994,131.6665039999998,101.6665039999998,113.7177729999994,103.58984400000008,109.35888699999941,107.43603499999972,233.84619099999964,151.2822270000006,2045.256348,406.0258789999998
57,627.3076170000004,882.5639650000003,300.51269500000035,645.7690430000002,139.23095699999976,101.41015599999992,113.20507799999996,104.10253900000043,112.43603499999972,108.84619099999964,247.56396500000028,154.87158199999976,2392.5639650000003,422.17968800000017
58,644.8715819999998,1010.5126950000003,310.2563479999999,666.794922,145.12841800000024,100.89746099999957,112.69238299999961,101.6665039999998,109.35888699999941,105.25634799999989,258.9741210000002,155.51269500000035,2715.8974609999996,428.20507799999996
59,637.0512699999999,1149.743652,316.6665039999998,682.5639650000003,146.6665039999998,100.38476599999922,113.58984400000008,98.46142599999985,103.0771479999994,100.51269500000035,265.2563479999999,153.0771479999994,2988.3334959999993,422.6923829999996
60,617.9487300000001,1280.3847659999992,320.89746099999957,694.8715819999998,143.58984400000008,100.12841800000024,115.64111300000059,96.9228520000006,98.84619099999964,98.7177729999994,268.3334960000002,149.7436520000001,3196.410156,413.5898440000001
61,606.4101559999999,1389.6152340000008,325.51269500000035,708.205078,138.58984400000008,100.12841800000024,116.6665039999998,97.56396500000028,99.87158199999976,102.05126999999993,271.79492200000004,148.46142599999985,3343.7177730000003,410.0
62,610.0,1480.6411130000006,331.79492200000004,725.3847659999992,135.0,99.87158199999976,115.38476599999922,99.23095699999976,106.41015599999992,109.10253900000043,278.9741210000002,150.0,3444.743651999999,413.7177729999994
63,621.794922,1568.3334960000002,338.7177729999994,745.6411130000006,136.2822270000006,100.0,112.82031300000017,101.0258789999998,115.76904300000024,116.9228520000006,290.0,152.56396500000028,3513.205078,418.5898440000001
64,629.8715819999998,1665.7690430000002,345.51269500000035,766.5385740000002,142.43603499999972,100.76904300000024,112.43603499999972,102.82031300000017,124.10253900000043,122.69238299999961,301.6665039999998,154.3588869999994,3556.2822269999997,418.46142599999985
65,628.205078,1773.3334960000002,352.3076170000004,786.0258789999998,150.0,101.53857400000015,115.38476599999922,104.10253900000043,128.0771479999994,123.84619099999964,309.23095699999976,154.7436520000001,3574.743651999999,412.82031300000017
66,619.8715819999998,1878.3334960000002,359.10253900000043,803.3334960000002,154.48730499999965,101.15380900000036,119.61523400000078,104.10253900000043,126.41015599999992,120.0,310.6411130000006,153.9741210000002,3571.1538090000004,405.3847659999992
67,610.7690430000002,1967.4360349999997,365.6411130000006,818.3334960000002,153.9741210000002,100.25634799999989,122.30761700000039,102.69238299999961,121.41015599999992,114.10253900000043,308.84619099999964,153.46142599999985,3553.205078,400.6411130000006
68,604.4873049999997,2035.7690430000002,371.4101559999999,831.4101559999999,150.89746099999957,100.51269500000035,122.56396500000028,101.41015599999992,117.43603499999972,110.51269500000035,309.48730499999965,153.58984400000008,3533.205078,400.2563479999999
69,600.2563479999999,2089.2309569999998,375.76904300000024,842.9487300000001,148.3334960000002,103.0771479999994,121.6665039999998,102.05126999999993,118.3334960000002,111.9228520000006,315.76904300000024,154.61523400000078,3520.5126950000003,402.5639650000003
70,593.9741210000002,2138.974121,378.20507799999996,852.8203130000002,147.6923829999996,106.2822270000006,121.0258789999998,104.87158199999976,123.84619099999964,116.41015599999992,325.12841800000024,155.12841800000024,3516.6665040000007,403.84619099999964
71,581.5385740000002,2194.1025390000004,378.46142599999985,860.7690430000002,147.82031300000017,107.94873000000007,121.41015599999992,107.56396500000028,130.2563479999999,119.23095699999976,331.9228520000006,154.10253900000043,3515.8974609999996,400.76904300000024
72,564.7436520000001,2257.5639650000003,378.3334960000002,868.205078,147.94873000000007,107.17968800000017,122.69238299999961,108.20507799999996,133.84619099999964,118.0771479999994,333.5898440000001,151.53857400000015,3512.4360349999997,393.3334960000002
73,552.1796880000002,2325.384765999999,380.89746099999957,876.9228520000006,149.87158199999976,105.76904300000024,124.23095699999976,107.56396500000028,134.61523400000078,115.76904300000024,333.46142599999985,148.7177729999994,3505.769043000001,385.89746099999957
74,551.6665039999998,2389.1025390000004,388.0771479999994,888.5898440000001,156.0258789999998,106.15380900000036,125.38476599999922,107.82031300000017,133.9741210000002,117.69238299999961,337.05126999999993,148.20507799999996,3500.0,384.23095699999976
75,562.0512699999999,2441.2822270000006,398.20507799999996,901.5385740000002,166.41015599999992,109.23095699999976,126.0258789999998,110.0,133.46142599999985,125.12841800000024,346.2822270000006,151.2822270000006,3498.205078,389.7436520000001
76,572.4360349999997,2479.4873049999997,406.79492200000004,911.5385740000002,176.0258789999998,113.0771479999994,126.0258789999998,112.30761700000039,132.82031300000017,133.84619099999964,357.3076170000004,157.05126999999993,3499.1025390000004,398.5898440000001
77,572.9487300000001,2507.820313,410.51269500000035,915.2563479999999,178.7177729999994,114.87158199999976,125.38476599999922,112.82031300000017,132.05126999999993,137.43603499999972,364.87158199999976,162.6923829999996,3500.0,404.7436520000001
78,561.9228520000006,2534.743652,409.6152340000008,913.5898440000001,173.46142599999985,113.0771479999994,124.48730499999965,110.64111300000059,131.9228520000006,133.9741210000002,366.53857400000015,165.0,3499.615234000001,404.48730499999965
79,545.2563479999999,2568.974121,407.5639650000003,911.2822270000006,165.51269500000035,107.94873000000007,125.0,107.56396500000028,133.20507799999996,126.9228520000006,364.23095699999976,163.20507799999996,3498.9741209999993,397.82031300000017
80,528.3334960000002,2613.4614260000008,407.17968800000017,912.3076170000004,161.9228520000006,102.69238299999961,128.20507799999996,106.2822270000006,136.41015599999992,122.43603499999972,361.2822270000006,158.84619099999964,3498.8461909999996,387.3076170000004
81,512.0512699999999,2664.230956999999,407.82031300000017,916.2822270000006,165.6411130000006,100.51269500000035,133.0771479999994,107.43603499999972,140.0,123.9741210000002,359.87158199999976,154.23095699999976,3499.1025390000004,375.89746099999957
82,496.6665039999998,2711.6665040000007,407.6923829999996,920.2563479999999,173.0771479999994,101.9228520000006,136.0258789999998,109.10253900000043,141.2822270000006,129.23095699999976,359.87158199999976,151.2822270000006,3499.230956999999,367.3076170000004
83,487.4360349999997,2747.4360349999997,406.6665039999998,922.6923829999996,177.82031300000017,104.74365200000011,134.48730499999965,108.58984400000008,138.0771479999994,132.3076170000004,360.51269500000035,151.41015599999992,3499.1025390000004,366.4101559999999
84,492.17968800000017,2771.1538090000004,407.4360349999997,925.2563479999999,176.15380900000036,106.41015599999992,128.58984400000008,105.25634799999989,131.41015599999992,128.46142599999985,361.9228520000006,154.87158199999976,3499.3588870000003,376.0258789999998
85,510.51269500000035,2789.1025390000004,412.82031300000017,930.1284180000002,170.12841800000024,106.53857400000015,122.05126999999993,101.41015599999992,125.25634799999989,119.23095699999976,365.0,160.2563479999999,3499.743651999999,391.0258789999998
86,528.4614259999998,2806.9228519999997,420.6411130000006,935.8974609999996,166.0258789999998,107.05126999999993,118.84619099999964,100.89746099999957,124.10253900000043,111.0258789999998,370.3847659999992,164.61523400000078,3499.871581999999,398.9741210000002
87,528.7177729999994,2825.384765999999,425.76904300000024,938.5898440000001,168.46142599999985,109.61523400000078,121.0258789999998,105.12841800000024,129.10253900000043,109.74365200000011,376.2822270000006,165.0,3499.871581999999,390.12841800000024
88,506.0258789999998,2842.8203129999993,423.9741210000002,935.1284180000002,176.53857400000015,113.20507799999996,125.76904300000024,111.15380900000036,136.2822270000006,115.38476599999922,379.10253900000043,160.76904300000024,3499.615234000001,367.82031300000017
89,472.5639650000003,2858.4614260000008,416.79492200000004,926.6665039999998,184.3588869999994,115.0,128.0771479999994,113.58984400000008,140.0,122.05126999999993,376.15380900000036,154.48730499999965,3499.615234000001,346.6665039999998
90,447.94873000000007,2873.7177730000003,409.7436520000001,917.4360349999997,186.6665039999998,112.94873000000007,125.12841800000024,110.12841800000024,137.3076170000004,123.9741210000002,368.84619099999964,150.12841800000024,3499.743651999999,339.7436520000001
91,443.20507799999996,2889.743651999999,408.20507799999996,911.4101559999999,182.43603499999972,108.7177729999994,118.46142599999985,103.20507799999996,130.6411130000006,120.12841800000024,361.15380900000036,149.48730499999965,3500.256348000001,347.94873000000007
92,454.23095699999976,2905.128418000001,412.82031300000017,909.7436520000001,175.38476599999922,105.76904300000024,112.94873000000007,98.20507799999996,125.12841800000024,115.0,356.9228520000006,151.6665039999998,3500.769043000001,361.53857400000015
93,467.82031300000017,2917.4360349999997,419.3588869999994,909.6152340000008,170.38476599999922,106.6665039999998,111.9228520000006,97.69238299999961,124.10253900000043,112.56396500000028,356.6665039999998,154.23095699999976,3501.1538090000004,369.10253900000043
94,472.94873000000007,2925.769043000001,422.4360349999997,907.6923829999996,169.7436520000001,110.64111300000059,114.87158199999976,100.76904300000024,126.6665039999998,113.84619099999964,358.0771479999994,155.2563479999999,3501.1538090000004,366.9228520000006
95,466.53857400000015,2932.6923829999996,419.7436520000001,901.6665039999998,173.46142599999985,115.51269500000035,118.58984400000008,104.10253900000043,129.61523400000078,115.89746099999957,359.10253900000043,155.0,3501.1538090000004,358.84619099999964
96,452.82031300000017,2940.5126950000003,413.3334960000002,892.1796880000002,179.61523400000078,118.7177729999994,121.0258789999998,106.2822270000006,130.6411130000006,116.41015599999992,359.6152340000008,154.3588869999994,3501.794922,351.4101559999999
97,438.20507799999996,2947.94873,407.3076170000004,881.9228520000006,186.79492200000004,119.74365200000011,123.0771479999994,107.82031300000017,130.2563479999999,116.0258789999998,359.87158199999976,153.9741210000002,3503.4614260000008,347.6923829999996
98,426.2822270000006,2950.5126950000003,405.51269500000035,873.8461909999996,193.58984400000008,118.7177729999994,126.41015599999992,109.35888699999941,129.7436520000001,116.53857400000015,359.23095699999976,153.7177729999994,3504.871581999999,346.4101559999999
99,417.6923829999996,2944.230956999999,407.82031300000017,869.2309569999998,198.46142599999985,117.17968800000017,131.0258789999998,109.87158199999976,129.3588869999994,118.20507799999996,355.89746099999957,153.58984400000008,3504.615234000001,344.87158199999976
100,413.5898440000001,2928.589844,411.6665039999998,866.9228520000006,200.12841800000024,116.41015599999992,133.84619099999964,108.46142599999985,128.84619099999964,118.7177729999994,350.3847659999992,153.7177729999994,3501.410156,343.84619099999964
101,416.0258789999998,2906.9228519999997,415.12841800000024,865.2563479999999,198.0771479999994,117.30761700000039,131.2822270000006,105.25634799999989,127.82031300000017,116.9228520000006,345.89746099999957,154.61523400000078,3496.2822269999997,346.9228520000006
102,425.51269500000035,2883.8461909999996,418.20507799999996,862.6923829999996,194.48730499999965,118.58984400000008,124.35888699999941,102.30761700000039,126.53857400000015,113.46142599999985,345.76904300000024,156.2822270000006,3490.6411129999997,355.3847659999992
103,437.05126999999993,2863.205078,421.2822270000006,858.9741210000002,192.82031300000017,119.23095699999976,117.94873000000007,102.43603499999972,125.51269500000035,110.76904300000024,350.12841800000024,158.58984400000008,3484.1025390000004,365.2563479999999
104,442.05126999999993,2846.0258790000007,424.3588869999994,853.4614259999998,195.0,119.10253900000043,117.17968800000017,106.9228520000006,125.76904300000024,111.53857400000015,356.0258789999998,160.2563479999999,3474.4873049999997,369.6152340000008
105,435.3847659999992,2830.128418000001,426.2822270000006,846.1538090000004,199.48730499999965,119.35888699999941,122.56396500000028,114.61523400000078,129.10253900000043,117.43603499999972,359.7436520000001,160.89746099999957,3459.230956999999,364.3588869999994
106,420.12841800000024,2809.743651999999,426.15380900000036,836.5385740000002,201.9228520000006,119.61523400000078,129.61523400000078,122.17968800000017,135.38476599999922,126.6665039999998,359.23095699999976,160.76904300000024,3438.8461909999996,352.4360349999997
107,404.7436520000001,2778.8461909999996,423.3334960000002,824.1025390000004,199.23095699999976,119.23095699999976,132.82031300000017,125.38476599999922,142.17968800000017,134.10253900000043,354.48730499999965,160.12841800000024,3416.794922,341.9228520000006
108,395.51269500000035,2737.5639650000003,417.5639650000003,808.5898440000001,191.2822270000006,117.56396500000028,129.61523400000078,122.82031300000017,144.7436520000001,134.10253900000043,347.6923829999996,159.23095699999976,3396.9228519999997,338.20507799999996
109,390.6411130000006,2693.589844,408.5898440000001,791.0258789999998,182.56396500000028,116.0258789999998,122.56396500000028,116.9228520000006,141.2822270000006,126.2822270000006,340.89746099999957,157.6923829999996,3380.769043000001,339.10253900000043
110,383.7177729999994,2656.9228519999997,398.46142599999985,774.3588869999994,178.58984400000008,115.64111300000059,117.56396500000028,112.69238299999961,134.7436520000001,117.17968800000017,336.53857400000015,155.38476599999922,3367.6923829999996,338.20507799999996
111,372.05126999999993,2632.4360349999997,390.89746099999957,762.3076170000004,182.43603499999972,116.79492200000004,119.74365200000011,114.48730499999965,131.15380900000036,115.25634799999989,336.53857400000015,152.6923829999996,3356.2822269999997,333.20507799999996
112,361.0258789999998,2615.769043000001,390.2563479999999,757.0512699999999,191.41015599999992,118.58984400000008,128.7177729999994,121.79492200000004,133.9741210000002,123.84619099999964,341.15380900000036,151.53857400000015,3345.128418000001,329.10253900000043
113,357.82031300000017,2597.179688,396.9228520000006,756.794922,199.10253900000043,119.87158199999976,138.84619099999964,129.3588869999994,141.41015599999992,137.3076170000004,347.3076170000004,153.7177729999994,3332.5639650000003,331.4101559999999
114,361.53857400000015,2569.2309569999998,405.51269500000035,755.3847659999992,200.0,119.35888699999941,142.3076170000004,131.41015599999992,146.9228520000006,145.6411130000006,349.23095699999976,158.46142599999985,3316.6665040000007,337.82031300000017
115,363.9741210000002,2531.9228520000006,409.10253900000043,747.9487300000001,194.3588869999994,117.05126999999993,135.89746099999957,125.89746099999957,145.38476599999922,142.17968800000017,342.6923829999996,162.82031300000017,3296.9228519999997,340.89746099999957
116,358.46142599999985,2492.5639650000003,404.7436520000001,734.6152340000008,188.0771479999994,114.23095699999976,123.58984400000008,116.6665039999998,137.56396500000028,129.87158199999976,329.87158199999976,163.84619099999964,3275.5126950000003,336.53857400000015
117,347.4360349999997,2458.8461909999996,396.4101559999999,721.2822270000006,186.9228520000006,112.30761700000039,113.7177729999994,110.25634799999989,130.12841800000024,118.9741210000002,319.87158199999976,162.17968800000017,3257.1796879999993,328.3334960000002
118,338.0771479999994,2432.820313,390.76904300000024,712.5639650000003,191.41015599999992,112.82031300000017,112.17968800000017,112.05126999999993,130.76904300000024,118.9741210000002,322.17968800000017,160.12841800000024,3245.6411129999997,323.5898440000001
119,333.20507799999996,2410.0,390.89746099999957,707.9487300000001,196.0258789999998,115.12841800000024,118.84619099999964,122.17968800000017,142.05126999999993,131.53857400000015,338.3334960000002,159.87158199999976,3240.0,324.87158199999976
120,327.94873000000007,2384.743652,393.7177729999994,702.0512699999999,195.12841800000024,117.56396500000028,128.20507799999996,134.61523400000078,158.3334960000002,148.9741210000002,358.46142599999985,160.76904300000024,3233.7177730000003,327.05126999999993
121,316.0258789999998,2354.743652,393.20507799999996,690.8974609999996,189.10253900000043,118.20507799999996,134.10253900000043,142.05126999999993,169.87158199999976,159.23095699999976,368.20507799999996,160.6411130000006,3217.5639650000003,323.84619099999964
122,298.46142599999985,2322.94873,386.15380900000036,675.3847659999992,182.6923829999996,116.6665039999998,134.10253900000043,140.38476599999922,169.3588869999994,153.7177729999994,359.10253900000043,158.20507799999996,3187.1796879999993,314.6152340000008
123,284.6152340000008,2292.94873,375.76904300000024,661.0258789999998,180.6411130000006,114.35888699999941,130.38476599999922,132.6923829999996,158.0771479999994,135.12841800000024,337.5639650000003,155.0,3148.589844,306.2822270000006
124,283.5898440000001,2265.6411130000006,369.3588869999994,653.0771479999994,183.9741210000002,112.94873000000007,127.30761700000039,126.15380900000036,145.2563479999999,117.17968800000017,321.0258789999998,154.3588869999994,3115.6411129999997,307.3076170000004
125,294.6152340000008,2240.1284180000002,372.05126999999993,652.1796880000002,190.12841800000024,113.7177729999994,128.58984400000008,126.53857400000015,140.76904300000024,114.61523400000078,323.0771479999994,158.0771479999994,3097.94873,318.46142599999985
126,305.51269500000035,2213.205078,380.76904300000024,652.4360349999997,194.61523400000078,116.15380900000036,134.23095699999976,132.43603499999972,146.79492200000004,129.7436520000001,340.2563479999999,162.82031300000017,3090.6411129999997,330.3847659999992
127,301.0258789999998,2180.8974609999996,385.51269500000035,645.3847659999992,193.84619099999964,118.58984400000008,139.7436520000001,136.0258789999998,155.38476599999922,149.3588869999994,354.3588869999994,163.20507799999996,3076.1538090000004,330.89746099999957
128,277.3076170000004,2138.974121,378.46142599999985,626.5385740000002,187.3076170000004,119.74365200000011,140.0,131.15380900000036,156.9228520000006,156.79492200000004,349.10253900000043,157.56396500000028,3037.4360349999997,316.15380900000036
129,245.89746099999957,2085.6411130000006,361.6665039999998,599.1025390000004,178.9741210000002,118.9741210000002,134.61523400000078,119.74365200000011,149.23095699999976,146.6665039999998,326.53857400000015,150.0,2971.5385739999992,294.7436520000001
130,225.12841800000024,2022.4360349999997,345.76904300000024,571.9228520000006,175.51269500000035,117.17968800000017,127.82031300000017,110.38476599999922,140.0,128.9741210000002,305.3847659999992,147.43603499999972,2893.3334959999993,281.0258789999998
131,225.2563479999999,1952.3076170000004,341.0258789999998,552.3076170000004,180.2563479999999,115.64111300000059,125.89746099999957,111.9228520000006,138.7177729999994,119.87158199999976,304.10253900000043,152.17968800000017,2823.3334959999993,282.17968800000017
132,241.79492200000004,1877.3076170000004,348.84619099999964,541.2822270000006,191.2822270000006,115.64111300000059,131.2822270000006,125.89746099999957,148.58984400000008,127.69238299999961,325.89746099999957,160.6411130000006,2772.1796879999993,292.5639650000003
133,261.0258789999998,1795.8974609999996,361.2822270000006,532.5639650000003,202.17968800000017,117.05126999999993,141.0258789999998,145.2563479999999,164.7436520000001,148.58984400000008,355.6411130000006,166.6665039999998,2730.769043000001,299.87158199999976
134,270.0,1702.94873,366.9228520000006,516.5385740000002,206.41015599999992,118.46142599999985,149.23095699999976,159.7436520000001,177.94873000000007,169.10253900000043,372.5639650000003,166.0258789999998,2675.5126950000003,295.2563479999999
135,263.5898440000001,1593.8461909999996,358.0771479999994,485.3847659999992,200.51269500000035,118.46142599999985,150.76904300000024,161.6665039999998,180.76904300000024,175.2563479999999,365.76904300000024,158.84619099999964,2582.4360349999997,278.7177729999994
136,245.6411130000006,1470.0,335.2563479999999,438.84619099999964,185.6411130000006,116.6665039999998,144.3588869999994,150.38476599999922,171.9228520000006,162.3076170000004,340.89746099999957,149.3588869999994,2442.820313,256.79492200000004
137,225.76904300000024,1342.8203130000002,305.76904300000024,384.48730499999965,166.9228520000006,114.35888699999941,132.6923829999996,132.05126999999993,156.0258789999998,137.6923829999996,314.87158199999976,141.79492200000004,2269.615234000001,236.9228520000006
138,215.76904300000024,1228.0771479999994,279.6152340000008,332.82031300000017,150.2563479999999,113.20507799999996,121.0258789999998,115.76904300000024,141.15380900000036,116.15380900000036,303.20507799999996,137.94873000000007,2089.8715819999998,222.6923829999996
139,226.15380900000036,1136.2822270000006,262.5639650000003,290.89746099999957,140.12841800000024,114.35888699999941,114.48730499999965,107.82031300000017,133.84619099999964,108.84619099999964,308.9741210000002,136.79492200000004,1930.0,213.58984400000008
140,261.2822270000006,1066.2822270000006,253.20507799999996,257.6923829999996,136.0258789999998,116.6665039999998,114.10253900000043,107.69238299999961,134.61523400000078,115.64111300000059,321.79492200000004,136.41015599999992,1800.6411130000006,207.94873000000007
141,315.6411130000006,1008.4614259999998,244.7436520000001,226.0258789999998,133.3334960000002,117.82031300000017,116.9228520000006,109.74365200000011,137.6923829999996,126.15380900000036,325.51269500000035,135.2563479999999,1693.4614259999998,204.61523400000078
142,375.0,953.205078,231.6665039999998,189.23095699999976,126.9228520000006,116.6665039999998,117.94873000000007,107.43603499999972,136.0258789999998,129.61523400000078,310.12841800000024,133.20507799999996,1590.0,203.3334960000002
143,424.10253900000043,898.8461909999996,214.10253900000043,147.05126999999993,115.89746099999957,113.58984400000008,115.0,100.25634799999989,127.82031300000017,123.84619099999964,279.23095699999976,130.89746099999957,1477.4360349999997,204.61523400000078
144,455.51269500000035,851.9228520000006,198.20507799999996,107.82031300000017,105.89746099999957,111.0258789999998,110.64111300000059,93.84619099999964,118.58984400000008,116.2822270000006,246.53857400000015,128.9741210000002,1359.2309569999998,209.61523400000078
145,472.94873000000007,820.3847659999992,190.76904300000024,82.05126999999993,104.61523400000078,111.0258789999998,109.23095699999976,95.51269500000035,116.6665039999998,116.15380900000036,226.0258789999998,127.43603499999972,1251.9228520000006,219.61523400000078
146,486.4101559999999,805.6411130000006,192.17968800000017,74.23095699999976,113.0771479999994,114.10253900000043,112.94873000000007,106.9228520000006,124.74365200000011,125.12841800000024,221.0258789999998,125.76904300000024,1171.5385740000002,232.6923829999996
147,501.6665039999998,800.3847659999992,196.2822270000006,77.69238299999961,123.46142599999985,118.46142599999985,118.9741210000002,120.64111300000059,136.0258789999998,136.53857400000015,223.0771479999994,123.20507799999996,1118.9741210000002,243.9741210000002
148,516.4101559999999,793.9741210000002,194.7436520000001,78.46142599999985,125.64111300000059,121.41015599999992,121.9228520000006,126.15380900000036,140.51269500000035,140.76904300000024,219.3588869999994,118.9741210000002,1077.6923829999996,248.20507799999996
149,523.4614259999998,781.794922,184.48730499999965,66.15380900000036,116.41015599999992,121.53857400000015,119.61523400000078,118.9741210000002,133.46142599999985,134.23095699999976,203.0771479999994,112.94873000000007,1026.6665039999998,243.84619099999964
150,519.4873049999997,767.0512699999999,169.10253900000043,40.25634799999989,102.82031300000017,119.61523400000078,115.0,105.76904300000024,120.0,121.53857400000015,177.94873000000007,106.0258789999998,956.0258789999998,235.12841800000024
151,508.3334960000002,756.5385740000002,155.6411130000006,8.974121000000196,95.12841800000024,117.56396500000028,112.94873000000007,97.82031300000017,110.12841800000024,111.2822270000006,155.2563479999999,100.51269500000035,874.2309569999998,228.7177729999994
152,497.94873000000007,752.3076170000004,148.46142599999985,-18.076904000000013,98.46142599999985,116.9228520000006,115.89746099999957,102.17968800000017,110.25634799999989,110.38476599999922,144.3588869999994,98.58984400000008,797.3076170000004,228.46142599999985
153,493.3334960000002,749.3588869999994,145.51269500000035,-37.051270000000386,110.12841800000024,117.69238299999961,121.2822270000006,116.15380900000036,119.23095699999976,119.48730499999965,145.6411130000006,100.38476599999922,733.9741210000002,230.76904300000024
154,492.05126999999993,738.9741210000002,140.51269500000035,-51.025634999999966,120.76904300000024,118.46142599999985,124.48730499999965,129.3588869999994,128.9741210000002,132.43603499999972,149.48730499999965,103.84619099999964,678.9741210000002,227.94873000000007
155,486.6665039999998,714.6152340000008,128.7177729999994,-66.41015600000037,122.17968800000017,118.3334960000002,121.9228520000006,132.56396500000028,130.89746099999957,140.2563479999999,143.7177729999994,105.25634799999989,620.5126950000003,214.10253900000043
156,471.9228520000006,677.1796880000002,111.41015599999992,-85.89746100000002,112.94873000000007,117.05126999999993,115.0,123.9741210000002,122.94873000000007,137.94873000000007,125.0,103.0771479999994,554.3588869999994,190.6411130000006
157,451.0258789999998,633.7177729999994,95.89746099999957,-107.05127000000039,98.7177729999994,115.64111300000059,108.0771479999994,110.64111300000059,111.2822270000006,128.58984400000008,102.43603499999972,98.84619099999964,488.9741210000002,166.6665039999998
158,432.94873000000007,591.4101559999999,88.9741210000002,-124.35888699999987,88.3334960000002,114.87158199999976,105.76904300000024,103.20507799999996,105.12841800000024,119.74365200000011,89.10253900000043,95.38476599999922,437.4360349999997,152.3076170000004
159,424.10253900000043,552.0512699999999,91.6665039999998,-133.58984399999963,87.17968800000017,115.38476599999922,109.23095699999976,106.2822270000006,108.58984400000008,116.6665039999998,91.9228520000006,94.87158199999976,405.6411130000006,151.0258789999998
160,423.3334960000002,512.6923829999996,97.82031300000017,-135.5129390000002,94.10253900000043,116.79492200000004,115.25634799999989,115.89746099999957,116.6665039999998,118.58984400000008,105.64111300000059,97.17968800000017,387.6923829999996,157.56396500000028
161,423.20507799999996,469.48730499999965,99.87158199999976,-134.4870609999998,103.84619099999964,117.94873000000007,119.48730499999965,122.82031300000017,120.76904300000024,121.0258789999998,118.0771479999994,100.38476599999922,371.53857400000015,162.56396500000028
162,415.89746099999957,421.9228520000006,94.35888699999941,-135.64111300000013,110.51269500000035,118.20507799999996,119.35888699999941,121.9228520000006,116.9228520000006,120.76904300000024,119.61523400000078,102.17968800000017,347.94873000000007,159.48730499999965
163,399.48730499999965,372.5639650000003,84.23095699999976,-142.179443,111.6665039999998,117.56396500000028,115.89746099999957,114.74365200000011,108.0771479999994,118.20507799999996,109.10253900000043,101.15380900000036,315.89746099999957,148.58984400000008
164,377.5639650000003,325.51269500000035,75.25634799999989,-153.20507799999996,109.35888699999941,116.79492200000004,112.43603499999972,107.94873000000007,100.64111300000059,115.51269500000035,93.3334960000002,98.0771479999994,278.46142599999985,136.0258789999998
165,356.15380900000036,282.6923829999996,71.15380900000036,-165.2563479999999,107.17968800000017,116.79492200000004,111.79492200000004,106.2822270000006,98.7177729999994,115.0,80.76904300000024,95.0,237.6923829999996,128.3334960000002
166,338.84619099999964,242.6923829999996,70.76904300000024,-175.89746100000002,106.9228520000006,117.30761700000039,113.9741210000002,109.10253900000043,102.05126999999993,116.79492200000004,75.51269500000035,93.58984400000008,193.0771479999994,126.9228520000006
167,323.84619099999964,202.82031300000017,69.48730499999965,-185.1281740000004,106.6665039999998,117.17968800000017,116.6665039999998,112.30761700000039,106.53857400000015,119.61523400000078,75.12841800000024,93.58984400000008,145.51269500000035,127.82031300000017
168,307.05126999999993,159.87158199999976,63.7177729999994,-194.10253899999998,103.58984400000008,115.64111300000059,116.79492200000004,111.9228520000006,108.0771479999994,121.6665039999998,73.84619099999964,93.20507799999996,99.48730499999965,126.0258789999998
169,285.89746099999957,113.20507799999996,53.974121000000196,-202.820557,96.9228520000006,114.10253900000043,113.58984400000008,107.69238299999961,105.0,121.2822270000006,67.43603499999972,91.53857400000015,60.25634799999989,119.61523400000078
170,261.79492200000004,65.0,44.23095699999976,-210.38452099999995,89.74365200000011,113.7177729999994,108.84619099999964,102.17968800000017,98.84619099999964,117.82031300000017,56.025878999999804,88.84619099999964,28.461425999999847,111.2822270000006
171,238.9741210000002,18.589844000000085,37.82031300000017,-215.89746100000002,86.0258789999998,114.48730499999965,104.61523400000078,98.3334960000002,93.20507799999996,112.43603499999972,43.46142599999985,86.53857400000015,-2.8203119999998307,104.35888699999941
172,220.76904300000024,-23.461425999999847,35.64111300000059,-220.0,87.69238299999961,115.12841800000024,102.43603499999972,97.69238299999961,90.51269500000035,107.05126999999993,33.333496000000196,84.87158199999976,-43.974365000000034,100.25634799999989
173,207.56396500000028,-60.25634799999989,35.25634799999989,-224.10253899999998,93.3334960000002,114.23095699999976,102.17968800000017,99.87158199999976,91.79492200000004,103.0771479999994,26.666503999999804,83.20507799999996,-101.28198199999997,98.3334960000002
174,196.79492200000004,-92.56420900000057,33.333496000000196,-228.97436500000003,98.9741210000002,112.05126999999993,102.94873000000007,103.3334960000002,95.51269500000035,100.51269500000035,21.282227000000603,80.64111300000059,-172.43579099999943,97.17968800000017
175,185.6411130000006,-122.17944299999999,28.461425999999847,-234.35888699999987,101.0258789999998,109.87158199999976,103.58984400000008,106.53857400000015,98.46142599999985,98.84619099999964,15.512695000000349,77.56396500000028,-247.43579099999943,96.2822270000006
176,173.3334960000002,-150.0,22.69238299999961,-238.20507799999996,98.3334960000002,109.61523400000078,104.35888699999941,108.9741210000002,98.84619099999964,97.94873000000007,9.743652000000111,75.51269500000035,-315.5129390000002,96.15380900000036
177,162.17968800000017,-176.15380900000036,19.230956999999762,-238.33325200000036,93.0771479999994,112.17968800000017,106.53857400000015,111.2822270000006,98.0771479999994,98.84619099999964,6.410155999999915,75.89746099999957,-371.79492200000004,96.9228520000006
178,153.84619099999964,-201.66674799999964,20.0,-235.0,90.12841800000024,116.15380900000036,110.89746099999957,114.10253900000043,98.58984400000008,101.9228520000006,7.179688000000169,78.58984400000008,-418.076904,97.94873000000007
179,147.82031300000017,-228.076904,23.205077999999958,-231.923096,92.43603499999972,119.48730499999965,116.15380900000036,116.6665039999998,101.0258789999998,106.15380900000036,10.641113000000587,81.53857400000015,-460.0,97.05126999999993
180,141.0258789999998,-256.66674799999964,24.230956999999762,-232.6923829999996,98.58984400000008,120.38476599999922,118.9741210000002,116.53857400000015,103.20507799999996,109.35888699999941,12.82031300000017,82.17968800000017,-501.15380900000036,92.56396500000028
181,130.76904300000024,-287.179443,20.384765999999217,-238.20507799999996,103.84619099999964,118.7177729999994,116.6665039999998,112.17968800000017,102.17968800000017,109.23095699999976,10.512695000000349,79.23095699999976,-540.897461,84.61523400000078
182,116.41015599999992,-316.41015600000037,12.82031300000017,-245.64111300000013,104.48730499999965,116.0258789999998,110.0,104.74365200000011,96.41015599999992,105.25634799999989,3.3334960000001956,74.10253900000043,-576.4101560000004,75.89746099999957
183,100.38476599999922,-340.897461,5.512695000000349,-251.41015600000037,101.41015599999992,114.35888699999941,102.56396500000028,97.82031300000017,87.94873000000007,98.9741210000002,-5.512939000000188,69.10253900000043,-604.7436520000001,69.87158199999976
184,86.79492200000004,-359.61547900000005,2.0512699999999313,-253.84619099999964,98.58984400000008,114.74365200000011,98.3334960000002,94.48730499999965,80.76904300000024,93.20507799999996,-11.666747999999643,67.17968800000017,-626.1538090000004,68.3334960000002
185,78.84619099999964,-374.7436520000001,3.3334960000001956,-254.7436520000001,99.23095699999976,116.41015599999992,98.84619099999964,95.38476599999922,78.7177729999994,90.51269500000035,-12.179442999999992,68.9741210000002,-644.8718259999996,71.15380900000036
186,76.41015599999992,-390.5129390000002,7.051269999999931,-257.179443,102.17968800000017,117.94873000000007,102.82031300000017,98.58984400000008,82.05126999999993,91.41015599999992,-8.076904000000013,72.94873000000007,-667.4357909999994,75.25634799999989
187,75.64111300000059,-409.2307130000004,9.871581999999762,-262.179443,103.84619099999964,118.58984400000008,106.6665039999998,101.2822270000006,86.9228520000006,94.23095699999976,-3.846190999999635,76.2822270000006,-699.3588869999999,76.9228520000006
188,72.43603499999972,-429.8718259999996,9.743652000000111,-267.9487299999996,102.05126999999993,118.20507799999996,107.82031300000017,101.6665039999998,88.58984400000008,96.2822270000006,-3.3334960000001956,76.6665039999998,-740.7692869999996,74.87158199999976
189,65.64111300000059,-448.84619099999964,7.43603499999972,-271.41015600000037,98.20507799999996,117.30761700000039,105.64111300000059,99.61523400000078,85.76904300000024,95.76904300000024,-7.307617000000391,74.10253900000043,-785.5129390000002,70.76904300000024
190,57.56396500000028,-463.20507799999996,5.256347999999889,-270.7692869999996,96.2822270000006,116.41015599999992,102.30761700000039,97.05126999999993,81.6665039999998,93.58984400000008,-12.179442999999992,71.15380900000036,-825.2563479999999,68.7177729999994
191,52.56396500000028,-472.6923829999996,6.153809000000365,-267.3076170000004,98.84619099999964,116.6665039999998,100.64111300000059,96.0258789999998,80.51269500000035,92.43603499999972,-13.58984399999963,70.25634799999989,-854.871826,70.89746099999957
192,52.56396500000028,-480.1281740000004,10.897460999999566,-264.102539,105.12841800000024,118.3334960000002,102.43603499999972,97.30761700000039,84.35888699999941,94.35888699999941,-9.61547900000005,72.43603499999972,-876.6667480000001,76.0258789999998
193,55.38476599999922,-489.7436520000001,17.69238299999961,-264.35888699999987,111.6665039999998,120.51269500000035,107.56396500000028,100.0,91.53857400000015,98.9741210000002,-2.9487300000000687,76.53857400000015,-897.820557,80.51269500000035
194,56.666503999999804,-503.33325200000036,22.82031300000017,-268.46142599999985,115.0,122.05126999999993,113.3334960000002,103.3334960000002,98.58984400000008,103.84619099999964,3.077147999999397,81.15380900000036,-922.6923829999996,81.9228520000006
195,53.20507799999996,-519.2307130000004,24.48730499999965,-274.61547900000005,114.61523400000078,122.43603499999972,117.05126999999993,107.17968800000017,102.43603499999972,106.79492200000004,6.282227000000603,84.74365200000011,-948.8461910000001,79.61523400000078
196,44.87158199999976,-534.3588869999999,23.333496000000196,-279.61547900000005,111.41015599999992,122.30761700000039,117.30761700000039,111.9228520000006,102.43603499999972,107.30761700000039,7.051269999999931,86.53857400000015,-970.0,75.51269500000035
197,35.12841800000024,-546.1538090000004,21.282227000000603,-282.0512700000004,107.69238299999961,122.94873000000007,115.38476599999922,116.79492200000004,100.64111300000059,106.2822270000006,6.538574000000153,86.2822270000006,-981.923096,71.9228520000006
198,27.43603499999972,-554.8718259999996,19.74365200000011,-282.0512700000004,105.25634799999989,125.38476599999922,113.9741210000002,120.51269500000035,99.87158199999976,105.12841800000024,5.3847659999992175,84.35888699999941,-986.1538089999999,70.76904300000024
199,22.94873000000007,-562.3076170000004,18.846190999999635,-281.15380900000036,104.35888699999941,129.23095699999976,114.48730499999965,121.79492200000004,101.0258789999998,104.87158199999976,3.3334960000001956,81.6665039999998,-989.2307129999999,72.05126999999993
200,19.48730499999965,-571.281982,17.43603499999972,-281.15380900000036,103.7177729999994,132.43603499999972,116.2822270000006,120.25634799999989,102.56396500000028,105.0,0.0,78.46142599999985,-998.3332519999999,74.10253900000043
201,13.974121000000196,-583.5898439999996,14.102539000000434,-283.076904,102.05126999999993,132.56396500000028,116.53857400000015,115.64111300000059,101.41015599999992,103.46142599999985,-5.256347999999889,75.25634799999989,-1016.6667480000001,74.61523400000078
202,4.743652000000111,-599.102539,8.846190999999635,-286.66674799999964,99.35888699999941,128.84619099999964,112.94873000000007,108.9741210000002,96.0258789999998,98.9741210000002,-11.794922000000042,72.05126999999993,-1041.025635,72.30761700000039
203,-6.281981999999971,-614.8718259999996,3.5898440000000846,-289.7436520000001,97.30761700000039,123.46142599999985,106.6665039999998,102.30761700000039,88.20507799999996,92.43603499999972,-17.564209000000574,69.61523400000078,-1063.846191,68.58984400000008
204,-14.743652000000111,-626.923096,1.0258789999998044,-288.84619099999964,97.94873000000007,119.61523400000078,101.2822270000006,98.46142599999985,82.82031300000017,87.69238299999961,-19.8718259999996,68.46142599999985,-1077.4357909999999,65.89746099999957
205,-17.820557000000008,-633.076904,2.8203130000001693,-282.4357909999994,101.15380900000036,118.84619099999964,100.89746099999957,99.61523400000078,83.84619099999964,87.43603499999972,-17.435790999999426,68.7177729999994,-1080.256348,65.76904300000024
206,-16.666747999999643,-634.7436520000001,7.692382999999609,-273.076904,104.48730499999965,120.0,106.15380900000036,105.0,90.64111300000059,91.9228520000006,-12.692382999999609,70.51269500000035,-1076.410156,67.43603499999972
207,-15.641113000000132,-636.5385740000002,12.56396500000028,-266.15380900000036,105.51269500000035,121.0258789999998,113.20507799999996,111.6665039999998,98.9741210000002,97.94873000000007,-9.358886999999868,73.0771479999994,-1073.718018,68.9741210000002
208,-17.564209000000574,-642.5642090000006,14.871581999999762,-264.8718259999996,104.10253900000043,121.53857400000015,117.69238299999961,116.53857400000015,103.7177729999994,101.79492200000004,-9.230713000000378,76.0258789999998,-1077.05127,68.9741210000002
209,-21.28198199999997,-653.076904,15.0,-267.0512700000004,102.56396500000028,121.6665039999998,118.20507799999996,118.20507799999996,103.20507799999996,101.79492200000004,-10.256347999999889,79.10253900000043,-1086.153809,68.0771479999994
210,-23.205077999999958,-663.4614259999998,15.769043000000238,-267.3076170000004,103.20507799999996,122.69238299999961,116.9228520000006,117.82031300000017,100.12841800000024,100.12841800000024,-8.974365000000034,82.05126999999993,-1097.4357909999999,67.94873000000007
211,-22.051270000000386,-669.2307130000004,19.615234000000783,-261.923096,106.2822270000006,124.74365200000011,116.9228520000006,117.82031300000017,98.58984400000008,100.38476599999922,-4.61547900000005,84.48730499999965,-1107.05127,69.10253900000043
212,-19.8718259999996,-670.897461,25.0,-252.43579099999943,109.23095699999976,126.6665039999998,118.58984400000008,118.84619099999964,100.12841800000024,102.94873000000007,-0.12841800000023795,85.89746099999957,-1115.0,71.15380900000036
213,-20.769286999999622,-673.3332520000004,27.69238299999961,-244.35888699999987,108.84619099999964,126.41015599999992,120.0,119.23095699999976,102.94873000000007,104.61523400000078,0.6411130000005869,85.64111300000059,-1123.4614260000003,72.69238299999961
214,-27.051270000000386,-680.7692869999996,25.128418000000238,-241.66674799999964,104.48730499999965,123.9741210000002,118.9741210000002,117.56396500000028,104.35888699999941,102.43603499999972,-3.077147999999397,84.74365200000011,-1134.4870609999998,72.30761700000039
215,-36.025634999999966,-692.0512700000004,19.358886999999413,-244.10253899999998,98.58984400000008,120.76904300000024,116.0258789999998,114.74365200000011,103.20507799999996,97.56396500000028,-8.076904000000013,84.10253900000043,-1146.794922,69.74365200000011
216,-43.20507799999996,-701.923096,14.871581999999762,-247.179443,95.38476599999922,119.48730499999965,113.3334960000002,113.0771479999994,101.2822270000006,93.84619099999964,-10.0,84.35888699999941,-1156.5385739999997,66.53857400000015
217,-45.1281740000004,-706.4101560000004,14.230956999999762,-246.79492200000004,96.9228520000006,120.76904300000024,112.69238299999961,113.46142599999985,100.0,93.3334960000002,-7.179442999999992,84.48730499999965,-1160.6411129999997,63.846190999999635
218,-42.82055700000001,-706.6667479999996,16.538574000000153,-242.3076170000004,101.53857400000015,123.3334960000002,113.84619099999964,114.35888699999941,98.84619099999964,94.61523400000078,-2.3076170000003913,83.7177729999994,-1160.384521,62.69238299999961
219,-39.61547900000005,-706.794922,18.589844000000085,-237.0512700000004,105.25634799999989,125.12841800000024,115.12841800000024,113.0771479999994,96.41015599999992,94.35888699999941,0.12841800000023795,82.30761700000039,-1160.256348,62.94873000000007
220,-38.58984399999963,-710.1281740000004,18.077147999999397,-235.1281740000004,105.38476599999922,125.0,114.87158199999976,109.23095699999976,92.56396500000028,91.6665039999998,-1.6665039999998044,81.53857400000015,-1164.615479,64.61523400000078
221,-39.74365200000011,-715.7692869999996,15.897460999999566,-236.79492200000004,102.69238299999961,123.20507799999996,113.84619099999964,105.0,90.12841800000024,89.48730499999965,-5.128174000000399,82.05126999999993,-1173.4614260000003,67.05126999999993
222,-41.41015600000037,-719.8718259999996,14.743652000000111,-239.35888699999987,100.12841800000024,120.51269500000035,113.46142599999985,103.84619099999964,91.79492200000004,91.0258789999998,-5.897461000000021,83.84619099999964,-1182.4357909999999,69.35888699999941
223,-43.20507799999996,-720.6411130000001,15.641113000000587,-239.4870609999998,99.61523400000078,118.0771479999994,113.9741210000002,106.53857400000015,97.05126999999993,96.2822270000006,-2.0512699999999313,85.76904300000024,-1187.5642090000001,69.74365200000011
224,-46.153809000000365,-718.8461909999996,17.69238299999961,-236.28198199999997,100.76904300000024,116.79492200000004,114.61523400000078,110.64111300000059,102.17968800000017,102.30761700000039,3.9741210000001956,86.41015599999992,-1188.205078,67.43603499999972
225,-50.64111300000013,-717.6923829999996,19.358886999999413,-230.38452099999995,100.89746099999957,116.9228520000006,114.48730499999965,113.3334960000002,103.84619099999964,105.64111300000059,8.077147999999397,85.51269500000035,-1186.666748,63.20507799999996
226,-55.38452099999995,-719.102539,20.384765999999217,-223.20507799999996,98.9741210000002,118.84619099999964,113.7177729999994,113.7177729999994,102.43603499999972,105.25634799999989,8.461425999999847,83.9741210000002,-1185.6411129999997,60.12841800000024
227,-57.69238299999961,-721.794922,22.17968800000017,-215.76928699999962,97.17968800000017,122.94873000000007,113.84619099999964,113.46142599999985,101.9228520000006,102.56396500000028,6.538574000000153,83.20507799999996,-1185.6411129999997,60.897460999999566
228,-56.41015600000037,-722.9487299999996,25.769043000000238,-207.6923829999996,98.7177729999994,128.3334960000002,115.64111300000059,115.25634799999989,105.64111300000059,101.15380900000036,5.641113000000587,84.35888699999941,-1185.5129390000002,65.12841800000024
229,-52.69238299999961,-720.7692869999996,30.51269500000035,-199.23071300000038,105.51269500000035,133.0771479999994,119.23095699999976,119.48730499999965,113.3334960000002,103.0771479999994,7.948730000000069,86.79492200000004,-1184.230713,69.87158199999976
230,-50.1281740000004,-716.4101560000004,34.102539000000434,-192.3076170000004,114.74365200000011,135.0,122.56396500000028,123.9741210000002,120.38476599999922,107.82031300000017,12.051269999999931,89.10253900000043,-1183.205078,71.2822270000006
231,-51.79492200000004,-713.076904,33.7177729999994,-188.97436500000003,121.2822270000006,133.7177729999994,123.46142599999985,125.25634799999989,121.9228520000006,111.41015599999992,14.487304999999651,89.35888699999941,-1184.3588870000003,67.82031300000017
232,-57.69238299999961,-713.205078,28.717772999999397,-189.23071300000038,121.0258789999998,130.51269500000035,121.2822270000006,122.17968800000017,116.2822270000006,109.74365200000011,12.692382999999609,87.17968800000017,-1189.230713,61.153809000000365
233,-64.74365200000011,-716.794922,22.17968800000017,-190.89746100000002,114.23095699999976,127.56396500000028,117.56396500000028,116.6665039999998,106.9228520000006,102.82031300000017,7.43603499999972,83.84619099999964,-1197.5642090000001,55.897460999999566
234,-69.35888699999987,-721.281982,18.333496000000196,-190.76928699999962,105.38476599999922,127.05126999999993,114.48730499999965,111.9228520000006,99.48730499999965,94.48730499999965,1.7949220000000423,81.2822270000006,-1206.923096,54.74365200000011
235,-70.25634799999989,-724.8718259999996,19.230956999999762,-187.56420900000057,99.87158199999976,129.10253900000043,113.46142599999985,110.25634799999989,97.43603499999972,88.84619099999964,-0.8974609999995664,81.0258789999998,-1214.871826,57.56396500000028
236,-68.97436500000003,-728.076904,22.94873000000007,-182.43579099999943,99.61523400000078,131.6665039999998,113.9741210000002,110.64111300000059,99.23095699999976,87.05126999999993,0.0,82.56396500000028,-1220.128174,60.76904300000024
237,-68.20507799999996,-732.5642090000006,25.0,-178.33325200000036,101.6665039999998,131.9228520000006,114.61523400000078,110.38476599999922,100.76904300000024,87.43603499999972,2.6923829999996087,83.84619099999964,-1222.820557,60.897460999999566
238,-69.74365200000011,-737.820557,23.205077999999958,-176.41015600000037,101.41015599999992,129.10253900000043,114.35888699999941,108.3334960000002,99.74365200000011,88.84619099999964,4.871581999999762,83.46142599999985,-1224.230713,57.82031300000017
239,-72.56420900000057,-740.5129390000002,18.974121000000196,-175.1281740000004,98.20507799999996,125.12841800000024,113.84619099999964,106.41015599999992,97.69238299999961,91.41015599999992,5.641113000000587,81.2822270000006,-1224.743652,54.35888699999941
240,-73.33325200000036,-737.0512700000004,16.666503999999804,-171.02563499999997,95.89746099999957,123.46142599999985,114.35888699999941,107.43603499999972,98.0771479999994,95.64111300000059,5.769043000000238,79.35888699999941,-1223.589844,54.102539000000434
241,-70.38452099999995,-727.820557,19.358886999999413,-161.923096,98.9741210000002,125.64111300000059,116.6665039999998,112.05126999999993,102.56396500000028,100.38476599999922,6.666503999999804,79.74365200000011,-1220.6411129999997,57.82031300000017
242,-65.38452099999995,-718.3332520000004,25.897460999999566,-150.2563479999999,106.9228520000006,130.12841800000024,119.61523400000078,117.69238299999961,108.7177729999994,103.0771479999994,7.948730000000069,82.56396500000028,-1217.4357909999999,62.56396500000028
243,-63.07690400000001,-714.8718259999996,31.282227000000603,-141.28198199999997,114.23095699999976,134.10253900000043,121.0258789999998,120.0,111.53857400000015,101.79492200000004,8.461425999999847,85.76904300000024,-1216.153809,64.23095699999976
244,-66.41015600000037,-719.102539,32.17968800000017,-138.46142599999985,116.15380900000036,135.38476599999922,119.48730499999965,117.17968800000017,109.10253900000043,97.69238299999961,7.051269999999931,86.9228520000006,-1217.3076170000004,61.666503999999804
245,-73.58984399999963,-725.7692869999996,28.974121000000196,-139.4870609999998,112.94873000000007,134.3588869999994,116.41015599999992,112.17968800000017,104.10253900000043,94.87158199999976,5.128418000000238,85.51269500000035,-1218.4614260000003,57.94873000000007
246,-79.10253899999998,-727.3076170000004,26.025878999999804,-139.8718259999996,109.61523400000078,133.20507799999996,115.0,109.74365200000011,101.9228520000006,96.15380900000036,4.743652000000111,83.46142599999985,-1216.666748,57.05126999999993
247,-78.84619099999964,-720.7692869999996,26.538574000000153,-136.28198199999997,109.35888699999941,133.46142599999985,116.79492200000004,111.6665039999998,104.87158199999976,100.76904300000024,7.43603499999972,82.94873000000007,-1210.769287,60.64111300000059
248,-72.82055700000001,-710.384521,30.128418000000238,-130.0,110.64111300000059,134.7436520000001,119.61523400000078,115.25634799999989,109.74365200000011,104.74365200000011,11.410155999999915,84.23095699999976,-1203.333252,65.89746099999957
249,-65.25634799999989,-704.102539,34.102539000000434,-125.38452099999995,108.3334960000002,134.61523400000078,119.48730499999965,115.38476599999922,110.76904300000024,103.84619099999964,13.077147999999397,85.51269500000035,-1197.94873,69.10253900000043
250,-61.66674799999964,-706.6667479999996,35.12841800000024,-126.28198199999997,99.87158199999976,131.53857400000015,114.10253900000043,109.48730499999965,104.74365200000011,97.30761700000039,9.358886999999413,85.64111300000059,-1197.6923829999996,67.82031300000017
251,-65.1281740000004,-715.897461,31.538574000000153,-133.076904,88.9741210000002,126.2822270000006,105.51269500000035,99.10253900000043,93.9741210000002,87.82031300000017,0.769043000000238,84.48730499999965,-1202.3076170000004,62.56396500000028
252,-73.20507799999996,-724.615479,25.128418000000238,-141.66674799999964,83.20507799999996,122.05126999999993,99.74365200000011,90.0,84.87158199999976,80.64111300000059,-7.820557000000008,83.3334960000002,-1207.94873,56.666503999999804
253,-80.38452099999995,-726.1538090000004,20.128418000000238,-146.02563499999997,87.94873000000007,122.05126999999993,101.15380900000036,87.69238299999961,83.0771479999994,79.48730499999965,-10.641113000000132,82.82031300000017,-1209.4870609999998,53.7177729999994
254,-82.56420900000057,-719.2307130000004,19.102539000000434,-143.97436500000003,100.89746099999957,126.53857400000015,108.7177729999994,93.7177729999994,88.7177729999994,84.48730499999965,-5.769286999999622,82.56396500000028,-1204.230713,54.74365200000011
255,-79.8718259999996,-709.2307130000004,21.410155999999915,-138.84619099999964,113.3334960000002,132.56396500000028,116.15380900000036,103.58984400000008,96.41015599999992,90.51269500000035,2.4360349999997197,81.79492200000004,-1195.256348,57.30761700000039
256,-76.79492200000004,-703.974365,23.077147999999397,-136.41015600000037,116.0258789999998,136.2822270000006,117.43603499999972,110.0,99.23095699999976,91.79492200000004,6.538574000000153,79.74365200000011,-1188.589844,58.20507799999996
257,-76.92309599999999,-706.923096,21.794922000000042,-140.1281740000004,107.56396500000028,135.51269500000035,111.9228520000006,108.20507799999996,94.61523400000078,86.6665039999998,2.9487300000000687,77.30761700000039,-1188.205078,56.025878999999804
258,-79.8718259999996,-714.4870609999998,18.205077999999958,-146.66674799999964,95.0,131.6665039999998,104.61523400000078,100.64111300000059,86.79492200000004,79.74365200000011,-5.128174000000399,76.53857400000015,-1192.179443,52.69238299999961
259,-82.17944299999999,-718.718018,16.282227000000603,-149.4870609999998,88.3334960000002,128.3334960000002,102.05126999999993,93.84619099999964,82.17968800000017,77.30761700000039,-9.743652000000111,78.7177729999994,-1194.102539,51.53857400000015
260,-79.74365200000011,-713.8461909999996,19.230956999999762,-143.076904,93.3334960000002,128.46142599999985,106.53857400000015,93.9741210000002,84.48730499999965,82.43603499999972,-4.61547900000005,83.0771479999994,-1187.6923829999996,54.74365200000011
261,-71.79492200000004,-701.025635,26.666503999999804,-128.71801800000003,107.05126999999993,131.79492200000004,115.0,101.6665039999998,92.43603499999972,91.53857400000015,8.974121000000196,87.30761700000039,-1172.4357909999999,61.9228520000006
262,-62.17944299999999,-686.6667479999996,34.74365200000011,-112.69238299999961,121.41015599999992,135.12841800000024,122.17968800000017,111.9228520000006,101.0258789999998,98.58984400000008,23.461425999999847,88.58984400000008,-1155.384521,69.23095699999976
263,-56.41015600000037,-677.9487299999996,40.25634799999989,-102.82055700000001,128.58984400000008,135.0,124.87158199999976,118.46142599999985,106.53857400000015,99.23095699999976,30.0,86.9228520000006,-1145.769287,72.82031300000017
264,-57.564209000000574,-677.179443,42.17968800000017,-102.17944299999999,125.89746099999957,130.51269500000035,123.7177729999994,119.10253900000043,108.20507799999996,95.51269500000035,25.51269500000035,84.61523400000078,-1148.076904,71.2822270000006
265,-63.46142599999985,-681.794922,41.79492200000004,-108.97436500000003,116.0258789999998,123.9741210000002,122.05126999999993,116.41015599999992,107.94873000000007,92.56396500000028,14.871581999999762,84.10253900000043,-1158.076904,66.15380900000036
266,-68.97436500000003,-687.4357909999994,40.38476599999922,-118.07690400000001,105.38476599999922,118.9741210000002,121.6665039999998,113.9741210000002,107.30761700000039,94.23095699999976,7.051269999999931,86.0258789999998,-1166.025635,61.153809000000365
267,-70.0,-691.281982,38.589844000000085,-124.61547900000005,99.35888699999941,117.05126999999993,121.79492200000004,113.7177729999994,106.41015599999992,99.48730499999965,7.692382999999609,88.9741210000002,-1164.4870609999998,59.74365200000011
268,-66.28198199999997,-692.5642090000006,36.2822270000006,-126.53857400000015,100.12841800000024,117.82031300000017,120.25634799999989,114.61523400000078,104.48730499999965,104.10253900000043,15.512695000000349,91.15380900000036,-1153.076904,62.69238299999961
269,-60.76928699999962,-691.923096,33.0771479999994,-125.0,106.15380900000036,119.10253900000043,117.17968800000017,114.61523400000078,102.43603499999972,103.84619099999964,24.48730499999965,91.15380900000036,-1138.589844,67.69238299999961
270,-57.17944299999999,-691.281982,29.102539000000434,-123.71801800000003,112.43603499999972,119.61523400000078,114.23095699999976,112.30761700000039,100.89746099999957,98.0771479999994,28.461425999999847,89.48730499999965,-1128.718018,70.51269500000035
271,-57.435790999999426,-692.179443,24.74365200000011,-125.0,114.35888699999941,118.7177729999994,113.20507799999996,107.56396500000028,99.87158199999976,89.61523400000078,25.384765999999217,87.05126999999993,-1127.4357909999999,68.46142599999985
272,-60.76928699999962,-694.4870609999998,21.666503999999804,-128.20507799999996,111.0258789999998,116.9228520000006,114.35888699999941,102.05126999999993,98.46142599999985,82.94873000000007,18.077147999999397,85.0,-1132.179443,62.43603499999972
273,-63.974365000000034,-695.6411130000001,21.922852000000603,-129.8718259999996,106.2822270000006,115.64111300000059,116.53857400000015,98.20507799999996,96.53857400000015,81.41015599999992,12.43603499999972,84.61523400000078,-1136.5385739999997,56.666503999999804
274,-63.07690400000001,-692.6923829999996,26.025878999999804,-127.43579099999943,105.51269500000035,115.64111300000059,118.0771479999994,98.0771479999994,95.64111300000059,84.74365200000011,12.948730000000069,86.6665039999998,-1134.4870609999998,54.74365200000011
275,-56.92309599999999,-684.3588869999999,32.17968800000017,-120.64111300000013,110.25634799999989,116.79492200000004,118.9741210000002,101.41015599999992,96.53857400000015,89.48730499999965,19.48730499999965,90.51269500000035,-1125.384521,57.56396500000028
276,-48.07690400000001,-673.718018,36.53857400000015,-112.56420900000057,116.79492200000004,117.94873000000007,119.61523400000078,105.76904300000024,98.7177729999994,91.6665039999998,27.05126999999993,93.84619099999964,-1114.102539,62.05126999999993
277,-41.153809000000365,-665.7692869999996,36.410155999999915,-107.43579099999943,119.35888699999941,118.0771479999994,119.48730499999965,107.17968800000017,99.61523400000078,89.61523400000078,28.974121000000196,94.23095699999976,-1107.3076170000004,64.35888699999941
278,-40.0,-663.8461909999996,31.794922000000042,-107.82055700000001,114.48730499999965,117.05126999999993,117.82031300000017,103.46142599999985,97.17968800000017,84.48730499999965,22.94873000000007,91.0258789999998,-1108.846191,62.17968800000017
279,-45.1281740000004,-666.923096,25.384765999999217,-112.17944299999999,104.74365200000011,115.76904300000024,114.48730499999965,96.0258789999998,91.41015599999992,79.74365200000011,11.922852000000603,86.2822270000006,-1116.281982,57.05126999999993
280,-52.17944299999999,-670.1281740000004,21.282227000000603,-115.38452099999995,96.6665039999998,115.0,111.41015599999992,89.87158199999976,85.89746099999957,77.94873000000007,2.9487300000000687,82.82031300000017,-1123.076904,52.82031300000017
281,-56.53857400000015,-669.102539,21.153809000000365,-113.71801800000003,95.12841800000024,115.0,111.0258789999998,89.87158199999976,85.38476599999922,80.64111300000059,1.6665039999998044,82.43603499999972,-1122.820557,52.69238299999961
282,-55.51293900000019,-663.718018,24.230956999999762,-107.69238299999961,100.0,115.51269500000035,113.84619099999964,97.05126999999993,91.6665039999998,87.05126999999993,8.589844000000085,84.48730499999965,-1114.230713,56.025878999999804
283,-51.153809000000365,-657.3076170000004,27.94873000000007,-101.53857400000015,107.05126999999993,116.53857400000015,117.94873000000007,107.56396500000028,101.6665039999998,94.87158199999976,18.846190999999635,87.17968800000017,-1100.897461,60.25634799999989
284,-46.153809000000365,-653.205078,30.0,-98.97436500000003,112.05126999999993,118.0771479999994,120.12841800000024,116.2822270000006,110.25634799999989,101.2822270000006,26.025878999999804,88.58984400000008,-1088.076904,62.43603499999972
285,-42.17944299999999,-651.5385740000002,30.51269500000035,-100.38452099999995,114.23095699999976,119.35888699999941,119.74365200000011,119.74365200000011,113.20507799999996,104.23095699999976,27.69238299999961,88.58984400000008,-1078.974365,62.05126999999993
286,-39.23071300000038,-649.615479,31.282227000000603,-103.07690400000001,115.51269500000035,119.23095699999976,118.7177729999994,118.7177729999994,110.64111300000059,103.0771479999994,25.769043000000238,87.94873000000007,-1074.102539,60.0
287,-37.17944299999999,-645.2563479999999,33.333496000000196,-103.97436500000003,117.05126999999993,117.17968800000017,119.48730499999965,116.15380900000036,105.38476599999922,99.10253900000043,24.102539000000434,87.82031300000017,-1072.820557,58.0771479999994
288,-36.41015600000037,-639.615479,35.0,-102.56420900000057,117.30761700000039,113.84619099999964,121.79492200000004,114.35888699999941,100.89746099999957,94.23095699999976,24.48730499999965,87.94873000000007,-1073.333252,57.05126999999993
289,-37.948729999999614,-636.025635,33.46142599999985,-101.53857400000015,113.9741210000002,110.51269500000035,122.43603499999972,112.69238299999961,99.23095699999976,89.61523400000078,25.25634799999989,87.05126999999993,-1074.615479,56.410155999999915
290,-41.41015600000037,-636.794922,27.69238299999961,-103.33325200000036,106.53857400000015,108.46142599999985,118.84619099999964,109.48730499999965,99.87158199999976,86.0258789999998,23.717772999999397,85.51269500000035,-1075.5129390000002,55.76904300000024
291,-45.38452099999995,-640.5129390000002,20.51269500000035,-107.69238299999961,97.43603499999972,108.0771479999994,111.9228520000006,104.61523400000078,101.15380900000036,83.7177729999994,18.846190999999635,84.35888699999941,-1075.5129390000002,55.0
292,-47.69238299999961,-642.9487299999996,15.897460999999566,-112.17944299999999,90.25634799999989,109.48730499999965,105.64111300000059,100.0,101.2822270000006,83.20507799999996,12.43603499999972,84.61523400000078,-1073.846191,54.35888699999941
293,-46.79492200000004,-640.6411130000001,15.512695000000349,-114.10253899999998,88.3334960000002,112.05126999999993,103.46142599999985,97.82031300000017,100.25634799999989,84.48730499999965,7.692382999999609,85.64111300000059,-1069.4870609999998,53.7177729999994
294,-42.69238299999961,-633.076904,17.94873000000007,-112.30761700000039,91.79492200000004,114.48730499999965,105.89746099999957,99.35888699999941,98.7177729999994,87.05126999999993,7.692382999999609,85.89746099999957,-1061.794922,53.333496000000196
295,-36.025634999999966,-622.5642090000006,20.769043000000238,-107.05127000000039,98.46142599999985,115.89746099999957,110.76904300000024,104.23095699999976,98.7177729999994,90.25634799999989,12.82031300000017,85.0,-1051.5385739999997,54.48730499999965
296,-27.820557000000008,-612.5642090000006,23.205077999999958,-99.23071300000038,104.74365200000011,115.89746099999957,115.64111300000059,111.0258789999998,101.79492200000004,94.48730499999965,21.410155999999915,84.87158199999976,-1040.384521,57.82031300000017
297,-19.487060999999812,-604.8718259999996,26.538574000000153,-90.64111300000013,107.69238299999961,115.0,119.35888699999941,117.56396500000028,107.94873000000007,100.0,30.128418000000238,87.94873000000007,-1029.615479,62.69238299999961
298,-12.692382999999609,-599.102539,31.410155999999915,-82.94872999999961,106.79492200000004,114.23095699999976,122.05126999999993,122.56396500000028,115.38476599999922,105.89746099999957,36.2822270000006,93.9741210000002,-1020.5129390000002,67.30761700000039
299,-9.230713000000378,-593.974365,36.666503999999804,-78.20507799999996,103.46142599999985,114.23095699999976,124.10253900000043,125.25634799999989,120.64111300000059,109.35888699999941,38.0771479999994,100.0,-1014.2307129999999,69.61523400000078
300,-9.358886999999868,-589.7436520000001,39.35888699999941,-78.20507799999996,100.25634799999989,114.87158199999976,124.87158199999976,125.51269500000035,121.2822270000006,108.0771479999994,35.12841800000024,102.43603499999972,-1012.179443,67.82031300000017
301,-12.307617000000391,-587.9487299999996,37.30761700000039,-83.58984399999963,99.23095699999976,115.38476599999922,123.3334960000002,122.94873000000007,117.94873000000007,102.56396500000028,28.974121000000196,99.74365200000011,-1014.2307129999999,62.30761700000039
302,-16.28198199999997,-589.3588869999999,31.538574000000153,-91.41015600000037,100.38476599999922,115.12841800000024,119.35888699999941,118.46142599999985,113.7177729999994,96.15380900000036,22.43603499999972,93.58984400000008,-1017.5642090000001,56.2822270000006
303,-18.71801800000003,-592.4357909999994,25.769043000000238,-95.89746100000002,102.17968800000017,114.23095699999976,114.74365200000011,114.10253900000043,111.6665039999998,92.56396500000028,18.333496000000196,87.82031300000017,-1018.718018,53.20507799999996
304,-17.564209000000574,-593.8461909999996,23.589844000000085,-93.46142599999985,102.05126999999993,113.7177729999994,111.9228520000006,112.43603499999972,112.82031300000017,92.94873000000007,17.94873000000007,85.76904300000024,-1015.2563479999999,54.74365200000011
305,-12.692382999999609,-591.025635,26.410155999999915,-85.0,99.10253900000043,113.84619099999964,112.69238299999961,114.35888699999941,115.38476599999922,95.76904300000024,21.410155999999915,88.20507799999996,-1007.0512699999999,59.48730499999965
306,-5.641113000000132,-583.3332520000004,32.94873000000007,-75.51293900000019,96.15380900000036,114.35888699999941,116.41015599999992,118.7177729999994,117.56396500000028,98.9741210000002,27.56396500000028,93.58984400000008,-995.897461,64.74365200000011
307,0.6411130000005869,-572.3076170000004,40.12841800000024,-69.23071300000038,97.17968800000017,114.87158199999976,120.25634799999989,123.84619099999964,119.48730499999965,102.17968800000017,35.0,98.84619099999964,-984.102539,68.3334960000002
308,4.358886999999413,-561.281982,44.48730499999965,-66.79492200000004,103.46142599999985,115.12841800000024,121.53857400000015,127.94873000000007,121.79492200000004,105.89746099999957,42.30761700000039,101.6665039999998,-973.4614260000003,69.61523400000078
309,4.6152340000007825,-553.8461909999996,44.74365200000011,-65.89746100000002,112.05126999999993,115.0,119.87158199999976,130.0,124.61523400000078,110.12841800000024,48.20507799999996,101.41015599999992,-964.871826,69.35888699999941
310,2.3076170000003913,-551.5385740000002,41.79492200000004,-63.846190999999635,117.82031300000017,114.87158199999976,117.69238299999961,130.38476599999922,127.30761700000039,114.23095699999976,51.79492200000004,98.58984400000008,-959.2307129999999,68.0771479999994
311,-1.4101559999999154,-553.5898439999996,37.56396500000028,-59.74365200000011,118.3334960000002,114.87158199999976,117.17968800000017,129.61523400000078,128.3334960000002,116.9228520000006,52.05126999999993,94.35888699999941,-956.6667480000001,66.0258789999998
312,-5.38452099999995,-556.5385740000002,33.589844000000085,-54.61547900000005,114.23095699999976,115.25634799999989,118.46142599999985,128.0771479999994,126.9228520000006,116.79492200000004,48.333496000000196,90.12841800000024,-957.3076170000004,63.7177729999994
313,-9.230713000000378,-557.3076170000004,30.384765999999217,-51.153809000000365,108.20507799999996,116.0258789999998,119.87158199999976,125.38476599999922,122.94873000000007,112.56396500000028,41.53857400000015,86.9228520000006,-959.871826,61.410155999999915
314,-13.461425999999847,-555.0,27.30761700000039,-51.28198199999997,101.79492200000004,116.79492200000004,119.10253900000043,120.89746099999957,117.05126999999993,104.74365200000011,33.589844000000085,85.12841800000024,-962.0512699999999,58.974121000000196
315,-18.71801800000003,-551.794922,23.717772999999397,-55.0,95.12841800000024,117.30761700000039,116.0258789999998,115.25634799999989,110.25634799999989,95.89746099999957,27.17968800000017,84.35888699999941,-962.179443,56.025878999999804
316,-23.846190999999635,-550.2563479999999,20.25634799999989,-59.48706099999981,88.84619099999964,117.17968800000017,112.05126999999993,109.74365200000011,104.61523400000078,89.61523400000078,24.871581999999762,83.3334960000002,-959.7436520000001,53.0771479999994
317,-26.28198199999997,-550.0,19.230956999999762,-60.76928699999962,85.51269500000035,116.79492200000004,109.10253900000043,106.9228520000006,102.17968800000017,89.48730499999965,27.69238299999961,82.43603499999972,-954.871826,52.05126999999993
318,-23.974365000000034,-548.4614259999998,22.30761700000039,-56.41015600000037,88.58984400000008,116.41015599999992,109.23095699999976,109.10253900000043,104.23095699999976,96.0258789999998,34.74365200000011,82.94873000000007,-947.179443,54.23095699999976
319,-17.820557000000008,-543.205078,28.717772999999397,-47.82055700000001,98.3334960000002,116.2822270000006,113.0771479999994,116.15380900000036,110.25634799999989,106.79492200000004,43.20507799999996,85.38476599999922,-937.179443,58.846190999999635
320,-11.41015600000037,-535.1281740000004,35.64111300000059,-39.74365200000011,110.38476599999922,116.2822270000006,118.58984400000008,124.48730499999965,117.17968800000017,116.41015599999992,49.35888699999941,88.84619099999964,-926.794922,63.20507799999996
321,-8.58984399999963,-527.9487299999996,39.48730499999965,-36.53857400000015,118.58984400000008,116.79492200000004,123.0771479999994,129.23095699999976,121.9228520000006,120.25634799999989,51.153809000000365,91.6665039999998,-918.3332519999999,65.0
322,-10.256347999999889,-524.2307130000004,38.589844000000085,-38.846190999999635,118.46142599999985,117.94873000000007,123.9741210000002,127.82031300000017,122.69238299999961,117.05126999999993,49.35888699999941,92.43603499999972,-913.205078,64.23095699999976
323,-14.358886999999868,-523.974365,34.23095699999976,-44.10253899999998,110.89746099999957,118.7177729999994,121.2822270000006,122.17968800000017,119.74365200000011,109.87158199999976,46.53857400000015,90.89746099999957,-910.897461,62.56396500000028
324,-17.179442999999992,-524.3588869999999,29.871581999999762,-48.20507799999996,101.53857400000015,117.94873000000007,117.43603499999972,116.6665039999998,115.25634799999989,103.84619099999964,45.64111300000059,88.3334960000002,-909.2307129999999,61.666503999999804
325,-17.30761700000039,-522.179443,28.717772999999397,-48.20507799999996,96.79492200000004,116.0258789999998,115.0,114.61523400000078,112.69238299999961,103.46142599999985,48.333496000000196,86.79492200000004,-905.897461,62.82031300000017
326,-16.025634999999966,-516.6667479999996,31.666503999999804,-44.23071300000038,99.10253900000043,114.10253900000043,114.87158199999976,115.76904300000024,113.20507799999996,108.84619099999964,53.333496000000196,87.17968800000017,-900.128174,65.38476599999922
327,-15.38452099999995,-510.7692869999996,36.2822270000006,-38.846190999999635,104.48730499999965,112.82031300000017,115.89746099999957,117.30761700000039,115.76904300000024,116.41015599999992,57.82031300000017,88.7177729999994,-892.9487300000001,67.82031300000017
328,-15.38452099999995,-508.20507799999996,39.35888699999941,-35.64111300000013,106.9228520000006,111.2822270000006,116.15380900000036,116.53857400000015,116.9228520000006,120.25634799999989,59.102539000000434,89.35888699999941,-887.3076170000004,68.58984400000008
329,-15.1281740000004,-510.2563479999999,39.48730499999965,-35.64111300000013,103.58984400000008,108.7177729999994,115.12841800000024,113.3334960000002,114.23095699999976,117.17968800000017,57.43603499999972,88.3334960000002,-884.2307129999999,68.20507799999996
330,-13.974365000000034,-513.8461909999996,37.94873000000007,-37.30761700000039,98.20507799999996,106.0258789999998,113.58984400000008,110.0,108.7177729999994,108.7177729999994,54.61523400000078,86.6665039999998,-882.9487300000001,67.56396500000028
331,-12.435790999999426,-514.615479,36.79492200000004,-37.17944299999999,96.79492200000004,105.0,113.20507799999996,109.23095699999976,103.9741210000002,100.76904300000024,53.0771479999994,86.79492200000004,-881.281982,67.69238299999961
332,-11.28198199999997,-509.8718259999996,37.69238299999961,-33.46142599999985,101.6665039999998,106.9228520000006,114.87158199999976,111.41015599999992,103.20507799999996,98.46142599999985,53.46142599999985,89.87158199999976,-877.4357909999999,67.94873000000007
333,-11.28198199999997,-501.41015600000037,40.12841800000024,-27.435790999999426,109.61523400000078,110.38476599999922,117.56396500000028,115.0,106.9228520000006,102.69238299999961,55.0,94.10253900000043,-871.1538089999999,67.56396500000028
334,-12.692382999999609,-493.58984399999963,42.30761700000039,-22.564209000000574,114.35888699999941,113.9741210000002,119.23095699999976,117.17968800000017,112.30761700000039,109.74365200000011,55.897460999999566,96.0258789999998,-864.871826,66.2822270000006
335,-14.487060999999812,-490.2563479999999,42.43603499999972,-21.666747999999643,112.43603499999972,115.76904300000024,118.7177729999994,116.79492200000004,115.51269500000035,114.35888699999941,55.38476599999922,93.9741210000002,-861.6667480000001,65.0
336,-15.897461000000021,-491.53857400000015,40.64111300000059,-24.8718259999996,105.0,115.25634799999989,116.6665039999998,114.61523400000078,114.48730499999965,113.20507799999996,53.589844000000085,89.74365200000011,-862.6923829999996,65.0
337,-16.666747999999643,-493.71801800000003,38.20507799999996,-29.74365200000011,96.6665039999998,112.56396500000028,114.87158199999976,112.69238299999961,110.0,107.05126999999993,51.79492200000004,87.17968800000017,-865.6411129999997,66.6665039999998
338,-16.794922000000042,-493.076904,36.666503999999804,-33.20507799999996,92.05126999999993,108.84619099999964,114.23095699999976,112.56396500000028,105.89746099999957,99.74365200000011,50.897460999999566,88.58984400000008,-866.1538089999999,68.20507799999996
339,-16.41015600000037,-488.58984399999963,36.79492200000004,-32.69238299999961,92.56396500000028,106.2822270000006,114.23095699999976,114.35888699999941,105.51269500000035,95.89746099999957,51.9228520000006,92.82031300000017,-861.5385739999997,68.3334960000002
340,-14.743652000000111,-481.79492200000004,38.7177729999994,-27.69238299999961,97.05126999999993,106.2822270000006,114.74365200000011,117.43603499999972,109.87158199999976,98.84619099999964,54.35888699999941,97.30761700000039,-852.0512699999999,67.17968800000017
341,-11.28198199999997,-475.5129390000002,41.666503999999804,-19.487060999999812,101.79492200000004,108.20507799999996,115.64111300000059,120.0,116.41015599999992,107.43603499999972,56.53857400000015,99.48730499999965,-840.897461,66.41015599999992
342,-7.435790999999426,-472.0512700000004,44.23095699999976,-11.025634999999966,103.9741210000002,111.15380900000036,116.79492200000004,120.64111300000059,120.89746099999957,116.53857400000015,56.666503999999804,98.20507799999996,-832.6923829999996,67.17968800000017
343,-5.897461000000021,-472.5642090000006,45.0,-5.641113000000132,102.82031300000017,114.10253900000043,117.30761700000039,119.35888699999941,120.89746099999957,119.74365200000011,54.61523400000078,94.48730499999965,-830.7692870000001,68.20507799999996
344,-8.58984399999963,-476.28198199999997,43.7177729999994,-4.871825999999601,99.74365200000011,116.41015599999992,116.6665039999998,117.05126999999993,117.17968800000017,115.25634799999989,52.05126999999993,90.38476599999922,-834.3588870000003,67.56396500000028
345,-14.61547900000005,-481.15380900000036,41.666503999999804,-7.564209000000574,97.05126999999993,117.69238299999961,113.9741210000002,115.0,113.20507799999996,106.79492200000004,51.153809000000365,87.94873000000007,-838.8461910000001,64.23095699999976
346,-20.769286999999622,-484.2307130000004,39.87158199999976,-11.153809000000365,96.0258789999998,117.05126999999993,110.25634799999989,113.9741210000002,111.41015599999992,100.51269500000035,51.79492200000004,87.69238299999961,-839.615479,59.35888699999941
347,-25.0,-483.97436500000003,38.7177729999994,-12.435790999999426,96.2822270000006,114.48730499999965,107.17968800000017,113.0771479999994,111.41015599999992,99.48730499999965,51.79492200000004,88.20507799999996,-835.0,55.38476599999922
348,-26.28198199999997,-480.2563479999999,38.333496000000196,-9.8718259999996,97.56396500000028,111.0258789999998,106.79492200000004,111.15380900000036,110.25634799999989,101.53857400000015,49.35888699999941,87.56396500000028,-826.6667480000001,54.74365200000011
349,-25.512939000000188,-474.102539,38.846190999999635,-3.4614259999998467,99.48730499999965,108.46142599999985,109.35888699999941,107.94873000000007,106.41015599999992,102.43603499999972,44.87158199999976,86.0258789999998,-817.5642090000001,57.43603499999972
350,-23.846190999999635,-467.3076170000004,40.12841800000024,4.102539000000434,101.0258789999998,107.17968800000017,112.69238299999961,104.48730499999965,100.51269500000035,98.9741210000002,40.64111300000059,84.87158199999976,-809.615479,60.897460999999566
351,-22.69238299999961,-462.3076170000004,41.025878999999804,9.230956999999762,100.0,106.0258789999998,113.46142599999985,101.6665039999998,94.61523400000078,91.6665039999998,37.94873000000007,84.87158199999976,-803.5898440000001,61.9228520000006
352,-22.948729999999614,-461.41015600000037,40.25634799999989,9.871581999999762,95.38476599999922,104.10253900000043,110.0,99.74365200000011,90.0,83.46142599999985,36.9228520000006,85.0,-799.3588870000003,59.48730499999965
353,-25.0,-464.4870609999998,37.94873000000007,6.922852000000603,89.10253900000043,102.43603499999972,103.84619099999964,97.69238299999961,86.9228520000006,78.0771479999994,36.410155999999915,84.10253900000043,-795.2563479999999,55.51269500000035
354,-27.564209000000574,-467.820557,35.897460999999566,4.102539000000434,85.0,103.0771479999994,99.48730499999965,95.64111300000059,84.87158199999976,78.20507799999996,35.897460999999566,82.56396500000028,-789.3588870000003,53.589844000000085
355,-28.076904000000013,-465.897461,36.79492200000004,6.025878999999804,86.53857400000015,106.9228520000006,101.0258789999998,95.38476599999922,84.48730499999965,83.20507799999996,36.025878999999804,82.69238299999961,-779.871826,55.897460999999566
356,-24.61547900000005,-455.7692869999996,40.897460999999566,13.717772999999397,93.46142599999985,111.79492200000004,108.58984400000008,98.0771479999994,86.2822270000006,90.0,37.56396500000028,85.38476599999922,-766.6667480000001,61.153809000000365
357,-18.846190999999635,-440.7692869999996,45.897460999999566,23.461425999999847,101.53857400000015,115.12841800000024,117.17968800000017,102.30761700000039,89.48730499999965,94.35888699999941,40.51269500000035,88.58984400000008,-752.9487300000001,65.64111300000059
358,-15.769286999999622,-428.97436500000003,48.20507799999996,29.102539000000434,105.64111300000059,115.38476599999922,120.38476599999922,104.10253900000043,91.79492200000004,93.7177729999994,43.589844000000085,88.9741210000002,-743.076904,65.38476599999922
359,-18.71801800000003,-427.179443,45.64111300000059,27.69238299999961,103.46142599999985,113.58984400000008,115.76904300000024,100.51269500000035,90.64111300000059,88.9741210000002,44.102539000000434,85.12841800000024,-739.8718259999996,60.0
360,-26.153809000000365,-435.0,40.0,21.538574000000153,97.94873000000007,111.9228520000006,106.53857400000015,92.69238299999961,85.89746099999957,83.58984400000008,41.025878999999804,79.10253900000043,-741.6667479999996,53.46142599999985
361,-32.30761700000039,-444.7436520000001,35.25634799999989,17.05126999999993,94.61523400000078,111.9228520000006,99.48730499999965,85.64111300000059,80.51269500000035,80.76904300000024,36.153809000000365,74.61523400000078,-743.5898439999996,50.51269500000035
362,-32.82055700000001,-447.9487299999996,34.35888699999941,18.974121000000196,96.53857400000015,113.9741210000002,99.48730499999965,84.23095699999976,78.0771479999994,81.15380900000036,33.333496000000196,74.23095699999976,-741.923096,52.43603499999972
363,-28.076904000000013,-441.53857400000015,36.666503999999804,26.410155999999915,102.30761700000039,116.53857400000015,105.76904300000024,89.61523400000078,80.25634799999989,82.69238299999961,34.74365200000011,77.69238299999961,-736.794922,56.666503999999804
364,-22.179442999999992,-429.35888699999987,39.74365200000011,34.87158199999976,107.17968800000017,117.69238299999961,113.58984400000008,97.94873000000007,85.51269500000035,83.7177729999994,39.87158199999976,82.30761700000039,-730.7692869999996,59.74365200000011
365,-18.333252000000357,-418.46142599999985,41.410155999999915,40.0,107.69238299999961,116.53857400000015,118.0771479999994,104.10253900000043,91.2822270000006,84.23095699999976,46.153809000000365,85.51269500000035,-726.1538090000004,60.51269500000035
366,-17.179442999999992,-413.84619099999964,41.79492200000004,40.76904300000024,104.23095699999976,114.10253900000043,118.3334960000002,105.38476599999922,95.51269500000035,85.0,51.2822270000006,86.0258789999998,-722.5642090000006,60.51269500000035
367,-16.666747999999643,-415.38452099999995,42.17968800000017,39.35888699999941,100.0,112.94873000000007,116.9228520000006,103.20507799999996,97.56396500000028,86.53857400000015,53.7177729999994,85.12841800000024,-718.205078,61.79492200000004
368,-15.0,-418.84619099999964,43.589844000000085,38.46142599999985,98.0771479999994,113.9741210000002,116.53857400000015,100.89746099999957,98.46142599999985,88.46142599999985,53.7177729999994,84.35888699999941,-711.923096,64.74365200000011
369,-12.820557000000008,-419.102539,45.76904300000024,38.7177729999994,98.9741210000002,116.15380900000036,117.82031300000017,101.2822270000006,99.23095699999976,90.25634799999989,52.05126999999993,85.0,-705.2563479999999,67.69238299999961
370,-12.564209000000574,-414.4870609999998,46.666503999999804,38.974121000000196,100.64111300000059,117.30761700000039,118.46142599999985,103.46142599999985,100.25634799999989,91.6665039999998,50.0,85.89746099999957,-701.025635,67.69238299999961
371,-16.41015600000037,-407.5642090000006,44.74365200000011,37.94873000000007,101.2822270000006,116.9228520000006,116.41015599999992,105.0,100.64111300000059,92.17968800000017,47.94873000000007,85.64111300000059,-700.897461,63.46142599999985
372,-22.948729999999614,-402.6923829999996,40.38476599999922,36.53857400000015,100.38476599999922,116.0258789999998,112.17968800000017,104.35888699999941,100.25634799999989,92.43603499999972,46.666503999999804,83.84619099999964,-703.205078,56.9228520000006
373,-28.461425999999847,-401.79492200000004,36.025878999999804,36.025878999999804,99.35888699999941,115.64111300000059,108.3334960000002,101.9228520000006,100.38476599999922,93.46142599999985,46.79492200000004,82.30761700000039,-704.102539,52.30761700000039
374,-29.487060999999812,-402.6923829999996,34.23095699999976,37.82031300000017,99.48730499999965,116.15380900000036,106.6665039999998,100.25634799999989,101.9228520000006,96.53857400000015,48.846190999999635,82.69238299999961,-700.2563479999999,52.82031300000017
375,-25.641113000000132,-401.66674799999964,36.025878999999804,41.666503999999804,101.15380900000036,117.05126999999993,107.69238299999961,101.15380900000036,105.12841800000024,101.41015599999992,52.69238299999961,85.12841800000024,-691.025635,58.0771479999994
376,-18.58984399999963,-396.02563499999997,40.64111300000059,46.79492200000004,103.7177729999994,118.0771479999994,110.0,104.48730499999965,109.10253900000043,107.17968800000017,58.0771479999994,88.3334960000002,-678.718018,64.35888699999941
377,-10.641113000000132,-386.923096,46.410155999999915,52.56396500000028,105.76904300000024,118.46142599999985,112.56396500000028,108.58984400000008,113.0771479999994,112.43603499999972,63.974121000000196,90.89746099999957,-666.6667479999996,67.30761700000039
378,-3.717772999999397,-377.5642090000006,51.410155999999915,58.20507799999996,107.05126999999993,118.3334960000002,114.74365200000011,111.79492200000004,116.41015599999992,115.38476599999922,68.3334960000002,92.30761700000039,-657.4357909999994,65.0
379,1.153809000000365,-370.38452099999995,54.102539000000434,62.94873000000007,107.05126999999993,117.94873000000007,116.0258789999998,112.82031300000017,118.20507799999996,115.0,69.87158199999976,92.69238299999961,-651.6667479999996,58.974121000000196
380,3.2050779999999577,-366.923096,54.102539000000434,65.64111300000059,105.51269500000035,117.94873000000007,115.89746099999957,111.41015599999992,117.17968800000017,111.41015599999992,69.10253900000043,93.3334960000002,-648.205078,53.333496000000196
381,2.1796880000001693,-366.923096,52.30761700000039,65.76904300000024,102.94873000000007,118.20507799999996,113.0771479999994,108.0771479999994,113.20507799999996,105.64111300000059,67.94873000000007,94.48730499999965,-645.384521,50.897460999999566
382,-1.4101559999999154,-368.46142599999985,50.25634799999989,64.61523400000078,100.89746099999957,118.3334960000002,108.0771479999994,103.84619099999964,107.56396500000028,100.12841800000024,67.94873000000007,95.89746099999957,-642.5642090000006,51.53857400000015
383,-4.61547900000005,-369.102539,49.48730499999965,65.0,101.41015599999992,117.82031300000017,102.94873000000007,100.38476599999922,102.82031300000017,98.20507799999996,69.35888699999941,97.05126999999993,-638.8461909999996,53.974121000000196
