,EEG.AF3,EEG.F7,EEG.F3,EEG.FC5,EEG.T7,EEG.P7,EEG.O1,EEG.O2,EEG.P8,EEG.T8,EEG.FC6,EEG.F4,EEG.F8,EEG.AF4
0,107.05126999999993,62.17968800000017,102.05126999999993,-60.38452099999995,106.2822270000006,116.0258789999998,113.46142599999985,112.17968800000017,110.89746099999957,181.0258789999998,80.76904300000024,114.48730499999965,131.53857400000015,100.12841800000024
1,106.41015599999992,61.025878999999804,102.30761700000039,-54.48706099999981,113.3334960000002,115.89746099999957,113.20507799999996,112.05126999999993,107.82031300000017,184.10253900000043,78.9741210000002,114.23095699999976,126.15380900000036,97.43603499999972
2,113.3334960000002,68.84619099999964,108.84619099999964,-43.07690400000001,115.25634799999989,116.41015599999992,115.38476599999922,120.12841800000024,117.30761700000039,196.79492200000004,86.0258789999998,115.76904300000024,129.48730499999965,105.25634799999989
3,122.43603499999972,79.74365200000011,116.79492200000004,-30.89746100000002,110.89746099999957,116.79492200000004,117.94873000000007,130.6411130000006,132.3076170000004,211.9228520000006,95.89746099999957,117.82031300000017,137.05126999999993,117.82031300000017
4,127.82031300000017,86.6665039999998,121.0258789999998,-22.69238299999961,105.0,117.05126999999993,119.10253900000043,136.53857400000015,143.58984400000008,222.05126999999993,100.76904300000024,118.7177729999994,142.43603499999972,126.6665039999998
5,127.05126999999993,86.41015599999992,119.74365200000011,-19.358886999999868,103.58984400000008,116.9228520000006,118.58984400000008,135.2563479999999,145.6411130000006,224.61523400000078,98.46142599999985,117.94873000000007,142.17968800000017,127.43603499999972
6,121.9228520000006,80.25634799999989,115.38476599999922,-18.076904000000013,107.82031300000017,116.53857400000015,117.30761700000039,129.48730499999965,139.48730499999965,222.17968800000017,92.56396500000028,116.15380900000036,137.6923829999996,121.15380900000036
7,116.2822270000006,71.79492200000004,111.15380900000036,-15.897461000000021,114.10253900000043,116.0258789999998,116.2822270000006,123.9741210000002,130.76904300000024,219.3588869999994,89.61523400000078,115.12841800000024,132.56396500000028,113.3334960000002
8,112.94873000000007,65.25634799999989,110.0,-10.897461000000021,117.56396500000028,116.15380900000036,115.76904300000024,122.17968800000017,125.0,218.7177729999994,92.82031300000017,115.89746099999957,130.12841800000024,109.35888699999941
9,112.30761700000039,63.333496000000196,112.05126999999993,-2.9487300000000687,116.9228520000006,116.79492200000004,116.0258789999998,121.9228520000006,123.0771479999994,219.48730499999965,99.10253900000043,117.82031300000017,130.2563479999999,110.89746099999957
10,113.46142599999985,66.41015599999992,114.87158199999976,6.794922000000042,115.0,118.0771479999994,116.9228520000006,117.94873000000007,120.12841800000024,217.05126999999993,101.6665039999998,118.7177729999994,130.0,115.25634799999989
11,115.0,71.15380900000036,115.38476599999922,15.897460999999566,115.51269500000035,119.10253900000043,118.46142599999985,106.6665039999998,110.51269500000035,208.0771479999994,96.2822270000006,116.9228520000006,127.05126999999993,118.3334960000002
12,117.17968800000017,72.17968800000017,113.20507799999996,22.94873000000007,118.46142599999985,119.61523400000078,121.15380900000036,92.17968800000017,94.74365200000011,194.61523400000078,85.38476599999922,113.46142599999985,122.69238299999961,118.58984400000008
13,121.6665039999998,65.76904300000024,111.53857400000015,27.94873000000007,119.35888699999941,118.9741210000002,125.25634799999989,83.9741210000002,81.6665039999998,185.38476599999922,78.0771479999994,110.89746099999957,122.30761700000039,118.7177729999994
14,129.10253900000043,53.20507799999996,113.84619099999964,33.0771479999994,113.7177729999994,117.43603499999972,129.7436520000001,89.74365200000011,82.05126999999993,189.23095699999976,82.05126999999993,112.30761700000039,131.2822270000006,123.0771479999994
15,139.48730499999965,41.79492200000004,120.76904300000024,40.76904300000024,102.17968800000017,115.76904300000024,133.0771479999994,108.84619099999964,98.9741210000002,208.84619099999964,97.94873000000007,118.3334960000002,149.3588869999994,133.84619099999964
16,151.79492200000004,40.25634799999989,130.12841800000024,53.7177729999994,92.17968800000017,114.74365200000011,135.0,132.6923829999996,125.0,238.20507799999996,118.58984400000008,126.6665039999998,170.51269500000035,150.0
17,165.76904300000024,54.61523400000078,140.12841800000024,73.84619099999964,92.94873000000007,115.0,136.6665039999998,151.2822270000006,148.20507799999996,266.2822270000006,134.48730499999965,134.10253900000043,186.41015599999992,169.10253900000043
18,182.6923829999996,84.35888699999941,149.87158199999976,102.17968800000017,106.2822270000006,116.41015599999992,140.0,159.10253900000043,159.61523400000078,283.84619099999964,141.53857400000015,138.84619099999964,192.6923829999996,188.9741210000002
19,202.56396500000028,121.9228520000006,159.23095699999976,136.15380900000036,125.0,117.94873000000007,145.0,157.56396500000028,157.56396500000028,287.82031300000017,141.0258789999998,140.89746099999957,190.38476599999922,207.6923829999996
20,222.17968800000017,156.15380900000036,166.15380900000036,168.84619099999964,137.17968800000017,118.46142599999985,149.7436520000001,150.6411130000006,146.0258789999998,281.15380900000036,135.89746099999957,140.51269500000035,181.79492200000004,221.41015599999992
21,235.2563479999999,178.58984400000008,168.0771479999994,192.3076170000004,135.76904300000024,117.56396500000028,150.76904300000024,141.53857400000015,130.89746099999957,268.84619099999964,127.05126999999993,137.6923829999996,167.3076170000004,226.2822270000006
22,237.17968800000017,188.7177729999994,163.20507799999996,204.23095699999976,122.94873000000007,116.15380900000036,146.0258789999998,131.0258789999998,117.05126999999993,254.23095699999976,113.0771479999994,132.6923829999996,145.6411130000006,221.53857400000015
23,229.23095699999976,193.0771479999994,153.46142599999985,208.46142599999985,107.94873000000007,115.64111300000059,136.53857400000015,119.10253900000043,106.41015599999992,239.10253900000043,93.9741210000002,126.53857400000015,117.30761700000039,210.6411130000006
24,218.7177729999994,199.7436520000001,143.46142599999985,211.41015599999992,99.87158199999976,116.6665039999998,126.6665039999998,106.15380900000036,97.30761700000039,224.3588869999994,73.58984400000008,121.0258789999998,86.15380900000036,199.87158199999976
25,213.20507799999996,213.0771479999994,137.82031300000017,216.15380900000036,102.43603499999972,118.46142599999985,120.38476599999922,93.58984400000008,87.30761700000039,210.89746099999957,57.43603499999972,117.17968800000017,57.94873000000007,193.84619099999964
26,215.89746099999957,231.41015599999992,138.0771479999994,222.05126999999993,112.17968800000017,119.48730499999965,119.10253900000043,84.10253900000043,76.53857400000015,200.51269500000035,49.23095699999976,115.38476599999922,37.17968800000017,193.7177729999994
27,224.10253900000043,250.51269500000035,142.17968800000017,226.53857400000015,121.53857400000015,119.48730499999965,121.41015599999992,80.76904300000024,68.7177729999994,194.48730499999965,47.94873000000007,115.89746099999957,25.128418000000238,197.3076170000004
28,232.43603499999972,266.79492200000004,146.15380900000036,227.6923829999996,123.84619099999964,118.84619099999964,124.61523400000078,84.23095699999976,67.94873000000007,192.56396500000028,48.846190999999635,117.94873000000007,19.230956999999762,200.89746099999957
29,235.2563479999999,278.5898440000001,146.6665039999998,224.3588869999994,117.56396500000028,118.46142599999985,125.89746099999957,90.64111300000059,72.43603499999972,191.15380900000036,45.51269500000035,119.61523400000078,13.846190999999635,200.76904300000024
30,230.0,285.6411130000006,141.9228520000006,216.6665039999998,106.79492200000004,117.94873000000007,123.46142599999985,93.46142599999985,76.15380900000036,185.76904300000024,34.74365200000011,118.84619099999964,3.717772999999397,194.7436520000001
31,218.9741210000002,288.9741210000002,134.10253900000043,206.2822270000006,97.94873000000007,116.0258789999998,118.20507799999996,89.35888699999941,73.9741210000002,175.0,18.717772999999397,115.25634799999989,-12.692382999999609,184.23095699999976
32,207.05126999999993,290.3847659999992,127.30761700000039,197.17968800000017,94.61523400000078,111.9228520000006,112.94873000000007,80.64111300000059,66.6665039999998,163.0771479999994,3.846190999999635,111.15380900000036,-32.17944299999999,172.94873000000007
33,199.3588869999994,292.3076170000004,124.74365200000011,192.6923829999996,96.0258789999998,106.79492200000004,110.76904300000024,73.84619099999964,59.102539000000434,156.41015599999992,-4.230713000000378,109.10253900000043,-48.71801800000003,165.0
34,197.3076170000004,296.79492200000004,126.2822270000006,194.10253900000043,98.3334960000002,103.20507799999996,112.30761700000039,74.10253900000043,57.05126999999993,158.9741210000002,-3.717772999999397,110.51269500000035,-58.46142599999985,162.17968800000017
35,198.58984400000008,304.48730499999965,129.48730499999965,198.20507799999996,99.48730499999965,103.20507799999996,116.0258789999998,81.79492200000004,62.56396500000028,169.3588869999994,2.4360349999997197,113.84619099999964,-61.92309599999999,162.6923829999996
36,198.84619099999964,313.3334960000002,131.6665039999998,200.2563479999999,100.12841800000024,106.9228520000006,118.9741210000002,92.17968800000017,73.3334960000002,179.7436520000001,8.589844000000085,116.2822270000006,-63.846190999999635,162.82031300000017
37,193.84619099999964,319.3588869999994,130.76904300000024,196.6665039999998,102.30761700000039,112.30761700000039,119.23095699999976,98.46142599999985,83.0771479999994,180.6411130000006,8.589844000000085,115.12841800000024,-71.02563499999997,157.82031300000017
38,181.79492200000004,319.23095699999976,126.0258789999998,187.43603499999972,106.2822270000006,116.41015599999992,117.05126999999993,96.0258789999998,85.0,167.3076170000004,-0.6411130000005869,110.0,-88.07690400000001,145.76904300000024
39,165.2563479999999,313.7177729999994,118.84619099999964,175.76904300000024,110.76904300000024,117.94873000000007,114.74365200000011,85.89746099999957,76.79492200000004,144.23095699999976,-16.923095999999987,102.43603499999972,-112.94872999999961,128.58984400000008
40,150.0,308.20507799999996,112.56396500000028,166.15380900000036,113.84619099999964,117.30761700000039,114.87158199999976,74.61523400000078,63.46142599999985,123.20507799999996,-32.564209000000574,96.2822270000006,-137.820557,112.43603499999972
41,141.53857400000015,308.5898440000001,110.0,161.79492200000004,115.64111300000059,116.15380900000036,118.20507799999996,70.38476599999922,54.74365200000011,113.84619099999964,-40.0,94.61523400000078,-152.9487299999996,103.9741210000002
42,141.79492200000004,317.17968800000017,111.53857400000015,162.17968800000017,117.17968800000017,115.89746099999957,123.20507799999996,76.6665039999998,57.17968800000017,116.79492200000004,-36.66674799999964,97.69238299999961,-153.97436500000003,104.61523400000078
43,146.79492200000004,330.6411130000006,115.0,162.43603499999972,119.48730499999965,116.6665039999998,127.82031300000017,88.9741210000002,68.7177729999994,124.23095699999976,-27.051270000000386,102.30761700000039,-144.7436520000001,110.64111300000059
44,150.12841800000024,343.0771479999994,117.69238299999961,157.3076170000004,123.58984400000008,117.43603499999972,130.76904300000024,99.48730499999965,81.6665039999998,127.17968800000017,-18.71801800000003,105.12841800000024,-133.58984399999963,115.38476599999922
45,147.6923829999996,350.89746099999957,118.7177729999994,146.0258789999998,128.9741210000002,117.56396500000028,132.17968800000017,102.82031300000017,89.61523400000078,122.69238299999961,-16.025634999999966,105.12841800000024,-127.05127000000039,115.64111300000059
46,140.0,353.46142599999985,118.84619099999964,131.79492200000004,134.7436520000001,117.43603499999972,132.17968800000017,100.12841800000024,91.53857400000015,113.46142599999985,-17.820557000000008,104.10253900000043,-125.76928699999962,111.9228520000006
47,129.7436520000001,352.17968800000017,118.84619099999964,118.0771479999994,138.46142599999985,117.05126999999993,131.2822270000006,95.64111300000059,90.25634799999989,104.35888699999941,-21.538574000000153,104.10253900000043,-127.30761700000039,106.2822270000006
48,118.84619099999964,347.3076170000004,117.17968800000017,104.35888699999941,138.0771479999994,116.53857400000015,129.23095699999976,91.2822270000006,87.69238299999961,96.53857400000015,-26.538574000000153,104.61523400000078,-130.38452099999995,98.84619099999964
49,107.30761700000039,338.9741210000002,111.9228520000006,87.43603499999972,134.23095699999976,115.89746099999957,126.0258789999998,86.41015599999992,83.7177729999994,88.3334960000002,-34.61547900000005,103.0771479999994,-135.2563479999999,88.20507799999996
50,94.87158199999976,328.7177729999994,102.56396500000028,65.89746099999957,130.12841800000024,115.38476599999922,122.05126999999993,80.51269500000035,78.20507799999996,77.56396500000028,-46.53857400000015,98.20507799999996,-141.53857400000015,74.35888699999941
51,83.46142599999985,320.12841800000024,92.05126999999993,42.82031300000017,129.3588869999994,115.0,119.10253900000043,75.38476599999922,73.3334960000002,65.25634799999989,-58.974365000000034,91.2822270000006,-146.41015600000037,60.897460999999566
52,75.38476599999922,315.3847659999992,84.48730499999965,21.794922000000042,131.9228520000006,114.74365200000011,118.20507799999996,73.0771479999994,71.41015599999992,54.23095699999976,-67.17944299999999,85.89746099999957,-147.0512700000004,51.9228520000006
53,71.2822270000006,313.20507799999996,82.17968800000017,5.0,134.3588869999994,114.23095699999976,118.84619099999964,73.3334960000002,72.30761700000039,46.666503999999804,-67.56420900000057,84.23095699999976,-141.923096,49.48730499999965
54,69.35888699999941,309.7436520000001,83.9741210000002,-8.58984399999963,133.0771479999994,113.46142599999985,118.84619099999964,74.10253900000043,73.0771479999994,42.05126999999993,-61.28198199999997,85.89746099999957,-132.0512700000004,51.2822270000006
55,66.53857400000015,301.15380900000036,86.15380900000036,-20.512939000000188,127.82031300000017,112.30761700000039,116.2822270000006,72.94873000000007,71.41015599999992,37.94873000000007,-51.79492200000004,88.58984400000008,-119.10253899999998,53.7177729999994
56,61.53857400000015,287.3076170000004,86.2822270000006,-31.923095999999987,122.05126999999993,110.64111300000059,111.41015599999992,70.64111300000059,67.69238299999961,32.82031300000017,-42.82055700000001,90.12841800000024,-104.35888699999987,54.102539000000434
57,55.25634799999989,271.0258789999998,84.35888699999941,-42.69238299999961,120.12841800000024,108.84619099999964,106.41015599999992,69.87158199999976,65.51269500000035,28.717772999999397,-36.025634999999966,90.25634799999989,-88.20507799999996,52.94873000000007
58,50.64111300000059,257.3076170000004,82.30761700000039,-52.051270000000386,123.20507799999996,108.20507799999996,104.48730499999965,73.58984400000008,68.46142599999985,28.846190999999635,-30.38452099999995,90.38476599999922,-70.51293900000019,53.7177729999994
59,50.0,249.23095699999976,82.05126999999993,-59.35888699999987,128.46142599999985,109.74365200000011,106.6665039999998,82.05126999999993,77.56396500000028,34.87158199999976,-24.487060999999812,91.9228520000006,-51.41015600000037,58.846190999999635
60,52.69238299999961,245.2563479999999,83.3334960000002,-65.0,131.15380900000036,113.0771479999994,111.2822270000006,92.43603499999972,90.0,43.846190999999635,-17.564209000000574,94.87158199999976,-32.435790999999426,66.9228520000006
61,54.48730499999965,240.12841800000024,84.35888699999941,-70.64111300000013,127.05126999999993,115.76904300000024,114.87158199999976,100.25634799999989,100.89746099999957,49.87158199999976,-10.256347999999889,97.94873000000007,-15.38452099999995,73.20507799999996
62,51.53857400000015,228.7177729999994,82.69238299999961,-78.46142599999985,116.0258789999998,115.76904300000024,115.0,101.9228520000006,106.0258789999998,49.23095699999976,-3.846190999999635,98.7177729999994,-2.1796869999998307,72.56396500000028
63,43.7177729999994,211.41015599999992,77.82031300000017,-89.8718259999996,101.53857400000015,112.17968800000017,110.89746099999957,96.53857400000015,104.48730499999965,43.589844000000085,1.9228520000006029,96.2822270000006,7.948730000000069,64.74365200000011
64,34.87158199999976,192.82031300000017,71.79492200000004,-103.33325200000036,89.61523400000078,106.2822270000006,104.74365200000011,87.56396500000028,99.87158199999976,38.333496000000196,8.205077999999958,92.30761700000039,16.922852000000603,54.74365200000011
65,29.74365200000011,177.82031300000017,67.43603499999972,-116.53857400000015,83.84619099999964,101.0258789999998,99.61523400000078,80.38476599999922,96.6665039999998,36.53857400000015,14.871581999999762,89.35888699999941,26.538574000000153,48.20507799999996
66,29.615234000000783,167.56396500000028,66.41015599999992,-126.79492200000004,83.84619099999964,98.3334960000002,97.94873000000007,78.46142599999985,97.17968800000017,37.43603499999972,20.897460999999566,89.48730499999965,37.30761700000039,47.82031300000017
67,32.94873000000007,160.76904300000024,68.7177729999994,-132.9487299999996,86.41015599999992,98.9741210000002,100.76904300000024,82.05126999999993,100.64111300000059,38.20507799999996,25.897460999999566,91.9228520000006,50.0,52.56396500000028
68,36.9228520000006,156.15380900000036,73.46142599999985,-134.8718259999996,89.87158199999976,101.15380900000036,106.41015599999992,89.35888699999941,105.38476599999922,37.94873000000007,30.897460999999566,95.0,64.87158199999976,59.87158199999976
69,40.25634799999989,153.3334960000002,79.61523400000078,-132.9487299999996,94.35888699999941,102.94873000000007,112.17968800000017,97.30761700000039,110.76904300000024,37.69238299999961,37.82031300000017,97.69238299999961,81.2822270000006,67.05126999999993
70,42.17968800000017,151.53857400000015,85.25634799999989,-128.46142599999985,100.89746099999957,102.82031300000017,115.89746099999957,103.46142599999985,116.41015599999992,38.333496000000196,46.79492200000004,100.0,96.6665039999998,72.05126999999993
71,41.79492200000004,148.46142599999985,87.94873000000007,-123.97436500000003,108.0771479999994,101.0258789999998,117.43603499999972,106.0258789999998,120.25634799999989,38.589844000000085,55.38476599999922,101.79492200000004,107.05126999999993,72.94873000000007
72,38.846190999999635,141.79492200000004,86.2822270000006,-122.17944299999999,112.05126999999993,99.48730499999965,117.43603499999972,105.12841800000024,120.51269500000035,37.69238299999961,59.48730499999965,102.05126999999993,110.64111300000059,69.10253900000043
73,33.974121000000196,131.79492200000004,80.89746099999957,-124.35888699999987,109.74365200000011,99.61523400000078,116.6665039999998,102.69238299999961,116.6665039999998,36.153809000000365,57.69238299999961,100.12841800000024,109.35888699999941,62.30761700000039
74,28.333496000000196,120.25634799999989,74.48730499999965,-128.97436500000003,101.53857400000015,101.2822270000006,115.51269500000035,100.38476599999922,111.15380900000036,35.897460999999566,52.43603499999972,96.2822270000006,107.82031300000017,56.025878999999804
75,23.205077999999958,109.10253900000043,69.61523400000078,-133.33325200000036,90.64111300000059,102.69238299999961,113.0771479999994,98.9741210000002,107.17968800000017,37.82031300000017,48.46142599999985,91.41015599999992,108.9741210000002,52.17968800000017
76,19.615234000000783,99.35888699999941,67.43603499999972,-134.4870609999998,81.53857400000015,102.82031300000017,109.61523400000078,97.94873000000007,106.41015599999992,41.9228520000006,48.333496000000196,87.30761700000039,113.3334960000002,51.025878999999804
77,18.589844000000085,92.17968800000017,67.94873000000007,-130.76928699999962,78.58984400000008,102.17968800000017,107.17968800000017,97.69238299999961,109.10253900000043,47.43603499999972,52.30761700000039,86.0258789999998,119.48730499999965,51.9228520000006
78,20.641113000000587,88.46142599999985,70.38476599999922,-121.66674799999964,83.58984400000008,102.56396500000028,108.0771479999994,99.23095699999976,113.9741210000002,54.23095699999976,58.7177729999994,88.20507799999996,126.15380900000036,54.61523400000078
79,24.74365200000011,87.05126999999993,73.46142599999985,-109.61547900000005,94.61523400000078,104.10253900000043,112.82031300000017,103.0771479999994,119.10253900000043,61.53857400000015,66.15380900000036,91.79492200000004,132.05126999999993,57.69238299999961
80,28.333496000000196,85.25634799999989,75.38476599999922,-98.84619099999964,105.64111300000059,105.12841800000024,118.3334960000002,107.94873000000007,122.17968800000017,66.9228520000006,72.94873000000007,94.35888699999941,134.87158199999976,58.974121000000196
81,29.102539000000434,80.89746099999957,75.12841800000024,-93.33325200000036,110.51269500000035,103.9741210000002,120.12841800000024,111.15380900000036,121.2822270000006,68.0771479999994,77.43603499999972,93.7177729999994,133.20507799999996,57.05126999999993
82,26.282227000000603,73.84619099999964,72.82031300000017,-93.20507799999996,106.41015599999992,101.2822270000006,115.89746099999957,110.64111300000059,116.15380900000036,64.61523400000078,77.82031300000017,90.12841800000024,127.69238299999961,52.43603499999972
83,21.025878999999804,66.2822270000006,69.10253900000043,-95.51293900000019,96.53857400000015,99.74365200000011,107.43603499999972,106.15380900000036,108.9741210000002,58.7177729999994,74.74365200000011,85.64111300000059,121.6665039999998,47.05126999999993
84,15.769043000000238,60.76904300000024,66.15380900000036,-95.89746100000002,88.46142599999985,101.6665039999998,99.61523400000078,100.12841800000024,103.0771479999994,53.333496000000196,70.64111300000059,82.56396500000028,119.35888699999941,43.46142599999985
85,13.333496000000196,58.333496000000196,65.25634799999989,-91.28198199999997,88.0771479999994,106.0258789999998,97.30761700000039,96.41015599999992,101.9228520000006,51.025878999999804,69.35888699999941,82.30761700000039,122.56396500000028,44.102539000000434
86,16.153809000000365,57.82031300000017,67.05126999999993,-81.41015600000037,96.0258789999998,109.61523400000078,101.9228520000006,97.17968800000017,106.0258789999998,53.333496000000196,72.69238299999961,84.48730499999965,129.48730499999965,48.7177729999994
87,23.589844000000085,57.30761700000039,70.51269500000035,-68.58984399999963,107.56396500000028,110.25634799999989,109.87158199999976,102.30761700000039,113.0771479999994,59.48730499999965,79.23095699999976,87.43603499999972,135.6411130000006,54.87158199999976
88,32.43603499999972,55.76904300000024,73.3334960000002,-56.153809000000365,116.15380900000036,108.58984400000008,116.0258789999998,108.9741210000002,119.48730499999965,67.69238299999961,85.38476599999922,89.35888699999941,137.56396500000028,57.82031300000017
89,37.82031300000017,53.7177729999994,73.84619099999964,-47.30761700000039,117.30761700000039,106.53857400000015,117.56396500000028,114.61523400000078,122.56396500000028,75.25634799999989,87.82031300000017,89.48730499999965,135.38476599999922,55.0
90,37.56396500000028,52.94873000000007,72.17968800000017,-43.07690400000001,111.41015599999992,105.89746099999957,115.38476599999922,117.56396500000028,122.82031300000017,80.64111300000059,86.9228520000006,88.58984400000008,132.56396500000028,48.46142599999985
91,33.0771479999994,52.56396500000028,70.25634799999989,-42.82055700000001,103.20507799999996,107.69238299999961,113.20507799999996,118.3334960000002,123.0771479999994,83.3334960000002,85.0,87.94873000000007,131.6665039999998,43.0771479999994
92,27.56396500000028,48.7177729999994,69.35888699999941,-45.76928699999962,97.30761700000039,110.89746099999957,113.20507799999996,118.20507799999996,124.87158199999976,84.23095699999976,84.10253900000043,87.82031300000017,131.6665039999998,41.79492200000004
93,23.589844000000085,38.20507799999996,68.9741210000002,-50.25634799999989,95.12841800000024,113.20507799999996,114.48730499999965,117.43603499999972,127.43603499999972,84.35888699999941,83.7177729999994,87.30761700000039,129.3588869999994,43.333496000000196
94,22.43603499999972,23.974121000000196,67.69238299999961,-53.46142599999985,95.64111300000059,112.30761700000039,115.38476599999922,115.38476599999922,128.20507799999996,84.35888699999941,82.56396500000028,85.64111300000059,123.46142599999985,44.48730499999965
95,25.25634799999989,14.743652000000111,66.41015599999992,-51.28198199999997,96.9228520000006,109.10253900000043,114.74365200000011,112.43603499999972,125.76904300000024,83.9741210000002,80.89746099999957,83.7177729999994,117.05126999999993,44.48730499999965
96,32.30761700000039,19.358886999999413,67.56396500000028,-40.89746100000002,98.84619099999964,106.41015599999992,114.10253900000043,110.89746099999957,121.79492200000004,83.9741210000002,80.51269500000035,83.84619099999964,115.38476599999922,45.64111300000059
97,42.82031300000017,38.7177729999994,72.82031300000017,-23.71801800000003,102.43603499999972,106.53857400000015,115.64111300000059,112.94873000000007,119.35888699999941,85.0,83.0771479999994,87.05126999999993,121.0258789999998,51.410155999999915
98,53.46142599999985,63.0771479999994,81.15380900000036,-5.769286999999622,108.0771479999994,109.48730499999965,119.74365200000011,117.30761700000039,120.51269500000035,87.56396500000028,88.20507799999996,92.17968800000017,131.15380900000036,61.53857400000015
99,60.12841800000024,79.23095699999976,87.82031300000017,5.897460999999566,113.9741210000002,112.69238299999961,123.7177729999994,120.25634799999989,123.46142599999985,90.51269500000035,93.0771479999994,96.15380900000036,138.9741210000002,71.15380900000036
100,60.51269500000035,79.74365200000011,88.3334960000002,8.077147999999397,117.43603499999972,113.7177729999994,123.9741210000002,118.7177729999994,124.48730499999965,91.2822270000006,94.10253900000043,96.53857400000015,139.23095699999976,74.74365200000011
101,56.410155999999915,67.56396500000028,81.79492200000004,3.717772999999397,117.05126999999993,111.41015599999992,119.74365200000011,112.56396500000028,121.15380900000036,88.46142599999985,90.51269500000035,92.82031300000017,132.43603499999972,70.25634799999989
102,51.153809000000365,52.94873000000007,72.43603499999972,-0.256347999999889,113.58984400000008,106.6665039999998,113.58984400000008,105.12841800000024,115.51269500000035,82.69238299999961,84.61523400000078,87.30761700000039,123.84619099999964,60.51269500000035
103,48.20507799999996,45.12841800000024,66.41015599999992,1.6665039999998044,110.25634799999989,101.6665039999998,110.38476599999922,101.15380900000036,111.6665039999998,76.6665039999998,80.76904300000024,83.3334960000002,119.10253900000043,51.666503999999804
104,49.48730499999965,47.43603499999972,67.56396500000028,10.0,110.51269500000035,98.9741210000002,112.94873000000007,103.9741210000002,112.56396500000028,75.12841800000024,81.2822270000006,83.20507799999996,119.48730499999965,49.102539000000434
105,54.48730499999965,55.38476599999922,75.12841800000024,21.025878999999804,114.48730499999965,99.87158199999976,120.0,112.56396500000028,118.3334960000002,81.0258789999998,85.38476599999922,85.89746099999957,122.05126999999993,53.7177729999994
106,59.48730499999965,61.025878999999804,83.0771479999994,28.974121000000196,118.3334960000002,103.84619099999964,126.41015599999992,121.15380900000036,125.0,93.46142599999985,88.9741210000002,88.46142599999985,121.53857400000015,61.025878999999804
107,60.12841800000024,58.846190999999635,86.0258789999998,30.51269500000035,117.30761700000039,108.84619099999964,127.56396500000028,123.20507799999996,128.20507799999996,106.6665039999998,88.58984400000008,88.84619099999964,116.15380900000036,64.87158199999976
108,55.76904300000024,50.12841800000024,82.43603499999972,27.05126999999993,110.51269500000035,112.17968800000017,122.69238299999961,117.30761700000039,125.76904300000024,113.58984400000008,84.61523400000078,87.43603499999972,108.0771479999994,62.30761700000039
109,49.48730499999965,41.2822270000006,75.51269500000035,23.461425999999847,101.6665039999998,112.05126999999993,115.64111300000059,107.82031300000017,119.74365200000011,110.12841800000024,80.51269500000035,85.76904300000024,102.05126999999993,55.76904300000024
110,45.38476599999922,37.94873000000007,70.12841800000024,23.205077999999958,95.89746099999957,108.20507799999996,110.89746099999957,101.2822270000006,113.84619099999964,98.7177729999994,79.23095699999976,85.12841800000024,100.12841800000024,50.38476599999922
111,44.102539000000434,40.12841800000024,68.84619099999964,26.282227000000603,95.76904300000024,103.0771479999994,110.64111300000059,101.0258789999998,110.64111300000059,86.53857400000015,80.51269500000035,85.0,100.51269500000035,49.35888699999941
112,44.61523400000078,43.974121000000196,70.38476599999922,30.128418000000238,100.12841800000024,99.61523400000078,113.84619099999964,105.64111300000059,110.64111300000059,80.89746099999957,81.9228520000006,84.48730499999965,100.51269500000035,52.69238299999961
113,46.53857400000015,46.666503999999804,73.3334960000002,33.20507799999996,106.2822270000006,99.61523400000078,117.94873000000007,111.41015599999992,113.7177729999994,84.35888699999941,82.30761700000039,83.84619099999964,99.23095699999976,59.23095699999976
114,50.897460999999566,48.589844000000085,76.6665039999998,36.410155999999915,113.20507799999996,103.3334960000002,120.89746099999957,115.89746099999957,119.61523400000078,94.74365200000011,83.3334960000002,85.64111300000059,98.9741210000002,66.9228520000006
115,58.333496000000196,51.2822270000006,81.15380900000036,41.2822270000006,120.51269500000035,109.10253900000043,122.69238299999961,119.74365200000011,127.43603499999972,106.9228520000006,87.17968800000017,91.15380900000036,101.9228520000006,73.7177729999994
116,66.41015599999992,55.38476599999922,86.15380900000036,46.79492200000004,126.6665039999998,114.10253900000043,124.23095699999976,123.7177729999994,134.7436520000001,116.41015599999992,94.10253900000043,98.58984400000008,107.30761700000039,77.82031300000017
117,71.0258789999998,59.61523400000078,89.35888699999941,50.0,128.20507799999996,115.76904300000024,125.51269500000035,126.2822270000006,138.0771479999994,120.51269500000035,101.2822270000006,103.0771479999994,111.2822270000006,78.20507799999996
118,68.58984400000008,61.153809000000365,88.0771479999994,48.7177729999994,122.05126999999993,113.84619099999964,124.87158199999976,124.61523400000078,135.38476599999922,119.10253900000043,105.0,101.0258789999998,110.12841800000024,75.51269500000035
119,60.38476599999922,58.20507799999996,82.17968800000017,43.20507799999996,108.46142599999985,109.74365200000011,121.15380900000036,117.69238299999961,127.56396500000028,113.46142599999985,102.56396500000028,93.58984400000008,103.0771479999994,71.9228520000006
120,51.2822270000006,51.153809000000365,75.12841800000024,36.410155999999915,92.43603499999972,106.41015599999992,115.64111300000059,108.3334960000002,118.20507799999996,106.6665039999998,94.48730499999965,85.89746099999957,93.20507799999996,68.9741210000002
121,47.30761700000039,43.333496000000196,71.9228520000006,32.30761700000039,81.53857400000015,105.76904300000024,111.6665039999998,101.9228520000006,111.53857400000015,101.9228520000006,84.74365200000011,83.20507799999996,86.41015599999992,67.94873000000007
122,51.79492200000004,39.61523400000078,75.51269500000035,34.61523400000078,82.82031300000017,107.94873000000007,112.43603499999972,102.56396500000028,110.64111300000059,101.9228520000006,78.84619099999964,86.9228520000006,87.05126999999993,69.87158199999976
123,63.846190999999635,43.974121000000196,84.87158199999976,44.35888699999941,97.82031300000017,111.79492200000004,117.94873000000007,110.76904300000024,115.25634799999989,107.17968800000017,81.0258789999998,94.35888699999941,95.38476599999922,75.64111300000059
124,78.7177729999994,55.76904300000024,96.15380900000036,58.846190999999635,122.17968800000017,115.51269500000035,126.0258789999998,122.94873000000007,123.46142599999985,115.76904300000024,91.6665039999998,101.6665039999998,107.94873000000007,85.0
125,90.0,69.48730499999965,105.38476599999922,73.0771479999994,145.89746099999957,117.17968800000017,133.3334960000002,133.7177729999994,132.3076170000004,123.7177729999994,106.0258789999998,106.2822270000006,118.7177729999994,96.15380900000036
126,93.58984400000008,78.7177729999994,109.61523400000078,81.9228520000006,159.23095699999976,115.89746099999957,137.17968800000017,138.20507799999996,138.58984400000008,126.79492200000004,117.69238299999961,107.82031300000017,122.94873000000007,104.74365200000011
127,89.23095699999976,79.61523400000078,108.7177729999994,83.3334960000002,157.05126999999993,111.2822270000006,136.53857400000015,135.6411130000006,140.0,122.69238299999961,121.15380900000036,106.9228520000006,118.7177729999994,106.15380900000036
128,80.51269500000035,72.94873000000007,103.58984400000008,78.7177729999994,142.56396500000028,104.87158199999976,132.05126999999993,128.46142599999985,135.51269500000035,113.3334960000002,115.12841800000024,104.10253900000043,108.20507799999996,98.7177729999994
129,71.6665039999998,62.94873000000007,96.15380900000036,71.6665039999998,125.0,99.74365200000011,126.0258789999998,120.38476599999922,127.05126999999993,103.84619099999964,102.94873000000007,99.61523400000078,95.76904300000024,85.76904300000024
130,65.25634799999989,54.23095699999976,89.35888699999941,66.6665039999998,113.84619099999964,98.7177729999994,121.53857400000015,113.84619099999964,118.58984400000008,99.10253900000043,90.0,94.61523400000078,86.2822270000006,73.84619099999964
131,62.43603499999972,50.25634799999989,85.64111300000059,66.15380900000036,113.58984400000008,101.9228520000006,121.15380900000036,110.51269500000035,115.25634799999989,101.15380900000036,81.9228520000006,90.89746099999957,83.3334960000002,69.23095699999976
132,64.23095699999976,51.79492200000004,86.6665039999998,70.51269500000035,121.79492200000004,107.43603499999972,125.0,111.53857400000015,119.10253900000043,108.7177729999994,82.56396500000028,91.0258789999998,87.30761700000039,73.3334960000002
133,69.87158199999976,56.53857400000015,90.89746099999957,76.53857400000015,131.2822270000006,112.17968800000017,130.6411130000006,116.2822270000006,128.0771479999994,117.56396500000028,91.15380900000036,95.12841800000024,94.23095699999976,81.79492200000004
134,76.2822270000006,60.12841800000024,95.51269500000035,80.38476599999922,135.38476599999922,114.23095699999976,134.3588869999994,121.6665039999998,135.89746099999957,122.94873000000007,102.69238299999961,101.15380900000036,98.7177729999994,87.56396500000028
135,80.25634799999989,60.12841800000024,98.58984400000008,79.87158199999976,132.82031300000017,113.46142599999985,134.48730499999965,125.12841800000024,137.17968800000017,122.17968800000017,111.6665039999998,105.51269500000035,98.3334960000002,87.94873000000007
136,82.17968800000017,57.94873000000007,100.76904300000024,76.9228520000006,128.58984400000008,111.15380900000036,132.3076170000004,126.53857400000015,132.3076170000004,116.41015599999992,115.89746099999957,106.0258789999998,96.15380900000036,86.2822270000006
137,84.35888699999941,58.20507799999996,104.35888699999941,73.9741210000002,128.3334960000002,109.74365200000011,130.38476599999922,128.0771479999994,127.30761700000039,110.51269500000035,117.43603499999972,103.84619099999964,97.69238299999961,88.3334960000002
138,88.20507799999996,63.46142599999985,110.51269500000035,71.15380900000036,132.17968800000017,110.12841800000024,130.6411130000006,131.0258789999998,128.0771479999994,109.61523400000078,118.46142599999985,101.79492200000004,104.48730499999965,96.41015599999992
139,91.79492200000004,70.89746099999957,117.17968800000017,65.51269500000035,134.7436520000001,111.6665039999998,132.43603499999972,134.10253900000043,134.61523400000078,115.0,118.58984400000008,101.6665039999998,111.9228520000006,106.41015599999992
140,91.0258789999998,74.87158199999976,119.61523400000078,54.61523400000078,130.89746099999957,112.17968800000017,133.84619099999964,134.3588869999994,141.2822270000006,122.56396500000028,115.89746099999957,103.0771479999994,112.94873000000007,110.76904300000024
141,84.23095699999976,71.2822270000006,114.87158199999976,39.61523400000078,122.17968800000017,111.15380900000036,133.46142599999985,130.2563479999999,141.9228520000006,126.41015599999992,109.48730499999965,104.10253900000043,104.74365200000011,104.61523400000078
142,74.35888699999941,61.79492200000004,105.0,26.538574000000153,115.76904300000024,109.48730499999965,131.15380900000036,123.84619099999964,135.6411130000006,123.46142599999985,101.6665039999998,103.7177729999994,91.79492200000004,90.38476599999922
143,67.17968800000017,53.974121000000196,96.0258789999998,21.025878999999804,118.20507799999996,108.7177729999994,128.9741210000002,119.74365200000011,127.82031300000017,116.53857400000015,96.41015599999992,102.17968800000017,82.94873000000007,77.30761700000039
144,67.82031300000017,54.87158199999976,93.9741210000002,24.48730499999965,128.7177729999994,109.23095699999976,128.84619099999964,121.79492200000004,126.53857400000015,111.6665039999998,96.0258789999998,101.2822270000006,83.84619099999964,74.48730499999965
145,76.0258789999998,65.51269500000035,100.12841800000024,33.20507799999996,140.38476599999922,110.64111300000059,131.0258789999998,129.61523400000078,134.87158199999976,113.84619099999964,100.0,101.9228520000006,93.3334960000002,83.9741210000002
146,86.53857400000015,80.0,109.48730499999965,41.025878999999804,145.12841800000024,112.69238299999961,133.3334960000002,138.3334960000002,147.82031300000017,122.56396500000028,104.87158199999976,103.3334960000002,103.84619099999964,98.3334960000002
147,92.94873000000007,89.74365200000011,115.0,43.846190999999635,140.76904300000024,115.12841800000024,133.84619099999964,141.6665039999998,156.41015599999992,133.0771479999994,107.17968800000017,104.10253900000043,108.20507799999996,106.41015599999992
148,92.17968800000017,89.48730499999965,112.69238299999961,41.9228520000006,131.79492200000004,117.05126999999993,132.17968800000017,137.05126999999993,154.48730499999965,139.23095699999976,106.41015599999992,103.58984400000008,104.61523400000078,103.20507799999996
149,86.2822270000006,80.51269500000035,104.61523400000078,39.61523400000078,124.87158199999976,117.17968800000017,129.7436520000001,127.17968800000017,143.46142599999985,137.3076170000004,104.74365200000011,102.43603499999972,97.30761700000039,92.17968800000017
150,80.25634799999989,69.10253900000043,97.17968800000017,41.153809000000365,123.84619099999964,114.74365200000011,128.0771479999994,118.7177729999994,131.2822270000006,128.0771479999994,105.12841800000024,101.41015599999992,92.56396500000028,82.43603499999972
151,78.7177729999994,63.20507799999996,96.0258789999998,47.56396500000028,127.69238299999961,110.51269500000035,128.3334960000002,116.9228520000006,126.15380900000036,117.43603499999972,109.35888699999941,101.0258789999998,93.9741210000002,80.89746099999957
152,82.17968800000017,66.53857400000015,102.17968800000017,55.897460999999566,132.6923829999996,106.53857400000015,130.38476599999922,122.82031300000017,130.89746099999957,111.79492200000004,116.41015599999992,101.53857400000015,99.61523400000078,88.58984400000008
153,87.43603499999972,75.64111300000059,111.0258789999998,62.05126999999993,135.51269500000035,105.12841800000024,132.82031300000017,132.3076170000004,141.0258789999998,113.9741210000002,122.56396500000028,102.82031300000017,104.61523400000078,100.0
154,90.51269500000035,83.3334960000002,116.79492200000004,63.333496000000196,135.38476599999922,106.15380900000036,133.46142599999985,138.46142599999985,148.0771479999994,120.38476599999922,124.23095699999976,104.23095699999976,105.0,107.82031300000017
155,90.0,84.74365200000011,115.76904300000024,59.74365200000011,133.84619099999964,107.82031300000017,131.15380900000036,137.05126999999993,147.3076170000004,124.74365200000011,121.0258789999998,104.87158199999976,101.6665039999998,107.82031300000017
156,87.17968800000017,80.89746099999957,108.58984400000008,53.589844000000085,133.46142599999985,107.94873000000007,126.9228520000006,128.58984400000008,139.7436520000001,123.46142599999985,115.76904300000024,103.84619099999964,98.7177729999994,101.9228520000006
157,83.9741210000002,76.41015599999992,99.87158199999976,46.666503999999804,134.7436520000001,106.41015599999992,123.46142599999985,118.3334960000002,131.2822270000006,118.46142599999985,112.30761700000039,101.6665039999998,99.23095699999976,95.25634799999989
158,81.53857400000015,74.74365200000011,94.61523400000078,38.974121000000196,135.12841800000024,105.0,123.0771479999994,112.17968800000017,126.53857400000015,114.35888699999941,111.9228520000006,99.61523400000078,102.05126999999993,92.17968800000017
159,79.87158199999976,75.38476599999922,95.89746099999957,30.0,132.56396500000028,105.12841800000024,126.0258789999998,113.0771479999994,127.05126999999993,115.38476599999922,114.10253900000043,99.87158199999976,103.58984400000008,93.3334960000002
160,79.61523400000078,76.2822270000006,102.17968800000017,19.871581999999762,127.30761700000039,105.76904300000024,130.51269500000035,119.23095699999976,131.0258789999998,121.79492200000004,117.30761700000039,102.82031300000017,101.79492200000004,96.79492200000004
161,81.15380900000036,75.64111300000059,108.9741210000002,11.025878999999804,122.17968800000017,105.25634799999989,133.7177729999994,125.76904300000024,135.6411130000006,130.2563479999999,120.12841800000024,107.17968800000017,98.84619099999964,99.87158199999976
162,83.58984400000008,73.9741210000002,112.69238299999961,6.282227000000603,119.87158199999976,103.3334960000002,133.58984400000008,127.82031300000017,137.56396500000028,135.51269500000035,121.41015599999992,110.38476599999922,98.3334960000002,101.2822270000006
163,85.12841800000024,73.3334960000002,111.6665039999998,7.179688000000169,121.41015599999992,101.41015599999992,130.6411130000006,124.23095699999976,135.2563479999999,134.61523400000078,120.76904300000024,110.51269500000035,102.05126999999993,101.15380900000036
164,85.38476599999922,75.89746099999957,107.56396500000028,12.307617000000391,126.41015599999992,101.79492200000004,127.30761700000039,118.3334960000002,130.12841800000024,128.9741210000002,119.10253900000043,107.69238299999961,108.7177729999994,100.76904300000024
165,85.38476599999922,81.2822270000006,103.3334960000002,18.333496000000196,132.56396500000028,104.74365200000011,126.15380900000036,114.23095699999976,124.87158199999976,122.69238299999961,117.43603499999972,103.20507799999996,114.74365200000011,100.89746099999957
166,86.15380900000036,86.15380900000036,100.51269500000035,21.794922000000042,136.2822270000006,107.82031300000017,127.17968800000017,113.0771479999994,121.79492200000004,118.0771479999994,116.53857400000015,99.23095699999976,116.79492200000004,101.41015599999992
167,87.82031300000017,87.17968800000017,99.74365200000011,21.538574000000153,135.12841800000024,108.46142599999985,128.7177729999994,112.94873000000007,120.76904300000024,115.25634799999989,116.15380900000036,97.82031300000017,113.84619099999964,102.17968800000017
168,90.51269500000035,85.12841800000024,101.15380900000036,20.51269500000035,130.51269500000035,106.41015599999992,128.84619099999964,112.05126999999993,120.89746099999957,113.3334960000002,116.15380900000036,100.25634799999989,108.9741210000002,103.46142599999985
169,95.12841800000024,84.87158199999976,105.12841800000024,23.589844000000085,127.17968800000017,104.10253900000043,128.58984400000008,111.6665039999998,122.43603499999972,113.3334960000002,117.82031300000017,106.0258789999998,107.05126999999993,106.41015599999992
170,102.17968800000017,91.0258789999998,111.53857400000015,33.974121000000196,129.23095699999976,104.61523400000078,129.87158199999976,114.23095699999976,126.41015599999992,116.15380900000036,123.0771479999994,113.0771479999994,111.79492200000004,111.53857400000015
171,110.25634799999989,102.43603499999972,118.20507799999996,49.48730499999965,136.15380900000036,108.20507799999996,133.84619099999964,120.38476599999922,132.17968800000017,121.0258789999998,131.41015599999992,118.3334960000002,120.76904300000024,118.0771479999994
172,114.74365200000011,110.76904300000024,121.41015599999992,62.17968800000017,141.53857400000015,111.6665039999998,138.0771479999994,126.79492200000004,137.17968800000017,125.25634799999989,138.3334960000002,119.10253900000043,127.43603499999972,122.82031300000017
173,111.15380900000036,106.53857400000015,118.20507799999996,64.61523400000078,138.46142599999985,111.15380900000036,138.58984400000008,128.20507799999996,137.17968800000017,125.0,137.6923829999996,114.74365200000011,125.12841800000024,122.30761700000039
174,99.61523400000078,89.35888699999941,109.35888699999941,55.76904300000024,126.41015599999992,106.6665039999998,133.9741210000002,121.53857400000015,130.76904300000024,119.74365200000011,127.05126999999993,107.30761700000039,113.9741210000002,115.25634799999989
175,85.89746099999957,69.87158199999976,100.25634799999989,43.589844000000085,112.94873000000007,102.05126999999993,127.05126999999993,110.38476599999922,121.2822270000006,113.3334960000002,111.53857400000015,100.64111300000059,100.76904300000024,104.74365200000011
176,78.46142599999985,61.666503999999804,96.41015599999992,38.589844000000085,107.94873000000007,102.17968800000017,122.69238299999961,102.56396500000028,115.12841800000024,111.0258789999998,100.12841800000024,97.94873000000007,94.35888699999941,96.2822270000006
177,81.15380900000036,70.0,99.48730499999965,46.025878999999804,114.48730499999965,107.94873000000007,124.23095699999976,103.9741210000002,116.9228520000006,115.12841800000024,99.48730499999965,99.74365200000011,98.7177729999994,93.7177729999994
178,90.76904300000024,87.94873000000007,106.53857400000015,61.410155999999915,126.41015599999992,115.51269500000035,130.38476599999922,113.0771479999994,125.0,121.15380900000036,107.82031300000017,103.7177729999994,109.74365200000011,96.41015599999992
179,99.61523400000078,102.43603499999972,111.53857400000015,74.35888699999941,134.3588869999994,119.35888699999941,137.17968800000017,122.82031300000017,133.20507799999996,122.43603499999972,117.43603499999972,106.2822270000006,119.87158199999976,100.89746099999957
180,101.53857400000015,105.25634799999989,111.0258789999998,77.94873000000007,132.94873000000007,116.53857400000015,140.38476599999922,125.64111300000059,135.12841800000024,115.89746099999957,121.15380900000036,105.51269500000035,123.46142599999985,103.9741210000002
181,96.0258789999998,97.30761700000039,106.0258789999998,73.3334960000002,124.23095699999976,109.35888699999941,138.46142599999985,119.61523400000078,129.61523400000078,105.12841800000024,117.43603499999972,102.82031300000017,120.51269500000035,104.35888699999941
182,87.43603499999972,86.0258789999998,100.89746099999957,67.56396500000028,114.35888699999941,103.20507799999996,133.0771479999994,109.10253900000043,120.25634799999989,97.69238299999961,110.25634799999989,100.38476599999922,114.87158199999976,102.43603499999972
183,81.41015599999992,78.84619099999964,98.46142599999985,66.79492200000004,108.46142599999985,102.43603499999972,127.56396500000028,100.76904300000024,112.69238299999961,97.17968800000017,104.87158199999976,99.74365200000011,110.89746099999957,99.10253900000043
184,80.76904300000024,78.20507799999996,98.58984400000008,72.69238299999961,108.20507799999996,106.9228520000006,124.48730499999965,98.58984400000008,110.12841800000024,101.41015599999992,103.46142599999985,100.38476599999922,110.25634799999989,95.76904300000024
185,84.61523400000078,81.79492200000004,99.61523400000078,81.2822270000006,111.79492200000004,112.82031300000017,124.61523400000078,101.53857400000015,111.6665039999998,104.48730499999965,104.74365200000011,101.41015599999992,111.9228520000006,93.46142599999985
186,89.23095699999976,85.76904300000024,101.15380900000036,87.43603499999972,115.38476599999922,116.15380900000036,126.9228520000006,106.53857400000015,114.23095699999976,103.58984400000008,106.2822270000006,102.30761700000039,113.9741210000002,92.43603499999972
187,91.9228520000006,88.0771479999994,103.46142599999985,87.82031300000017,116.15380900000036,115.76904300000024,129.3588869999994,110.89746099999957,116.0258789999998,100.12841800000024,106.53857400000015,103.3334960000002,114.74365200000011,91.79492200000004
188,93.3334960000002,88.9741210000002,107.05126999999993,83.84619099999964,113.84619099999964,113.46142599999985,131.2822270000006,114.74365200000011,117.94873000000007,98.84619099999964,106.41015599999992,104.74365200000011,114.61523400000078,91.2822270000006
189,96.0258789999998,91.0258789999998,110.89746099999957,79.74365200000011,110.64111300000059,112.05126999999993,132.6923829999996,119.23095699999976,122.05126999999993,102.43603499999972,107.56396500000028,106.41015599999992,115.25634799999989,91.6665039999998
190,101.0258789999998,95.12841800000024,113.58984400000008,79.23095699999976,108.84619099999964,112.56396500000028,133.9741210000002,124.87158199999976,128.3334960000002,108.9741210000002,110.76904300000024,107.43603499999972,117.43603499999972,94.10253900000043
191,106.6665039999998,99.10253900000043,113.20507799999996,81.9228520000006,108.3334960000002,114.10253900000043,135.2563479999999,129.7436520000001,133.46142599999985,113.46142599999985,113.58984400000008,107.05126999999993,120.51269500000035,97.82031300000017
192,109.10253900000043,99.10253900000043,109.35888699999941,84.35888699999941,106.6665039999998,114.61523400000078,135.76904300000024,130.6411130000006,133.3334960000002,111.53857400000015,112.56396500000028,105.0,122.69238299999961,100.64111300000059
193,106.2822270000006,92.56396500000028,102.94873000000007,83.3334960000002,102.05126999999993,113.0771479999994,134.7436520000001,125.76904300000024,126.2822270000006,102.56396500000028,106.2822270000006,101.6665039999998,123.3334960000002,100.25634799999989
194,100.89746099999957,81.6665039999998,96.79492200000004,79.74365200000011,96.53857400000015,109.87158199999976,132.05126999999993,117.05126999999993,116.0258789999998,91.0258789999998,98.20507799999996,98.84619099999964,123.9741210000002,96.53857400000015
195,98.46142599999985,72.56396500000028,94.74365200000011,78.46142599999985,94.61523400000078,107.56396500000028,129.7436520000001,110.0,109.10253900000043,83.58984400000008,94.74365200000011,98.58984400000008,127.82031300000017,92.82031300000017
196,102.94873000000007,71.53857400000015,98.58984400000008,83.58984400000008,98.7177729999994,107.94873000000007,130.89746099999957,110.0,110.51269500000035,85.25634799999989,100.12841800000024,102.17968800000017,136.41015599999992,93.0771479999994
197,113.84619099999964,80.25634799999989,107.05126999999993,95.76904300000024,107.56396500000028,111.15380900000036,136.41015599999992,118.0771479999994,119.74365200000011,95.25634799999989,112.69238299999961,108.3334960000002,148.58984400000008,99.35888699999941
198,125.89746099999957,94.74365200000011,116.15380900000036,111.0258789999998,116.41015599999992,115.25634799999989,144.23095699999976,129.61523400000078,131.6665039999998,108.7177729999994,126.41015599999992,114.48730499999965,160.2563479999999,110.12841800000024
199,132.56396500000028,107.30761700000039,121.41015599999992,123.20507799999996,120.89746099999957,117.82031300000017,149.61523400000078,137.3076170000004,139.61523400000078,119.61523400000078,133.84619099999964,117.30761700000039,166.41015599999992,119.61523400000078
200,129.3588869999994,110.64111300000059,119.87158199999976,127.82031300000017,118.84619099999964,117.43603499999972,149.23095699999976,136.15380900000036,139.61523400000078,123.46142599999985,131.0258789999998,115.12841800000024,163.9741210000002,121.0258789999998
201,117.05126999999993,102.82031300000017,111.79492200000004,124.48730499999965,110.89746099999957,115.25634799999989,142.56396500000028,126.2822270000006,131.79492200000004,118.58984400000008,118.84619099999964,109.23095699999976,153.46142599999985,111.53857400000015
202,101.6665039999998,88.9741210000002,100.89746099999957,116.6665039999998,101.15380900000036,113.46142599999985,132.82031300000017,113.84619099999964,120.25634799999989,106.41015599999992,103.20507799999996,102.17968800000017,139.23095699999976,95.38476599999922
203,91.41015599999992,77.56396500000028,92.69238299999961,110.64111300000059,95.51269500000035,113.7177729999994,125.25634799999989,106.9228520000006,111.15380900000036,93.0771479999994,92.56396500000028,97.05126999999993,128.7177729999994,82.05126999999993
204,90.89746099999957,75.76904300000024,90.89746099999957,111.2822270000006,97.82031300000017,115.38476599999922,123.9741210000002,109.61523400000078,109.48730499999965,86.9228520000006,92.82031300000017,96.41015599999992,127.17968800000017,79.23095699999976
205,97.82031300000017,83.46142599999985,95.51269500000035,118.9741210000002,105.64111300000059,116.2822270000006,128.9741210000002,118.7177729999994,115.25634799999989,91.9228520000006,103.46142599999985,99.48730499999965,134.3588869999994,85.89746099999957
206,104.35888699999941,93.58984400000008,101.79492200000004,128.46142599999985,111.41015599999992,114.61523400000078,134.87158199999976,126.0258789999998,123.0771479999994,102.69238299999961,116.41015599999992,103.20507799999996,143.58984400000008,93.9741210000002
207,104.48730499999965,97.43603499999972,104.23095699999976,133.58984400000008,108.9741210000002,110.51269500000035,135.6411130000006,124.23095699999976,125.89746099999957,108.46142599999985,121.9228520000006,104.35888699999941,146.79492200000004,95.38476599999922
208,99.35888699999941,93.3334960000002,101.0258789999998,132.6923829999996,99.48730499999965,106.79492200000004,130.12841800000024,114.10253900000043,122.17968800000017,103.0771479999994,116.79492200000004,102.43603499999972,142.17968800000017,89.87158199999976
209,95.76904300000024,87.17968800000017,96.0258789999998,130.0,90.12841800000024,106.6665039999998,123.0771479999994,103.58984400000008,116.15380900000036,91.53857400000015,106.53857400000015,99.87158199999976,134.48730499999965,84.48730499999965
210,98.7177729999994,85.76904300000024,94.48730499999965,130.51269500000035,87.82031300000017,111.0258789999998,119.87158199999976,101.15380900000036,113.84619099999964,83.7177729999994,99.61523400000078,99.61523400000078,130.76904300000024,86.15380900000036
211,106.41015599999992,89.87158199999976,97.56396500000028,135.89746099999957,92.82031300000017,116.9228520000006,121.6665039999998,107.69238299999961,117.05126999999993,86.0258789999998,99.23095699999976,102.05126999999993,133.20507799999996,94.61523400000078
212,112.56396500000028,94.74365200000011,101.41015599999992,142.94873000000007,100.25634799999989,119.87158199999976,125.0,116.2822270000006,122.56396500000028,96.0258789999998,101.6665039999998,104.48730499999965,137.94873000000007,103.58984400000008
213,112.94873000000007,96.0258789999998,102.56396500000028,147.3076170000004,104.74365200000011,117.82031300000017,126.15380900000036,119.35888699999941,126.2822270000006,106.2822270000006,101.6665039999998,104.87158199999976,139.87158199999976,106.79492200000004
214,108.46142599999985,93.7177729999994,100.89746099999957,147.05126999999993,103.9741210000002,112.82031300000017,124.35888699999941,115.38476599999922,125.76904300000024,110.76904300000024,98.20507799999996,103.3334960000002,137.43603499999972,103.0771479999994
215,104.10253900000043,91.2822270000006,99.61523400000078,144.10253900000043,100.12841800000024,108.58984400000008,122.30761700000039,109.10253900000043,122.43603499999972,108.58984400000008,94.35888699999941,102.43603499999972,133.7177729999994,96.41015599999992
216,103.7177729999994,92.30761700000039,101.0258789999998,141.53857400000015,96.9228520000006,107.82031300000017,122.82031300000017,106.2822270000006,118.7177729999994,103.0771479999994,93.58984400000008,103.7177729999994,132.94873000000007,92.43603499999972
217,107.94873000000007,96.41015599999992,105.0,142.56396500000028,97.05126999999993,110.0,126.15380900000036,108.84619099999964,116.41015599999992,98.7177729999994,97.05126999999993,106.6665039999998,137.17968800000017,93.84619099999964
218,113.3334960000002,100.12841800000024,109.23095699999976,147.05126999999993,100.25634799999989,112.69238299999961,130.2563479999999,114.61523400000078,116.2822270000006,97.69238299999961,102.82031300000017,108.84619099999964,144.10253900000043,99.10253900000043
219,115.12841800000024,99.23095699999976,111.2822270000006,152.05126999999993,103.3334960000002,113.20507799999996,132.94873000000007,119.61523400000078,118.46142599999985,99.35888699999941,106.9228520000006,108.58984400000008,149.61523400000078,103.3334960000002
220,111.53857400000015,91.9228520000006,110.38476599999922,154.3588869999994,102.94873000000007,111.53857400000015,132.94873000000007,121.53857400000015,122.82031300000017,101.41015599999992,106.79492200000004,106.41015599999992,150.51269500000035,103.0771479999994
221,105.25634799999989,81.9228520000006,108.20507799999996,153.20507799999996,99.35888699999941,109.48730499999965,131.53857400000015,121.6665039999998,128.3334960000002,102.69238299999961,103.58984400000008,104.74365200000011,147.6923829999996,99.23095699999976
222,101.53857400000015,76.6665039999998,107.69238299999961,151.79492200000004,96.2822270000006,109.61523400000078,130.51269500000035,122.43603499999972,133.20507799999996,103.7177729999994,101.15380900000036,106.53857400000015,145.0,96.2822270000006
223,104.23095699999976,81.79492200000004,110.12841800000024,153.9741210000002,98.0771479999994,111.79492200000004,130.6411130000006,124.74365200000011,135.0,105.12841800000024,102.05126999999993,111.6665039999998,144.87158199999976,97.69238299999961
224,111.79492200000004,96.9228520000006,113.58984400000008,160.76904300000024,105.51269500000035,114.10253900000043,130.6411130000006,126.0258789999998,132.17968800000017,104.87158199999976,105.0,117.17968800000017,146.41015599999992,102.17968800000017
225,118.7177729999994,115.38476599999922,115.0,169.48730499999965,114.61523400000078,115.0,128.9741210000002,122.94873000000007,125.25634799999989,100.38476599999922,105.76904300000024,118.58984400000008,145.2563479999999,105.25634799999989
226,120.64111300000059,128.9741210000002,112.69238299999961,176.0258789999998,119.61523400000078,114.61523400000078,125.89746099999957,115.51269500000035,117.30761700000039,92.05126999999993,101.79492200000004,114.48730499999965,138.46142599999985,103.58984400000008
227,117.69238299999961,133.58984400000008,108.3334960000002,178.7177729999994,117.17968800000017,113.9741210000002,123.7177729999994,107.82031300000017,112.56396500000028,85.76904300000024,94.74365200000011,107.43603499999972,127.69238299999961,98.0771479999994
228,112.82031300000017,131.79492200000004,104.48730499999965,178.46142599999985,108.9741210000002,114.10253900000043,124.74365200000011,104.74365200000011,113.0771479999994,86.9228520000006,88.20507799999996,101.9228520000006,117.82031300000017,92.43603499999972
229,108.20507799999996,128.0771479999994,102.30761700000039,177.6923829999996,99.48730499999965,114.74365200000011,127.69238299999961,107.43603499999972,116.15380900000036,93.58984400000008,84.74365200000011,100.0,112.94873000000007,89.87158199999976
230,103.9741210000002,125.76904300000024,101.2822270000006,177.56396500000028,94.61523400000078,115.25634799999989,128.58984400000008,112.56396500000028,117.82031300000017,99.35888699999941,83.9741210000002,101.2822270000006,113.46142599999985,90.38476599999922
231,100.76904300000024,125.64111300000059,100.89746099999957,178.46142599999985,97.17968800000017,115.51269500000035,125.89746099999957,116.2822270000006,116.6665039999998,100.51269500000035,84.61523400000078,103.58984400000008,117.17968800000017,92.69238299999961
232,100.51269500000035,128.0771479999994,101.2822270000006,180.76904300000024,106.15380900000036,115.64111300000059,122.17968800000017,117.43603499999972,115.89746099999957,99.87158199999976,87.17968800000017,105.12841800000024,122.17968800000017,95.76904300000024
233,104.48730499999965,132.6923829999996,103.58984400000008,184.3588869999994,116.6665039999998,115.76904300000024,121.79492200000004,118.0771479999994,119.23095699999976,101.6665039999998,92.30761700000039,105.64111300000059,127.17968800000017,99.10253900000043
234,111.15380900000036,137.6923829999996,107.17968800000017,187.43603499999972,123.46142599999985,115.25634799999989,126.0258789999998,119.74365200000011,126.6665039999998,106.2822270000006,98.58984400000008,106.15380900000036,131.2822270000006,101.6665039999998
235,116.9228520000006,140.0,109.87158199999976,187.05126999999993,123.46142599999985,113.0771479999994,132.3076170000004,121.79492200000004,133.84619099999964,109.23095699999976,102.43603499999972,106.9228520000006,133.3334960000002,102.17968800000017
236,117.94873000000007,137.3076170000004,108.84619099999964,181.6665039999998,117.43603499999972,109.61523400000078,136.2822270000006,121.9228520000006,135.12841800000024,106.0258789999998,100.76904300000024,106.53857400000015,132.43603499999972,100.25634799999989
237,112.94873000000007,130.12841800000024,103.9741210000002,172.94873000000007,108.7177729999994,106.41015599999992,135.38476599999922,119.23095699999976,128.58984400000008,97.05126999999993,93.58984400000008,104.23095699999976,128.20507799999996,96.6665039999998
238,104.87158199999976,121.79492200000004,98.58984400000008,164.87158199999976,100.89746099999957,105.51269500000035,130.51269500000035,115.12841800000024,117.82031300000017,87.82031300000017,85.12841800000024,101.15380900000036,122.43603499999972,93.46142599999985
239,98.58984400000008,116.15380900000036,96.0258789999998,161.41015599999992,96.6665039999998,107.30761700000039,125.38476599999922,111.79492200000004,109.87158199999976,85.25634799999989,79.74365200000011,99.61523400000078,117.17968800000017,92.17968800000017
240,97.56396500000028,115.38476599999922,97.82031300000017,164.10253900000043,96.9228520000006,110.38476599999922,123.84619099999964,110.51269500000035,109.87158199999976,91.6665039999998,79.48730499999965,101.15380900000036,114.61523400000078,93.58984400000008
241,102.05126999999993,119.48730499999965,103.0771479999994,171.15380900000036,101.2822270000006,112.69238299999961,126.2822270000006,111.79492200000004,117.69238299999961,102.17968800000017,83.46142599999985,105.12841800000024,116.2822270000006,97.30761700000039
242,108.7177729999994,125.64111300000059,108.20507799999996,178.9741210000002,109.23095699999976,113.20507799999996,130.51269500000035,115.12841800000024,128.20507799999996,108.9741210000002,88.9741210000002,109.35888699999941,121.9228520000006,102.17968800000017
243,113.3334960000002,130.12841800000024,110.12841800000024,183.7177729999994,118.20507799999996,112.30761700000039,132.82031300000017,119.23095699999976,135.2563479999999,107.05126999999993,93.0771479999994,111.2822270000006,130.12841800000024,106.2822270000006
244,112.94873000000007,130.6411130000006,108.0771479999994,183.3334960000002,123.7177729999994,110.64111300000059,131.41015599999992,121.9228520000006,135.51269500000035,98.84619099999964,93.58984400000008,109.87158199999976,136.53857400000015,106.9228520000006
245,107.43603499999972,127.43603499999972,103.58984400000008,179.10253900000043,120.76904300000024,108.0771479999994,126.9228520000006,120.89746099999957,129.7436520000001,90.38476599999922,90.12841800000024,105.89746099999957,137.43603499999972,103.20507799999996
246,99.61523400000078,123.0771479999994,100.0,173.46142599999985,107.94873000000007,104.74365200000011,121.2822270000006,115.64111300000059,122.05126999999993,87.56396500000028,83.9741210000002,101.2822270000006,132.05126999999993,96.79492200000004
247,92.69238299999961,120.0,98.46142599999985,168.58984400000008,90.25634799999989,101.53857400000015,116.53857400000015,108.46142599999985,116.41015599999992,90.89746099999957,77.69238299999961,98.20507799999996,123.84619099999964,91.0258789999998
248,88.84619099999964,118.46142599999985,97.94873000000007,164.7436520000001,76.41015599999992,100.76904300000024,113.58984400000008,102.69238299999961,114.61523400000078,95.12841800000024,73.3334960000002,97.82031300000017,117.82031300000017,87.94873000000007
249,88.0771479999994,116.9228520000006,97.69238299999961,161.79492200000004,73.58984400000008,103.58984400000008,112.82031300000017,101.2822270000006,115.25634799999989,94.48730499999965,71.9228520000006,100.0,116.0258789999998,88.0771479999994
250,90.25634799999989,115.0,98.20507799999996,160.6411130000006,81.9228520000006,108.7177729999994,114.23095699999976,104.35888699999941,115.64111300000059,88.0771479999994,73.9741210000002,103.58984400000008,117.43603499999972,90.25634799999989
251,94.74365200000011,114.23095699999976,101.0258789999998,163.0771479999994,95.51269500000035,113.7177729999994,117.30761700000039,110.12841800000024,114.87158199999976,80.64111300000059,79.10253900000043,107.30761700000039,120.12841800000024,93.3334960000002
252,100.25634799999989,117.17968800000017,106.41015599999992,169.61523400000078,106.41015599999992,116.41015599999992,120.89746099999957,115.64111300000059,113.9741210000002,78.46142599999985,85.51269500000035,110.12841800000024,123.0771479999994,96.53857400000015
253,105.0,123.58984400000008,112.17968800000017,177.43603499999972,110.25634799999989,116.2822270000006,123.7177729999994,118.7177729999994,114.61523400000078,83.46142599999985,90.12841800000024,111.0258789999998,126.41015599999992,99.35888699999941
254,107.30761700000039,130.6411130000006,115.51269500000035,181.53857400000015,107.30761700000039,114.61523400000078,124.87158199999976,118.84619099999964,117.05126999999993,93.0771479999994,90.51269500000035,110.12841800000024,129.61523400000078,101.2822270000006
255,107.05126999999993,134.3588869999994,114.48730499999965,177.82031300000017,101.41015599999992,112.94873000000007,124.35888699999941,116.53857400000015,119.35888699999941,101.41015599999992,86.2822270000006,107.82031300000017,131.2822270000006,102.30761700000039
256,104.74365200000011,132.43603499999972,109.48730499999965,166.41015599999992,96.6665039999998,112.17968800000017,122.05126999999993,112.94873000000007,118.46142599999985,103.58984400000008,79.35888699999941,105.38476599999922,130.12841800000024,102.56396500000028
257,101.6665039999998,125.64111300000059,103.0771479999994,151.2822270000006,93.84619099999964,111.6665039999998,118.58984400000008,108.7177729999994,113.0771479999994,97.30761700000039,72.56396500000028,103.3334960000002,126.15380900000036,101.6665039999998
258,98.46142599999985,117.43603499999972,98.3334960000002,136.6665039999998,91.79492200000004,110.38476599999922,115.0,104.48730499999965,105.12841800000024,85.76904300000024,68.58984400000008,102.30761700000039,121.41015599999992,99.48730499999965
259,96.0258789999998,111.41015599999992,97.30761700000039,125.25634799999989,89.23095699999976,108.20507799999996,113.3334960000002,101.41015599999992,99.23095699999976,75.89746099999957,68.3334960000002,102.17968800000017,118.3334960000002,97.30761700000039
260,95.64111300000059,110.38476599999922,99.74365200000011,117.69238299999961,87.05126999999993,106.15380900000036,114.74365200000011,101.79492200000004,99.48730499999965,73.58984400000008,71.6665039999998,103.0771479999994,118.7177729999994,96.9228520000006
261,97.94873000000007,114.10253900000043,103.46142599999985,113.20507799999996,87.17968800000017,105.76904300000024,119.23095699999976,106.9228520000006,106.6665039999998,79.87158199999976,78.0771479999994,105.25634799999989,122.94873000000007,99.61523400000078
262,102.30761700000039,120.12841800000024,106.0258789999998,109.87158199999976,90.38476599999922,107.30761700000039,124.35888699999941,114.87158199999976,116.53857400000015,89.48730499999965,85.51269500000035,108.20507799999996,128.84619099999964,103.84619099999964
263,105.64111300000059,123.84619099999964,106.0258789999998,105.25634799999989,93.7177729999994,108.58984400000008,126.79492200000004,120.25634799999989,122.30761700000039,95.51269500000035,90.51269500000035,110.51269500000035,133.20507799999996,105.64111300000059
264,104.35888699999941,122.30761700000039,103.46142599999985,97.69238299999961,93.46142599999985,107.56396500000028,124.23095699999976,118.20507799999996,120.12841800000024,93.58984400000008,90.12841800000024,110.76904300000024,133.0771479999994,102.56396500000028
265,98.84619099999964,116.79492200000004,100.12841800000024,88.3334960000002,90.12841800000024,104.61523400000078,117.69238299999961,109.87158199999976,112.05126999999993,86.6665039999998,85.0,109.10253900000043,129.10253900000043,96.6665039999998
266,93.0771479999994,111.6665039999998,97.69238299999961,80.12841800000024,88.84619099999964,102.43603499999972,112.30761700000039,101.41015599999992,105.12841800000024,82.43603499999972,80.0,107.05126999999993,125.64111300000059,94.10253900000043
267,91.9228520000006,111.15380900000036,98.20507799999996,75.64111300000059,94.10253900000043,103.46142599999985,112.82031300000017,99.61523400000078,105.76904300000024,86.53857400000015,80.89746099999957,106.15380900000036,126.41015599999992,98.3334960000002
268,96.15380900000036,115.12841800000024,101.2822270000006,74.61523400000078,104.10253900000043,107.94873000000007,119.61523400000078,105.64111300000059,114.23095699999976,97.30761700000039,88.58984400000008,106.53857400000015,130.89746099999957,106.79492200000004
269,101.79492200000004,120.25634799999989,105.0,74.48730499999965,112.05126999999993,112.94873000000007,127.69238299999961,114.61523400000078,123.3334960000002,106.15380900000036,97.94873000000007,106.9228520000006,135.12841800000024,112.17968800000017
270,103.7177729999994,122.43603499999972,106.41015599999992,71.6665039999998,112.05126999999993,114.87158199999976,131.2822270000006,120.64111300000059,125.51269500000035,106.2822270000006,102.30761700000039,105.89746099999957,135.38476599999922,108.84619099999964
271,99.35888699999941,120.64111300000059,103.58984400000008,64.61523400000078,104.23095699999976,112.05126999999993,128.46142599999985,121.0258789999998,118.58984400000008,98.20507799999996,97.94873000000007,103.3334960000002,132.3076170000004,97.82031300000017
272,90.76904300000024,116.41015599999992,97.69238299999961,54.102539000000434,93.84619099999964,106.15380900000036,122.56396500000028,117.17968800000017,107.43603499999972,88.46142599999985,86.9228520000006,100.25634799999989,128.46142599999985,86.41015599999992
273,82.82031300000017,112.05126999999993,91.41015599999992,42.17968800000017,87.56396500000028,100.38476599999922,118.46142599999985,112.56396500000028,99.61523400000078,83.46142599999985,75.38476599999922,98.20507799999996,126.41015599999992,82.05126999999993
274,80.0,110.0,88.3334960000002,31.922852000000603,88.7177729999994,98.20507799999996,118.84619099999964,110.12841800000024,99.87158199999976,85.38476599999922,69.48730499999965,98.20507799999996,125.76904300000024,87.05126999999993
275,83.20507799999996,111.41015599999992,89.35888699999941,25.25634799999989,95.89746099999957,100.89746099999957,122.69238299999961,110.89746099999957,107.17968800000017,90.76904300000024,71.9228520000006,99.87158199999976,125.38476599999922,96.79492200000004
276,89.87158199999976,115.38476599999922,92.56396500000028,22.30761700000039,103.84619099999964,107.30761700000039,126.79492200000004,114.10253900000043,116.79492200000004,94.48730499999965,80.51269500000035,102.30761700000039,124.61523400000078,104.23095699999976
277,94.74365200000011,119.10253900000043,94.61523400000078,20.384765999999217,107.05126999999993,114.10253900000043,128.0771479999994,117.43603499999972,122.69238299999961,93.7177729999994,89.10253900000043,103.9741210000002,123.58984400000008,104.61523400000078
278,93.84619099999964,119.87158199999976,92.94873000000007,14.743652000000111,103.7177729999994,117.82031300000017,126.0258789999998,118.20507799999996,122.05126999999993,89.61523400000078,91.6665039999998,103.46142599999985,122.30761700000039,98.20507799999996
279,87.94873000000007,116.6665039999998,88.20507799999996,2.4360349999997197,97.30761700000039,117.05126999999993,121.9228520000006,116.15380900000036,116.2822270000006,86.6665039999998,87.30761700000039,101.15380900000036,120.64111300000059,89.74365200000011
280,82.43603499999972,112.17968800000017,84.10253900000043,-15.0,93.20507799999996,113.9741210000002,118.9741210000002,113.3334960000002,110.89746099999957,88.7177729999994,81.53857400000015,99.23095699999976,120.64111300000059,85.38476599999922
281,82.82031300000017,110.0,84.48730499999965,-32.30761700000039,93.9741210000002,112.17968800000017,119.61523400000078,112.82031300000017,111.0258789999998,96.15380900000036,81.0258789999998,100.51269500000035,124.35888699999941,88.7177729999994
282,90.0,111.79492200000004,90.76904300000024,-44.61547900000005,98.0771479999994,113.20507799999996,123.9741210000002,115.89746099999957,117.30761700000039,105.25634799999989,87.43603499999972,105.0,132.05126999999993,98.0771479999994
283,99.23095699999976,115.64111300000059,99.23095699999976,-50.38452099999995,101.79492200000004,115.89746099999957,129.23095699999976,121.15380900000036,125.51269500000035,110.51269500000035,96.41015599999992,110.64111300000059,140.2563479999999,107.69238299999961
284,104.48730499999965,117.82031300000017,104.61523400000078,-51.66674799999964,102.82031300000017,117.82031300000017,132.17968800000017,125.76904300000024,129.3588869999994,108.7177729999994,101.53857400000015,114.48730499999965,144.61523400000078,112.17968800000017
285,102.56396500000028,115.51269500000035,103.7177729999994,-52.051270000000386,101.6665039999998,117.82031300000017,131.41015599999992,127.30761700000039,126.2822270000006,100.76904300000024,100.38476599999922,114.35888699999941,142.94873000000007,109.35888699999941
286,94.87158199999976,108.84619099999964,97.56396500000028,-54.61547900000005,99.35888699999941,115.76904300000024,127.56396500000028,124.61523400000078,117.94873000000007,91.41015599999992,94.48730499999965,110.25634799999989,135.6411130000006,100.76904300000024
287,85.25634799999989,100.25634799999989,89.87158199999976,-61.153809000000365,96.6665039999998,112.69238299999961,121.6665039999998,118.84619099999964,109.23095699999976,85.25634799999989,87.43603499999972,104.23095699999976,125.12841800000024,90.12841800000024
288,78.3334960000002,93.84619099999964,83.58984400000008,-70.25634799999989,94.35888699999941,110.25634799999989,115.25634799999989,112.43603499999972,104.10253900000043,84.23095699999976,81.79492200000004,99.48730499999965,114.74365200000011,81.6665039999998
289,76.9228520000006,93.20507799999996,79.74365200000011,-77.69238299999961,94.48730499999965,110.0,110.64111300000059,108.58984400000008,104.10253900000043,87.17968800000017,78.9741210000002,97.69238299999961,108.20507799999996,78.20507799999996
290,80.51269500000035,98.84619099999964,78.58984400000008,-79.35888699999987,99.23095699999976,112.05126999999993,110.25634799999989,109.10253900000043,108.0771479999994,91.9228520000006,78.7177729999994,98.3334960000002,108.46142599999985,79.74365200000011
291,85.25634799999989,106.41015599999992,79.23095699999976,-75.89746100000002,106.2822270000006,114.74365200000011,114.61523400000078,112.69238299999961,113.3334960000002,96.2822270000006,79.87158199999976,99.48730499999965,113.84619099999964,83.46142599999985
292,87.56396500000028,109.74365200000011,80.12841800000024,-71.66674799999964,109.87158199999976,116.15380900000036,120.25634799999989,116.2822270000006,116.53857400000015,98.58984400000008,81.0258789999998,99.87158199999976,119.10253900000043,85.25634799999989
293,86.41015599999992,106.2822270000006,80.25634799999989,-71.79492200000004,105.51269500000035,115.51269500000035,123.3334960000002,117.17968800000017,116.15380900000036,98.20507799999996,81.2822270000006,99.48730499999965,119.35888699999941,84.10253900000043
294,84.74365200000011,99.74365200000011,80.25634799999989,-76.02563499999997,95.64111300000059,113.84619099999964,122.82031300000017,115.76904300000024,114.23095699999976,96.9228520000006,81.6665039999998,99.87158199999976,115.64111300000059,82.43603499999972
295,85.76904300000024,97.43603499999972,82.43603499999972,-80.1281740000004,87.94873000000007,112.82031300000017,120.25634799999989,114.35888699999941,113.58984400000008,97.05126999999993,83.84619099999964,101.79492200000004,113.58984400000008,84.61523400000078
296,90.0,103.20507799999996,87.17968800000017,-80.0,88.0771479999994,113.20507799999996,118.0771479999994,114.74365200000011,115.76904300000024,99.35888699999941,87.82031300000017,104.61523400000078,117.56396500000028,92.17968800000017
297,94.48730499999965,114.10253900000043,92.17968800000017,-75.51293900000019,95.89746099999957,114.35888699999941,116.6665039999998,116.2822270000006,118.7177729999994,101.6665039999998,90.76904300000024,106.15380900000036,125.64111300000059,101.53857400000015
298,96.6665039999998,123.46142599999985,95.0,-70.0,106.15380900000036,115.25634799999989,115.38476599999922,116.9228520000006,119.48730499999965,101.15380900000036,89.87158199999976,105.25634799999989,131.6665039999998,107.05126999999993
299,96.6665039999998,126.79492200000004,94.87158199999976,-66.66674799999964,113.20507799999996,115.76904300000024,115.25634799999989,116.15380900000036,117.30761700000039,97.94873000000007,85.64111300000059,102.69238299999961,131.53857400000015,106.53857400000015
300,96.53857400000015,124.61523400000078,93.46142599999985,-66.66674799999964,114.23095699999976,115.76904300000024,117.82031300000017,115.38476599999922,114.87158199999976,95.51269500000035,81.9228520000006,100.89746099999957,127.17968800000017,102.94873000000007
301,97.82031300000017,120.38476599999922,93.0771479999994,-69.48706099999981,110.76904300000024,115.51269500000035,123.58984400000008,116.2822270000006,115.25634799999989,97.43603499999972,82.05126999999993,101.0258789999998,123.46142599999985,101.0258789999998
302,99.23095699999976,117.05126999999993,94.10253900000043,-74.35888699999987,106.41015599999992,115.12841800000024,130.0,118.20507799999996,117.94873000000007,102.94873000000007,85.12841800000024,102.56396500000028,122.69238299999961,102.30761700000039
303,98.84619099999964,115.89746099999957,95.0,-79.74365200000011,104.23095699999976,115.12841800000024,133.7177729999994,118.46142599999985,119.87158199999976,107.05126999999993,87.56396500000028,103.58984400000008,123.46142599999985,104.48730499999965
304,94.87158199999976,115.38476599999922,93.7177729999994,-85.25634799999989,104.74365200000011,114.74365200000011,132.56396500000028,115.64111300000059,118.58984400000008,104.74365200000011,85.89746099999957,102.94873000000007,122.43603499999972,103.7177729999994
305,88.20507799999996,113.58984400000008,89.87158199999976,-91.41015600000037,106.2822270000006,113.20507799999996,126.79492200000004,110.12841800000024,113.9741210000002,95.89746099999957,80.0,100.64111300000059,117.43603499999972,98.46142599999985
306,81.2822270000006,109.61523400000078,85.0,-99.61547900000005,106.15380900000036,110.25634799999989,118.84619099999964,104.10253900000043,108.0771479999994,84.87158199999976,73.0771479999994,98.0771479999994,109.23095699999976,90.64111300000059
307,77.82031300000017,105.0,81.9228520000006,-110.38452099999995,103.84619099999964,107.17968800000017,112.30761700000039,101.0258789999998,103.84619099999964,77.17968800000017,69.23095699999976,96.41015599999992,100.89746099999957,84.35888699999941
308,79.48730499999965,102.30761700000039,81.9228520000006,-121.28198199999997,99.74365200000011,106.15380900000036,110.25634799999989,102.94873000000007,103.20507799999996,75.76904300000024,71.0258789999998,96.53857400000015,96.0258789999998,82.43603499999972
309,84.23095699999976,102.94873000000007,83.58984400000008,-129.35888699999987,95.25634799999989,107.69238299999961,113.20507799999996,108.84619099999964,106.0258789999998,79.35888699999941,77.30761700000039,97.82031300000017,96.41015599999992,84.35888699999941
310,87.69238299999961,105.51269500000035,83.9741210000002,-132.820557,91.15380900000036,110.25634799999989,118.0771479999994,115.12841800000024,110.12841800000024,84.35888699999941,83.46142599999985,99.10253900000043,100.51269500000035,87.43603499999972
311,86.2822270000006,107.05126999999993,81.53857400000015,-132.9487299999996,88.7177729999994,111.41015599999992,120.64111300000059,118.20507799999996,112.82031300000017,88.0771479999994,85.25634799999989,99.61523400000078,104.87158199999976,88.84619099999964
312,80.51269500000035,105.89746099999957,77.17968800000017,-132.179443,89.48730499999965,110.0,119.23095699999976,116.9228520000006,113.0771479999994,90.38476599999922,81.6665039999998,99.35888699999941,107.05126999999993,88.0771479999994
313,73.9741210000002,102.69238299999961,73.9741210000002,-132.43579099999943,93.7177729999994,107.17968800000017,115.51269500000035,113.3334960000002,111.9228520000006,93.0771479999994,76.0258789999998,98.84619099999964,107.56396500000028,86.0258789999998
314,70.0,99.48730499999965,74.35888699999941,-134.10253899999998,98.84619099999964,105.38476599999922,112.43603499999972,110.76904300000024,111.2822270000006,96.15380900000036,71.6665039999998,98.46142599999985,108.0771479999994,84.10253900000043
315,70.12841800000024,98.0771479999994,77.82031300000017,-135.89746100000002,100.76904300000024,106.41015599999992,111.41015599999992,111.0258789999998,112.05126999999993,97.69238299999961,70.12841800000024,98.7177729999994,109.35888699999941,83.0771479999994
316,74.35888699999941,100.0,81.6665039999998,-136.02563499999997,98.0771479999994,109.87158199999976,112.05126999999993,113.46142599999985,113.0771479999994,95.64111300000059,71.41015599999992,99.48730499999965,111.15380900000036,83.7177729999994
317,81.9228520000006,105.64111300000059,84.10253900000043,-132.9487299999996,93.7177729999994,113.46142599999985,114.23095699999976,116.53857400000015,113.84619099999964,91.2822270000006,75.0,100.51269500000035,113.3334960000002,87.05126999999993
318,90.64111300000059,113.46142599999985,85.89746099999957,-126.15380900000036,92.94873000000007,115.12841800000024,117.69238299999961,118.58984400000008,115.12841800000024,89.10253900000043,80.38476599999922,101.6665039999998,116.0258789999998,92.94873000000007
319,97.56396500000028,120.76904300000024,87.94873000000007,-117.43579099999943,97.56396500000028,115.0,122.17968800000017,119.48730499999965,117.43603499999972,92.30761700000039,86.9228520000006,102.94873000000007,119.10253900000043,100.25634799999989
320,99.87158199999976,124.35888699999941,90.38476599999922,-110.38452099999995,104.87158199999976,114.48730499999965,126.0258789999998,119.35888699999941,120.0,98.9741210000002,92.94873000000007,104.10253900000043,121.41015599999992,106.2822270000006
321,96.6665039999998,123.0771479999994,91.6665039999998,-107.17944299999999,110.25634799999989,114.61523400000078,127.05126999999993,118.46142599999985,120.25634799999989,102.94873000000007,96.79492200000004,104.35888699999941,121.6665039999998,108.20507799999996
322,90.25634799999989,118.46142599999985,90.89746099999957,-107.56420900000057,111.15380900000036,114.87158199999976,124.74365200000011,116.9228520000006,116.41015599999992,99.61523400000078,97.56396500000028,103.46142599999985,119.61523400000078,105.51269500000035
323,84.35888699999941,114.10253900000043,88.84619099999964,-109.35888699999987,108.7177729999994,114.35888699999941,120.25634799999989,115.0,109.87158199999976,90.64111300000059,96.15380900000036,101.53857400000015,116.2822270000006,100.12841800000024
324,82.30761700000039,112.94873000000007,87.17968800000017,-110.89746100000002,106.0258789999998,112.56396500000028,116.0258789999998,113.3334960000002,104.23095699999976,83.20507799999996,93.46142599999985,100.12841800000024,113.0771479999994,96.0258789999998
325,85.12841800000024,115.64111300000059,87.43603499999972,-112.05127000000039,105.25634799999989,110.25634799999989,113.7177729999994,112.43603499999972,102.43603499999972,83.46142599999985,91.0258789999998,100.38476599999922,111.79492200000004,95.89746099999957
326,91.0258789999998,119.61523400000078,89.61523400000078,-112.69238299999961,105.51269500000035,108.9741210000002,114.23095699999976,112.56396500000028,105.0,92.05126999999993,89.61523400000078,101.6665039999998,112.82031300000017,99.23095699999976
327,96.79492200000004,121.53857400000015,91.79492200000004,-112.69238299999961,104.35888699999941,110.12841800000024,116.6665039999998,113.0771479999994,109.61523400000078,102.69238299999961,88.84619099999964,102.17968800000017,114.48730499999965,102.69238299999961
328,99.23095699999976,119.87158199999976,92.05126999999993,-111.28198199999997,101.6665039999998,112.82031300000017,118.9741210000002,113.46142599999985,112.94873000000007,107.43603499999972,88.46142599999985,101.15380900000036,114.87158199999976,103.20507799999996
329,98.7177729999994,116.6665039999998,90.76904300000024,-107.82055700000001,100.38476599999922,115.0,118.58984400000008,113.46142599999985,113.46142599999985,103.84619099999964,88.84619099999964,99.74365200000011,113.3334960000002,101.53857400000015
330,97.94873000000007,115.76904300000024,90.51269500000035,-102.17944299999999,103.3334960000002,115.51269500000035,115.89746099999957,114.23095699999976,111.79492200000004,96.41015599999992,91.0258789999998,100.38476599999922,111.0258789999998,101.0258789999998
331,99.35888699999941,119.10253900000043,93.46142599999985,-95.51293900000019,108.7177729999994,114.35888699999941,113.46142599999985,116.0258789999998,110.64111300000059,92.56396500000028,95.38476599999922,103.9741210000002,109.48730499999965,103.58984400000008
332,102.43603499999972,124.87158199999976,98.58984400000008,-91.02563499999997,112.17968800000017,112.94873000000007,114.61523400000078,118.20507799999996,111.79492200000004,95.76904300000024,100.25634799999989,109.10253900000043,109.35888699999941,107.30761700000039
333,104.74365200000011,129.87158199999976,102.69238299999961,-91.15380900000036,110.38476599999922,112.30761700000039,119.23095699999976,119.35888699999941,114.87158199999976,102.69238299999961,103.20507799999996,112.69238299999961,110.64111300000059,109.35888699999941
334,105.0,131.79492200000004,103.46142599999985,-95.0,105.64111300000059,113.20507799999996,124.74365200000011,119.10253900000043,117.82031300000017,106.53857400000015,102.56396500000028,112.43603499999972,113.3334960000002,108.7177729999994
335,104.23095699999976,131.6665039999998,101.9228520000006,-99.10253899999998,102.69238299999961,114.87158199999976,127.69238299999961,118.3334960000002,118.3334960000002,102.94873000000007,99.10253900000043,108.7177729999994,116.9228520000006,107.43603499999972
336,103.7177729999994,130.6411130000006,100.51269500000035,-100.0,104.74365200000011,116.0258789999998,127.05126999999993,117.69238299999961,115.25634799999989,93.20507799999996,94.35888699999941,104.23095699999976,119.74365200000011,107.82031300000017
337,103.0771479999994,129.3588869999994,99.87158199999976,-96.92309599999999,109.87158199999976,114.61523400000078,123.84619099999964,117.05126999999993,109.61523400000078,82.94873000000007,89.74365200000011,101.15380900000036,119.87158199999976,109.61523400000078
338,101.6665039999998,127.43603499999972,99.48730499999965,-92.43579099999943,113.58984400000008,110.38476599999922,120.12841800000024,115.38476599999922,103.84619099999964,78.0771479999994,86.0258789999998,100.12841800000024,116.2822270000006,111.0258789999998
339,98.84619099999964,125.0,97.82031300000017,-89.48706099999981,112.69238299999961,105.0,117.05126999999993,111.79492200000004,99.87158199999976,80.25634799999989,83.58984400000008,100.0,110.0,109.74365200000011
340,95.38476599999922,122.05126999999993,94.35888699999941,-89.74365200000011,107.43603499999972,100.89746099999957,114.74365200000011,106.9228520000006,98.46142599999985,86.9228520000006,82.82031300000017,99.10253900000043,103.20507799999996,105.25634799999989
341,92.05126999999993,119.10253900000043,90.0,-92.30761700000039,100.89746099999957,99.87158199999976,112.43603499999972,102.30761700000039,98.9741210000002,93.9741210000002,83.3334960000002,97.69238299999961,98.20507799999996,99.35888699999941
342,90.38476599999922,117.30761700000039,86.41015599999992,-94.8718259999996,96.79492200000004,101.79492200000004,110.12841800000024,99.61523400000078,100.51269500000035,98.3334960000002,84.48730499999965,96.9228520000006,96.9228520000006,95.12841800000024
343,91.15380900000036,117.82031300000017,85.51269500000035,-94.61547900000005,96.9228520000006,104.48730499999965,108.20507799999996,99.35888699999941,101.79492200000004,98.3334960000002,86.41015599999992,97.56396500000028,99.87158199999976,94.87158199999976
344,93.20507799999996,120.0,86.9228520000006,-91.41015600000037,99.48730499999965,105.51269500000035,107.05126999999993,100.38476599999922,101.41015599999992,93.9741210000002,88.7177729999994,98.7177729999994,104.74365200000011,97.56396500000028
345,94.87158199999976,121.6665039999998,88.7177729999994,-87.05127000000039,100.25634799999989,104.23095699999976,107.30761700000039,100.76904300000024,98.58984400000008,86.41015599999992,90.25634799999989,98.9741210000002,107.94873000000007,99.74365200000011
346,95.51269500000035,121.2822270000006,89.87158199999976,-83.33325200000036,97.82031300000017,102.69238299999961,109.23095699999976,99.87158199999976,95.12841800000024,78.84619099999964,90.12841800000024,98.20507799999996,107.43603499999972,99.23095699999976
347,97.43603499999972,121.15380900000036,92.05126999999993,-79.74365200000011,96.53857400000015,103.7177729999994,113.3334960000002,100.0,94.35888699999941,75.0,89.87158199999976,98.3334960000002,105.64111300000059,98.46142599999985
348,103.20507799999996,125.25634799999989,97.94873000000007,-73.97436500000003,102.43603499999972,108.0771479999994,119.35888699999941,104.23095699999976,99.23095699999976,77.69238299999961,92.82031300000017,102.30761700000039,107.56396500000028,103.0771479999994
349,112.30761700000039,134.3588869999994,108.0771479999994,-65.64111300000013,115.0,113.20507799999996,125.76904300000024,112.69238299999961,108.84619099999964,86.79492200000004,100.76904300000024,110.25634799999989,115.76904300000024,115.12841800000024
350,120.25634799999989,143.0771479999994,118.84619099999964,-57.82055700000001,126.6665039999998,115.76904300000024,130.0,120.89746099999957,118.3334960000002,97.69238299999961,111.79492200000004,118.3334960000002,126.9228520000006,129.23095699999976
351,121.41015599999992,144.7436520000001,124.35888699999941,-55.64111300000013,129.87158199999976,113.9741210000002,129.87158199999976,122.82031300000017,122.30761700000039,104.35888699999941,119.61523400000078,121.41015599999992,134.3588869999994,136.0258789999998
352,114.35888699999941,137.56396500000028,121.6665039999998,-60.89746100000002,123.3334960000002,109.48730499999965,124.74365200000011,116.41015599999992,118.9741210000002,104.23095699999976,119.48730499999965,117.30761700000039,133.20507799999996,130.38476599999922
353,102.94873000000007,126.6665039999998,112.94873000000007,-70.89746100000002,112.69238299999961,106.15380900000036,116.79492200000004,105.51269500000035,111.2822270000006,100.0,111.6665039999998,108.84619099999964,125.12841800000024,116.2822270000006
354,93.9741210000002,119.23095699999976,103.58984400000008,-79.8718259999996,104.10253900000043,106.2822270000006,110.38476599999922,96.9228520000006,104.61523400000078,97.56396500000028,101.0258789999998,101.15380900000036,116.2822270000006,102.94873000000007
355,91.79492200000004,119.48730499999965,98.20507799999996,-83.33325200000036,100.51269500000035,109.35888699999941,109.61523400000078,95.76904300000024,103.58984400000008,101.0258789999998,94.10253900000043,98.7177729999994,111.9228520000006,98.3334960000002
356,96.15380900000036,126.0258789999998,98.7177729999994,-80.89746100000002,101.9228520000006,112.94873000000007,115.12841800000024,102.30761700000039,108.84619099999964,108.7177729999994,94.35888699999941,102.69238299999961,113.58984400000008,103.7177729999994
357,102.94873000000007,133.0771479999994,102.56396500000028,-74.8718259999996,105.76904300000024,114.87158199999976,122.94873000000007,112.17968800000017,116.9228520000006,115.0,100.38476599999922,109.87158199999976,118.58984400000008,114.10253900000043
358,107.17968800000017,135.51269500000035,106.41015599999992,-68.84619099999964,108.58984400000008,114.87158199999976,126.53857400000015,118.9741210000002,122.17968800000017,113.84619099999964,107.43603499999972,115.51269500000035,122.05126999999993,121.6665039999998
359,106.53857400000015,132.17968800000017,108.0771479999994,-64.48706099999981,108.3334960000002,113.7177729999994,122.56396500000028,119.10253900000043,121.41015599999992,105.12841800000024,110.76904300000024,116.79492200000004,121.79492200000004,122.43603499999972
360,102.82031300000017,126.0258789999998,108.58984400000008,-61.41015600000037,106.15380900000036,112.43603499999972,114.23095699999976,114.35888699999941,116.6665039999998,95.12841800000024,110.12841800000024,114.48730499999965,118.7177729999994,117.94873000000007
361,100.76904300000024,121.15380900000036,110.12841800000024,-59.10253899999998,105.76904300000024,112.05126999999993,109.23095699999976,111.41015599999992,113.9741210000002,92.05126999999993,108.7177729999994,112.17968800000017,116.79492200000004,114.23095699999976
362,102.94873000000007,118.7177729999994,114.10253900000043,-56.92309599999999,109.10253900000043,112.94873000000007,112.43603499999972,115.38476599999922,117.69238299999961,98.3334960000002,110.0,112.30761700000039,118.7177729999994,114.74365200000011
363,106.41015599999992,116.0258789999998,118.58984400000008,-55.1281740000004,114.23095699999976,115.0,122.05126999999993,124.74365200000011,125.25634799999989,107.69238299999961,113.46142599999985,114.23095699999976,122.56396500000028,117.30761700000039
364,105.76904300000024,110.25634799999989,118.84619099999964,-54.23071300000038,116.2822270000006,116.79492200000004,130.38476599999922,132.6923829999996,129.7436520000001,110.12841800000024,114.61523400000078,114.87158199999976,122.82031300000017,117.05126999999993
365,97.94873000000007,102.30761700000039,112.69238299999961,-54.48706099999981,111.9228520000006,116.2822270000006,131.0258789999998,132.56396500000028,125.25634799999989,101.9228520000006,109.10253900000043,111.6665039999998,116.6665039999998,110.76904300000024
366,86.41015599999992,97.82031300000017,102.69238299999961,-55.1281740000004,102.82031300000017,113.0771479999994,123.20507799999996,123.7177729999994,112.69238299999961,88.58984400000008,97.94873000000007,105.51269500000035,106.41015599999992,101.41015599999992
367,78.0771479999994,103.0771479999994,95.12841800000024,-53.846190999999635,95.0,108.84619099999964,112.30761700000039,111.79492200000004,99.74365200000011,80.38476599999922,87.17968800000017,99.61523400000078,98.46142599999985,95.89746099999957
368,78.3334960000002,118.7177729999994,94.35888699999941,-48.20507799999996,93.84619099999964,105.51269500000035,105.64111300000059,104.87158199999976,94.74365200000011,84.23095699999976,83.20507799999996,97.69238299999961,97.05126999999993,98.9741210000002
369,87.43603499999972,138.9741210000002,100.12841800000024,-37.82055700000001,100.64111300000059,105.25634799999989,107.05126999999993,106.6665039999998,100.89746099999957,97.69238299999961,87.43603499999972,100.38476599999922,102.30761700000039,109.23095699999976
370,100.38476599999922,155.76904300000024,107.82031300000017,-25.1281740000004,111.41015599999992,107.56396500000028,114.61523400000078,114.61523400000078,113.84619099999964,111.6665039999998,96.15380900000036,105.38476599999922,109.61523400000078,119.48730499999965
371,110.12841800000024,163.46142599999985,112.05126999999993,-13.846190999999635,120.0,110.12841800000024,121.79492200000004,121.53857400000015,124.48730499999965,116.6665039999998,102.82031300000017,108.58984400000008,113.9741210000002,123.0771479999994
372,112.05126999999993,161.2822270000006,110.51269500000035,-7.948729999999614,121.0258789999998,110.38476599999922,122.30761700000039,121.15380900000036,125.12841800000024,109.48730499999965,102.17968800000017,107.30761700000039,112.17968800000017,117.94873000000007
373,106.15380900000036,153.58984400000008,104.35888699999941,-8.58984399999963,113.84619099999964,107.94873000000007,115.51269500000035,112.43603499999972,115.38476599999922,95.0,94.35888699999941,102.43603499999972,104.74365200000011,108.20507799999996
374,98.20507799999996,146.2822270000006,98.3334960000002,-13.461425999999847,103.7177729999994,105.64111300000059,106.41015599999992,101.0258789999998,102.30761700000039,82.17968800000017,85.0,97.94873000000007,96.2822270000006,101.0258789999998
375,94.61523400000078,144.61523400000078,96.9228520000006,-16.923095999999987,99.10253900000043,106.9228520000006,102.05126999999993,95.25634799999989,95.64111300000059,78.3334960000002,81.79492200000004,98.0771479999994,92.82031300000017,101.2822270000006
376,98.20507799999996,149.3588869999994,102.17968800000017,-14.743652000000111,104.61523400000078,111.6665039999998,104.87158199999976,99.10253900000043,100.25634799999989,84.61523400000078,88.7177729999994,102.94873000000007,97.43603499999972,108.46142599999985
377,105.51269500000035,156.2822270000006,110.51269500000035,-7.435790999999426,115.89746099999957,116.41015599999992,111.9228520000006,109.48730499999965,111.79492200000004,95.64111300000059,102.05126999999993,109.23095699999976,107.05126999999993,117.05126999999993
378,110.76904300000024,159.87158199999976,116.41015599999992,-0.769043000000238,124.23095699999976,116.9228520000006,117.30761700000039,118.7177729999994,121.2822270000006,103.9741210000002,113.20507799999996,112.05126999999993,115.38476599999922,121.15380900000036
379,110.51269500000035,157.82031300000017,116.9228520000006,1.0258789999998044,123.84619099999964,112.69238299999961,118.46142599999985,121.53857400000015,122.69238299999961,105.89746099999957,116.0258789999998,109.74365200000011,117.82031300000017,119.23095699999976
380,106.41015599999992,152.6923829999996,114.23095699999976,-1.5385740000001533,116.41015599999992,107.05126999999993,116.41015599999992,118.9741210000002,117.69238299999961,103.58984400000008,110.76904300000024,104.87158199999976,114.74365200000011,115.76904300000024
381,102.69238299999961,148.58984400000008,112.30761700000039,-4.230713000000378,107.69238299999961,103.84619099999964,114.35888699999941,115.64111300000059,112.82031300000017,101.53857400000015,103.0771479999994,101.41015599999992,109.74365200000011,115.12841800000024
382,102.05126999999993,147.43603499999972,112.94873000000007,-2.6923829999996087,102.05126999999993,104.35888699999941,113.9741210000002,114.61523400000078,112.56396500000028,101.2822270000006,98.20507799999996,101.2822270000006,105.51269500000035,117.69238299999961
383,103.20507799999996,147.6923829999996,114.23095699999976,2.9487300000000687,99.74365200000011,106.9228520000006,114.74365200000011,115.89746099999957,115.89746099999957,101.0258789999998,97.56396500000028,103.58984400000008,102.30761700000039,119.74365200000011
