,EEG.AF3,EEG.F7,EEG.F3,EEG.FC5,EEG.T7,EEG.P7,EEG.O1,EEG.O2,EEG.P8,EEG.T8,EEG.FC6,EEG.F4,EEG.F8,EEG.AF4
0,113.46142599999985,119.87158199999976,119.48730499999965,86.2822270000006,109.48730499999965,91.6665039999998,102.30761700000039,104.10253900000043,108.7177729999994,77.05126999999993,57.94873000000007,108.7177729999994,53.46142599999985,96.6665039999998
1,107.17968800000017,116.41015599999992,119.61523400000078,84.35888699999941,109.61523400000078,89.74365200000011,101.79492200000004,105.76904300000024,101.2822270000006,76.2822270000006,58.46142599999985,109.35888699999941,53.846190999999635,90.76904300000024
2,101.0258789999998,112.82031300000017,118.20507799999996,85.76904300000024,104.35888699999941,90.25634799999989,103.7177729999994,108.46142599999985,97.56396500000028,80.38476599999922,57.94873000000007,108.46142599999985,51.025878999999804,83.84619099999964
3,100.38476599999922,111.6665039999998,116.79492200000004,90.64111300000059,99.23095699999976,94.35888699999941,108.20507799999996,112.43603499999972,101.15380900000036,89.23095699999976,59.61523400000078,107.17968800000017,48.46142599999985,82.05126999999993
4,105.64111300000059,113.0771479999994,117.30761700000039,96.53857400000015,98.46142599999985,99.74365200000011,112.82031300000017,116.15380900000036,109.48730499999965,97.56396500000028,64.10253900000043,106.41015599999992,48.333496000000196,86.79492200000004
5,113.3334960000002,115.12841800000024,119.87158199999976,101.41015599999992,102.82031300000017,102.69238299999961,115.12841800000024,117.69238299999961,116.79492200000004,100.12841800000024,69.48730499999965,106.9228520000006,50.897460999999566,95.51269500000035
6,118.9741210000002,115.89746099999957,123.84619099999964,105.51269500000035,109.74365200000011,100.51269500000035,115.12841800000024,116.9228520000006,118.7177729999994,97.94873000000007,74.48730499999965,108.9741210000002,54.61523400000078,104.48730499999965
7,120.76904300000024,116.0258789999998,127.82031300000017,111.15380900000036,115.76904300000024,94.35888699999941,114.74365200000011,115.25634799999989,115.51269500000035,96.15380900000036,78.7177729999994,112.30761700000039,57.56396500000028,111.0258789999998
8,120.12841800000024,116.6665039999998,130.6411130000006,120.12841800000024,118.84619099999964,88.3334960000002,115.76904300000024,115.25634799999989,110.76904300000024,99.35888699999941,82.17968800000017,116.15380900000036,58.7177729999994,114.35888699999941
9,118.84619099999964,118.20507799999996,130.76904300000024,131.2822270000006,119.87158199999976,86.6665039999998,117.56396500000028,117.69238299999961,107.56396500000028,106.2822270000006,84.87158199999976,118.3334960000002,58.333496000000196,114.48730499999965
10,118.20507799999996,118.9741210000002,127.56396500000028,141.41015599999992,120.51269500000035,90.25634799999989,117.69238299999961,120.12841800000024,105.89746099999957,111.53857400000015,87.30761700000039,117.17968800000017,57.30761700000039,112.17968800000017
11,117.94873000000007,117.56396500000028,121.2822270000006,147.56396500000028,120.76904300000024,96.2822270000006,114.23095699999976,118.9741210000002,103.46142599999985,109.74365200000011,90.0,112.30761700000039,56.153809000000365,108.58984400000008
12,117.30761700000039,112.69238299999961,114.10253900000043,149.48730499999965,118.7177729999994,101.0258789999998,107.82031300000017,112.94873000000007,98.20507799999996,101.2822270000006,93.20507799999996,105.89746099999957,54.87158199999976,104.87158199999976
13,115.89746099999957,104.87158199999976,108.3334960000002,149.87158199999976,113.7177729999994,102.56396500000028,102.17968800000017,104.87158199999976,91.9228520000006,92.43603499999972,96.2822270000006,101.2822270000006,53.0771479999994,101.41015599999992
14,114.10253900000043,96.9228520000006,104.74365200000011,151.9228520000006,107.56396500000028,101.79492200000004,100.51269500000035,99.61523400000078,87.43603499999972,89.74365200000011,97.30761700000039,100.51269500000035,50.897460999999566,98.20507799999996
15,112.56396500000028,92.17968800000017,102.82031300000017,157.6923829999996,104.35888699999941,100.38476599999922,102.30761700000039,100.12841800000024,86.79492200000004,95.12841800000024,95.0,102.43603499999972,48.974121000000196,95.64111300000059
16,112.17968800000017,92.69238299999961,101.0258789999998,167.05126999999993,105.76904300000024,99.23095699999976,104.61523400000078,105.25634799999989,88.58984400000008,104.10253900000043,89.61523400000078,103.84619099999964,48.46142599999985,95.0
17,113.9741210000002,96.41015599999992,99.61523400000078,177.56396500000028,109.87158199999976,99.23095699999976,104.48730499999965,110.89746099999957,90.12841800000024,110.64111300000059,84.61523400000078,102.69238299999961,51.666503999999804,97.69238299999961
18,118.58984400000008,98.3334960000002,99.87158199999976,186.41015599999992,112.17968800000017,100.0,102.94873000000007,114.23095699999976,89.87158199999976,112.17968800000017,84.74365200000011,100.38476599999922,59.102539000000434,103.9741210000002
19,125.38476599999922,94.10253900000043,103.20507799999996,191.79492200000004,109.87158199999976,100.89746099999957,102.82031300000017,114.48730499999965,88.84619099999964,110.76904300000024,92.56396500000028,100.38476599999922,68.9741210000002,112.43603499999972
20,133.58984400000008,84.87158199999976,109.23095699999976,193.84619099999964,103.7177729999994,101.0258789999998,106.0258789999998,113.58984400000008,89.61523400000078,111.0258789999998,105.76904300000024,103.9741210000002,78.7177729999994,121.6665039999998
21,142.56396500000028,77.56396500000028,115.89746099999957,194.61523400000078,97.94873000000007,100.38476599999922,111.15380900000036,113.58984400000008,93.84619099999964,116.0258789999998,118.3334960000002,109.87158199999976,86.6665039999998,130.51269500000035
22,152.05126999999993,80.89746099999957,120.76904300000024,197.43603499999972,95.89746099999957,99.74365200000011,114.74365200000011,115.64111300000059,100.12841800000024,124.48730499999965,124.87158199999976,114.74365200000011,92.56396500000028,139.10253900000043
23,161.79492200000004,99.10253900000043,122.05126999999993,203.9741210000002,97.30761700000039,99.87158199999976,114.10253900000043,118.9741210000002,104.23095699999976,131.9228520000006,124.87158199999976,116.53857400000015,95.76904300000024,147.17968800000017
24,171.0258789999998,127.94873000000007,120.12841800000024,213.58984400000008,99.61523400000078,100.0,109.74365200000011,120.89746099999957,102.69238299999961,132.82031300000017,121.15380900000036,115.0,95.51269500000035,154.7436520000001
25,179.10253900000043,158.3334960000002,117.05126999999993,224.23095699999976,101.0258789999998,99.35888699999941,104.10253900000043,119.87158199999976,95.64111300000059,123.9741210000002,117.82031300000017,112.17968800000017,91.15380900000036,161.2822270000006
26,186.9228520000006,182.82031300000017,115.76904300000024,233.20507799999996,101.9228520000006,98.20507799999996,100.38476599999922,116.41015599999992,87.05126999999993,107.69238299999961,116.79492200000004,110.89746099999957,82.82031300000017,166.2822270000006
27,195.12841800000024,200.0,117.56396500000028,239.23095699999976,104.10253900000043,97.94873000000007,100.12841800000024,113.0771479999994,82.30761700000039,91.79492200000004,117.30761700000039,112.17968800000017,71.53857400000015,169.7436520000001
28,203.3334960000002,213.7177729999994,121.41015599999992,242.3076170000004,107.82031300000017,98.7177729999994,102.17968800000017,110.76904300000024,83.20507799999996,84.10253900000043,116.79492200000004,114.10253900000043,58.0771479999994,171.79492200000004
29,209.3588869999994,228.3334960000002,123.7177729999994,243.20507799999996,111.9228520000006,99.87158199999976,103.46142599999985,108.0771479999994,85.76904300000024,87.05126999999993,113.3334960000002,114.10253900000043,42.94873000000007,172.05126999999993
30,210.89746099999957,244.61523400000078,122.17968800000017,243.0771479999994,113.3334960000002,100.38476599999922,102.17968800000017,101.79492200000004,83.58984400000008,93.7177729999994,106.6665039999998,110.64111300000059,26.538574000000153,169.61523400000078
31,208.20507799999996,259.6152340000008,118.20507799999996,242.56396500000028,111.41015599999992,100.0,98.7177729999994,91.79492200000004,74.61523400000078,93.84619099999964,98.0771479999994,105.0,10.384765999999217,164.3588869999994
32,204.10253900000043,271.4101559999999,115.76904300000024,242.43603499999972,109.61523400000078,99.61523400000078,96.41015599999992,81.79492200000004,62.56396500000028,82.94873000000007,90.76904300000024,100.76904300000024,-3.2050779999999577,158.20507799999996
33,202.3076170000004,280.76904300000024,118.20507799999996,243.9741210000002,113.9741210000002,100.0,97.56396500000028,77.17968800000017,55.0,66.79492200000004,87.05126999999993,100.76904300000024,-12.692382999999609,154.48730499999965
34,203.7177729999994,290.51269500000035,124.35888699999941,246.79492200000004,125.64111300000059,101.0258789999998,101.15380900000036,79.35888699999941,55.897460999999566,56.666503999999804,86.41015599999992,104.23095699999976,-18.846190999999635,154.23095699999976
35,204.23095699999976,301.15380900000036,129.23095699999976,248.0771479999994,138.58984400000008,102.17968800000017,103.0771479999994,84.87158199999976,62.56396500000028,58.333496000000196,85.0,107.56396500000028,-25.38452099999995,155.38476599999922
36,198.20507799999996,309.3588869999994,127.30761700000039,242.94873000000007,143.58984400000008,102.43603499999972,100.89746099999957,87.56396500000028,68.20507799999996,66.53857400000015,79.10253900000043,106.79492200000004,-36.153809000000365,152.94873000000007
37,183.3334960000002,311.2822270000006,117.82031300000017,228.58984400000008,137.56396500000028,101.79492200000004,95.51269500000035,84.35888699999941,67.69238299999961,69.74365200000011,68.3334960000002,101.15380900000036,-51.66674799999964,143.58984400000008
38,163.46142599999985,306.0258789999998,104.35888699999941,207.94873000000007,125.38476599999922,100.76904300000024,90.25634799999989,76.9228520000006,61.53857400000015,59.87158199999976,56.153809000000365,92.94873000000007,-68.84619099999964,128.20507799999996
39,144.87158199999976,296.15380900000036,92.56396500000028,187.56396500000028,115.25634799999989,99.74365200000011,87.56396500000028,70.38476599999922,53.974121000000196,39.102539000000434,45.897460999999566,86.2822270000006,-83.46142599999985,110.76904300000024
40,131.79492200000004,286.2822270000006,86.0258789999998,173.20507799999996,112.82031300000017,98.9741210000002,87.82031300000017,67.94873000000007,49.61523400000078,17.56396500000028,38.333496000000196,83.7177729999994,-93.71801800000003,95.51269500000035
41,124.48730499999965,280.2563479999999,84.87158199999976,165.76904300000024,118.0771479999994,99.10253900000043,89.74365200000011,68.9741210000002,49.48730499999965,4.743652000000111,31.794922000000042,84.61523400000078,-101.28198199999997,84.10253900000043
42,120.12841800000024,279.6152340000008,86.2822270000006,162.3076170000004,127.82031300000017,100.25634799999989,91.2822270000006,71.15380900000036,51.2822270000006,2.9487300000000687,24.871581999999762,86.2822270000006,-108.71801800000003,75.64111300000059
43,115.64111300000059,283.20507799999996,86.9228520000006,158.46142599999985,137.6923829999996,101.41015599999992,91.2822270000006,72.43603499999972,52.43603499999972,6.410155999999915,18.205077999999958,86.79492200000004,-116.92309599999999,68.46142599999985
44,109.10253900000043,288.20507799999996,85.51269500000035,151.2822270000006,144.3588869999994,101.79492200000004,89.35888699999941,72.56396500000028,52.17968800000017,6.538574000000153,13.205077999999958,86.53857400000015,-124.48706099999981,61.9228520000006
45,100.89746099999957,291.2822270000006,82.82031300000017,140.76904300000024,145.76904300000024,100.89746099999957,87.30761700000039,72.43603499999972,51.53857400000015,-0.12841800000023795,10.641113000000587,86.41015599999992,-129.23071300000038,55.897460999999566
46,92.17968800000017,290.76904300000024,80.12841800000024,128.3334960000002,142.3076170000004,98.84619099999964,87.17968800000017,72.69238299999961,51.9228520000006,-10.256347999999889,9.102539000000434,86.9228520000006,-131.28198199999997,50.25634799999989
47,83.7177729999994,287.05126999999993,77.17968800000017,116.0258789999998,136.15380900000036,96.15380900000036,88.84619099999964,71.79492200000004,53.333496000000196,-16.41015600000037,6.410155999999915,86.9228520000006,-132.820557,44.35888699999941
48,74.74365200000011,281.9228520000006,73.20507799999996,105.25634799999989,131.0258789999998,94.23095699999976,89.74365200000011,67.69238299999961,53.7177729999994,-15.1281740000004,0.8974609999995664,85.0,-135.64111300000013,37.17968800000017
49,64.87158199999976,277.5639650000003,68.0771479999994,96.53857400000015,129.23095699999976,94.61523400000078,87.43603499999972,61.025878999999804,51.153809000000365,-9.358886999999868,-6.794922000000042,80.51269500000035,-138.71801800000003,28.333496000000196
50,55.12841800000024,275.0,62.69238299999961,89.35888699999941,131.0258789999998,97.82031300000017,81.9228520000006,54.23095699999976,46.2822270000006,-5.0,-14.487060999999812,74.87158199999976,-139.35888699999987,18.717772999999397
51,45.64111300000059,273.0771479999994,57.82031300000017,81.0258789999998,132.6923829999996,101.2822270000006,75.89746099999957,49.87158199999976,40.25634799999989,-7.179442999999992,-21.923095999999987,69.74365200000011,-136.79492200000004,9.358886999999413
52,34.87158199999976,268.3334960000002,52.56396500000028,68.46142599999985,130.38476599999922,101.53857400000015,71.15380900000036,47.17968800000017,33.20507799999996,-17.69238299999961,-31.666747999999643,66.15380900000036,-134.61547900000005,-0.12841800000023795
53,21.538574000000153,259.23095699999976,46.410155999999915,51.79492200000004,123.46142599999985,97.56396500000028,68.0771479999994,43.46142599999985,25.25634799999989,-34.35888699999987,-45.89746100000002,63.7177729999994,-136.15380900000036,-10.1281740000004
54,8.589844000000085,248.46142599999985,40.38476599999922,35.38476599999922,116.9228520000006,91.79492200000004,66.6665039999998,38.333496000000196,18.461425999999847,-50.38452099999995,-61.41015600000037,62.05126999999993,-139.61547900000005,-18.974365000000034
55,1.7949220000000423,241.9228520000006,37.82031300000017,24.871581999999762,117.17968800000017,88.3334960000002,66.9228520000006,34.48730499999965,16.922852000000603,-56.79492200000004,-70.25634799999989,61.410155999999915,-137.56420900000057,-22.69238299999961
56,5.256347999999889,244.23095699999976,40.64111300000059,21.922852000000603,127.17968800000017,88.46142599999985,69.10253900000043,35.38476599999922,23.461425999999847,-48.846190999999635,-65.1281740000004,62.69238299999961,-122.30761700000039,-18.076904000000013
57,17.56396500000028,253.7177729999994,47.69238299999961,22.05126999999993,142.94873000000007,91.79492200000004,72.82031300000017,41.53857400000015,36.79492200000004,-29.230713000000378,-46.41015600000037,65.89746099999957,-93.46142599999985,-6.41015600000037
58,31.922852000000603,263.0771479999994,54.61523400000078,18.974121000000196,155.2563479999999,96.15380900000036,76.9228520000006,50.0,51.410155999999915,-7.051270000000386,-22.820557000000008,69.74365200000011,-58.71801800000003,6.538574000000153
59,40.25634799999989,263.84619099999964,56.79492200000004,9.230956999999762,156.15380900000036,99.10253900000043,79.87158199999976,56.153809000000365,60.897460999999566,8.461425999999847,-6.281981999999971,72.17968800000017,-30.769286999999622,14.230956999999762
60,38.0771479999994,251.6665039999998,52.43603499999972,-5.128174000000399,144.3588869999994,98.7177729999994,80.64111300000059,56.9228520000006,61.9228520000006,12.56396500000028,-3.3334960000001956,71.6665039999998,-17.69238299999961,13.846190999999635
61,27.82031300000017,230.0,44.102539000000434,-17.179442999999992,127.69238299999961,95.89746099999957,78.9741210000002,52.82031300000017,56.53857400000015,7.307617000000391,-10.512939000000188,69.10253900000043,-17.435790999999426,8.077147999999397
62,17.05126999999993,208.20507799999996,36.9228520000006,-20.89746100000002,117.17968800000017,92.69238299999961,76.41015599999992,47.94873000000007,50.51269500000035,-0.38476599999921746,-17.820557000000008,66.6665039999998,-19.8718259999996,2.8203130000001693
63,12.692382999999609,195.51269500000035,35.38476599999922,-15.38452099999995,118.9741210000002,90.76904300000024,75.64111300000059,47.30761700000039,50.0,-2.8203119999998307,-16.153809000000365,66.79492200000004,-14.487060999999812,2.8203130000001693
64,16.025878999999804,194.48730499999965,39.87158199999976,-6.281981999999971,129.7436520000001,90.25634799999989,78.58984400000008,52.82031300000017,56.9228520000006,2.8203130000001693,-4.743652000000111,69.74365200000011,1.153809000000365,7.820313000000169
65,22.30761700000039,199.3588869999994,45.64111300000059,-1.153809000000365,139.48730499999965,90.38476599999922,83.20507799999996,61.666503999999804,66.6665039999998,13.205077999999958,9.102539000000434,73.20507799999996,20.384765999999217,12.82031300000017
66,24.871581999999762,200.0,46.153809000000365,-4.102538999999979,139.3588869999994,90.51269500000035,85.51269500000035,68.9741210000002,72.94873000000007,21.922852000000603,16.025878999999804,74.23095699999976,33.333496000000196,13.077147999999397
67,20.25634799999989,190.6411130000006,39.35888699999941,-13.076904000000013,127.82031300000017,91.0258789999998,82.56396500000028,70.64111300000059,71.6665039999998,24.871581999999762,12.82031300000017,71.41015599999992,35.38476599999922,8.461425999999847
68,10.897460999999566,173.46142599999985,29.48730499999965,-21.923095999999987,111.9228520000006,92.17968800000017,75.89746099999957,66.79492200000004,65.0,22.94873000000007,5.256347999999889,66.6665039999998,30.51269500000035,4.230956999999762
69,3.846190999999635,157.43603499999972,24.230956999999762,-24.487060999999812,103.20507799999996,94.48730499999965,70.64111300000059,61.9228520000006,59.35888699999941,21.538574000000153,3.3334960000001956,64.10253900000043,27.69238299999961,6.025878999999804
70,5.128418000000238,150.76904300000024,28.589844000000085,-17.820557000000008,109.35888699999941,97.43603499999972,71.41015599999992,61.53857400000015,60.25634799999989,25.51269500000035,13.589844000000085,66.9228520000006,33.846190999999635,15.769043000000238
71,14.871581999999762,154.48730499999965,40.38476599999922,-4.358886999999868,126.53857400000015,99.87158199999976,78.7177729999994,67.69238299999961,68.0771479999994,34.35888699999941,33.7177729999994,74.61523400000078,48.46142599999985,28.974121000000196
72,26.794922000000042,161.79492200000004,52.17968800000017,8.974121000000196,141.6665039999998,101.0258789999998,87.94873000000007,77.82031300000017,78.0771479999994,42.43603499999972,53.974121000000196,83.46142599999985,64.74365200000011,38.589844000000085
73,33.0771479999994,162.56396500000028,56.53857400000015,15.256347999999889,142.05126999999993,100.76904300000024,93.46142599999985,85.89746099999957,84.48730499999965,43.974121000000196,64.10253900000043,88.20507799999996,73.9741210000002,39.23095699999976
74,29.871581999999762,151.9228520000006,51.666503999999804,10.897460999999566,125.0,99.87158199999976,92.94873000000007,87.30761700000039,83.9741210000002,37.82031300000017,59.87158199999976,86.15380900000036,72.43603499999972,31.922852000000603
75,19.230956999999762,132.3076170000004,41.2822270000006,-1.6665039999998044,100.12841800000024,98.7177729999994,87.94873000000007,81.15380900000036,77.05126999999993,28.589844000000085,46.2822270000006,79.10253900000043,62.82031300000017,22.17968800000017
76,7.051269999999931,112.17968800000017,31.794922000000042,-15.38452099999995,82.30761700000039,98.0771479999994,82.56396500000028,71.2822270000006,68.20507799999996,21.666503999999804,33.46142599999985,71.15380900000036,51.666503999999804,15.897460999999566
77,-0.256347999999889,99.74365200000011,28.717772999999397,-22.820557000000008,82.17968800000017,99.10253900000043,80.25634799999989,63.846190999999635,62.30761700000039,20.897460999999566,29.358886999999413,66.79492200000004,45.897460999999566,15.384765999999217
78,0.769043000000238,98.20507799999996,32.43603499999972,-19.61547900000005,99.10253900000043,101.41015599999992,82.30761700000039,63.0771479999994,62.43603499999972,25.769043000000238,35.38476599999922,67.43603499999972,47.56396500000028,18.717772999999397
79,8.589844000000085,103.9741210000002,38.974121000000196,-8.974365000000034,123.0771479999994,103.20507799999996,86.0258789999998,69.35888699999941,67.43603499999972,33.589844000000085,45.51269500000035,71.41015599999992,55.12841800000024,22.56396500000028
80,17.43603499999972,110.76904300000024,42.69238299999961,1.153809000000365,141.0258789999998,102.94873000000007,88.58984400000008,78.84619099999964,74.10253900000043,41.153809000000365,52.94873000000007,75.25634799999989,64.87158199999976,24.74365200000011
81,21.922852000000603,113.58984400000008,41.025878999999804,3.9741210000001956,145.12841800000024,101.15380900000036,88.3334960000002,87.56396500000028,79.48730499999965,46.79492200000004,54.48730499999965,76.0258789999998,74.23095699999976,25.0
82,20.769043000000238,112.05126999999993,36.9228520000006,-0.256347999999889,136.15380900000036,100.0,86.9228520000006,93.3334960000002,83.0771479999994,50.51269500000035,53.20507799999996,74.48730499999965,81.79492200000004,25.51269500000035
83,17.69238299999961,108.20507799999996,35.51269500000035,-5.256347999999889,121.9228520000006,99.87158199999976,86.53857400000015,96.6665039999998,86.79492200000004,53.846190999999635,54.61523400000078,73.84619099999964,87.94873000000007,28.589844000000085
84,18.205077999999958,104.23095699999976,39.61523400000078,-4.102538999999979,111.53857400000015,100.0,88.7177729999994,98.46142599999985,91.79492200000004,58.333496000000196,62.17968800000017,77.05126999999993,93.3334960000002,35.25634799999989
85,25.25634799999989,101.6665039999998,47.94873000000007,5.641113000000587,111.41015599999992,99.87158199999976,93.20507799999996,100.0,97.82031300000017,64.74365200000011,74.48730499999965,83.7177729999994,98.7177729999994,44.102539000000434
86,36.79492200000004,101.41015599999992,56.410155999999915,20.384765999999217,121.0258789999998,99.61523400000078,98.3334960000002,102.30761700000039,102.69238299999961,72.94873000000007,86.41015599999992,90.89746099999957,103.46142599999985,51.9228520000006
87,47.17968800000017,103.3334960000002,61.153809000000365,33.589844000000085,134.48730499999965,99.48730499999965,102.30761700000039,104.61523400000078,104.35888699999941,82.17968800000017,92.82031300000017,95.12841800000024,106.2822270000006,56.153809000000365
88,51.410155999999915,105.51269500000035,60.64111300000059,40.51269500000035,143.84619099999964,99.61523400000078,102.69238299999961,105.51269500000035,103.20507799999996,89.48730499999965,92.17968800000017,94.61523400000078,105.38476599999922,55.897460999999566
89,48.589844000000085,106.0258789999998,56.025878999999804,40.76904300000024,144.3588869999994,100.12841800000024,99.10253900000043,103.58984400000008,101.0258789999998,91.9228520000006,87.56396500000028,90.38476599999922,101.0258789999998,52.56396500000028
90,42.05126999999993,103.46142599999985,50.51269500000035,38.0771479999994,136.79492200000004,100.89746099999957,93.0771479999994,98.84619099999964,99.48730499999965,87.82031300000017,83.3334960000002,85.89746099999957,95.25634799999989,48.7177729999994
91,36.666503999999804,98.20507799999996,47.94873000000007,36.79492200000004,125.12841800000024,101.2822270000006,88.20507799999996,92.69238299999961,98.46142599999985,78.58984400000008,81.9228520000006,83.84619099999964,90.25634799999989,46.79492200000004
92,35.0,91.9228520000006,49.102539000000434,38.46142599999985,114.10253900000043,100.76904300000024,86.79492200000004,86.79492200000004,96.41015599999992,68.3334960000002,82.17968800000017,84.23095699999976,87.05126999999993,46.666503999999804
93,36.2822270000006,86.15380900000036,51.9228520000006,42.82031300000017,106.6665039999998,99.61523400000078,87.94873000000007,82.82031300000017,91.9228520000006,61.2822270000006,80.89746099999957,85.25634799999989,85.12841800000024,46.9228520000006
94,38.20507799999996,82.43603499999972,53.7177729999994,48.333496000000196,104.61523400000078,98.7177729999994,90.12841800000024,81.53857400000015,86.15380900000036,60.0,76.79492200000004,84.87158199999976,84.10253900000043,46.025878999999804
95,40.12841800000024,82.05126999999993,53.974121000000196,54.87158199999976,108.84619099999964,99.23095699999976,92.30761700000039,84.35888699999941,82.82031300000017,64.61523400000078,72.17968800000017,83.46142599999985,84.23095699999976,45.64111300000059
96,43.589844000000085,85.76904300000024,55.38476599999922,62.82031300000017,119.10253900000043,100.64111300000059,95.51269500000035,91.53857400000015,86.15380900000036,73.9741210000002,71.2822270000006,82.94873000000007,86.6665039999998,48.589844000000085
97,51.025878999999804,93.20507799999996,61.025878999999804,72.43603499999972,133.0771479999994,102.05126999999993,101.15380900000036,102.17968800000017,97.17968800000017,86.53857400000015,77.17968800000017,85.25634799999989,91.9228520000006,57.05126999999993
98,62.17968800000017,101.6665039999998,70.64111300000059,82.82031300000017,145.89746099999957,102.69238299999961,108.84619099999964,113.3334960000002,111.9228520000006,100.76904300000024,88.9741210000002,90.89746099999957,99.23095699999976,69.87158199999976
99,73.20507799999996,107.56396500000028,79.74365200000011,92.05126999999993,151.6665039999998,102.56396500000028,116.0258789999998,121.2822270000006,123.46142599999985,113.0771479999994,102.82031300000017,97.82031300000017,105.25634799999989,82.17968800000017
100,79.48730499999965,108.0771479999994,82.82031300000017,98.46142599999985,147.05126999999993,101.79492200000004,119.74365200000011,123.3334960000002,126.53857400000015,119.61523400000078,113.20507799999996,102.56396500000028,106.79492200000004,88.7177729999994
101,79.48730499999965,103.7177729999994,78.46142599999985,101.79492200000004,135.6411130000006,101.0258789999998,118.58984400000008,119.61523400000078,121.41015599999992,118.84619099999964,116.6665039999998,102.82031300000017,103.46142599999985,87.69238299999961
102,77.56396500000028,98.9741210000002,71.15380900000036,104.35888699999941,126.53857400000015,100.38476599999922,114.48730499999965,113.84619099999964,113.9741210000002,113.7177729999994,114.10253900000043,99.74365200000011,98.84619099999964,83.3334960000002
103,79.10253900000043,98.58984400000008,67.82031300000017,108.58984400000008,128.0771479999994,100.64111300000059,111.6665039999998,111.15380900000036,110.64111300000059,110.76904300000024,109.74365200000011,97.17968800000017,98.0771479999994,82.30761700000039
104,84.74365200000011,103.0771479999994,71.6665039999998,114.35888699999941,140.38476599999922,102.05126999999993,113.58984400000008,114.10253900000043,114.35888699999941,114.23095699999976,107.43603499999972,97.56396500000028,102.43603499999972,87.05126999999993
105,88.7177729999994,107.30761700000039,79.23095699999976,118.58984400000008,153.7177729999994,104.23095699999976,118.58984400000008,120.12841800000024,121.53857400000015,121.41015599999992,106.53857400000015,100.51269500000035,106.53857400000015,92.30761700000039
106,84.74365200000011,105.0,83.7177729999994,118.20507799999996,156.6665039999998,105.64111300000059,122.30761700000039,123.3334960000002,125.0,123.7177729999994,103.84619099999964,102.56396500000028,103.20507799999996,90.76904300000024
107,73.46142599999985,95.0,81.2822270000006,113.84619099999964,146.79492200000004,104.87158199999976,121.15380900000036,120.0,121.15380900000036,115.12841800000024,97.94873000000007,101.2822270000006,90.76904300000024,80.25634799999989
108,63.46142599999985,83.9741210000002,75.38476599999922,110.38476599999922,133.3334960000002,102.56396500000028,116.53857400000015,113.20507799999996,113.20507799999996,98.84619099999964,92.56396500000028,98.0771479999994,76.79492200000004,67.94873000000007
109,64.23095699999976,81.41015599999992,72.94873000000007,112.82031300000017,128.7177729999994,100.89746099999957,113.0771479999994,110.25634799999989,108.7177729999994,87.17968800000017,94.35888699999941,96.6665039999998,73.0771479999994,64.48730499999965
110,78.0771479999994,91.15380900000036,78.20507799999996,121.79492200000004,136.9228520000006,101.41015599999992,114.48730499999965,115.64111300000059,112.82031300000017,90.76904300000024,106.15380900000036,99.74365200000011,85.0,75.51269500000035
111,96.79492200000004,106.79492200000004,88.58984400000008,132.43603499999972,149.7436520000001,103.58984400000008,120.0,125.76904300000024,123.3334960000002,109.87158199999976,123.58984400000008,105.89746099999957,106.2822270000006,96.53857400000015
112,108.7177729999994,115.89746099999957,97.17968800000017,137.82031300000017,155.12841800000024,105.51269500000035,124.23095699999976,132.17968800000017,132.17968800000017,132.05126999999993,137.43603499999972,111.0258789999998,123.7177729999994,115.12841800000024
113,107.17968800000017,111.53857400000015,97.94873000000007,135.51269500000035,148.46142599999985,105.51269500000035,122.94873000000007,128.7177729999994,132.43603499999972,142.17968800000017,140.12841800000024,111.41015599999992,127.43603499999972,121.15380900000036
114,95.64111300000059,97.56396500000028,91.15380900000036,129.10253900000043,135.89746099999957,103.7177729999994,117.05126999999993,117.17968800000017,123.58984400000008,134.3588869999994,131.53857400000015,107.17968800000017,118.0771479999994,113.58984400000008
115,84.35888699999941,84.35888699999941,82.69238299999961,125.51269500000035,127.82031300000017,101.6665039999998,111.53857400000015,105.76904300000024,112.43603499999972,116.53857400000015,118.7177729999994,101.41015599999992,105.51269500000035,101.0258789999998
116,82.30761700000039,81.41015599999992,79.10253900000043,128.84619099999964,130.12841800000024,100.76904300000024,111.53857400000015,101.79492200000004,107.30761700000039,103.3334960000002,110.89746099999957,97.94873000000007,100.64111300000059,94.48730499999965
117,91.0258789999998,89.48730499999965,82.05126999999993,137.05126999999993,141.15380900000036,101.79492200000004,117.30761700000039,107.17968800000017,112.05126999999993,105.0,112.30761700000039,98.58984400000008,106.6665039999998,98.84619099999964
118,103.84619099999964,101.53857400000015,88.0771479999994,144.23095699999976,153.20507799999996,103.84619099999964,124.74365200000011,117.43603499999972,122.69238299999961,118.9741210000002,120.12841800000024,101.79492200000004,118.0771479999994,109.35888699999941
119,112.05126999999993,107.05126999999993,91.79492200000004,145.38476599999922,157.6923829999996,105.25634799999989,128.0771479999994,125.12841800000024,130.6411130000006,132.82031300000017,126.6665039999998,104.48730499999965,125.25634799999989,116.79492200000004
120,110.25634799999989,100.0,90.25634799999989,140.2563479999999,150.0,104.61523400000078,124.87158199999976,125.12841800000024,129.23095699999976,133.46142599999985,126.0258789999998,104.35888699999941,121.53857400000015,114.74365200000011
121,100.51269500000035,83.58984400000008,85.0,132.82031300000017,133.0771479999994,102.82031300000017,117.30761700000039,118.58984400000008,119.61523400000078,118.84619099999964,118.58984400000008,101.9228520000006,108.58984400000008,104.48730499999965
122,90.38476599999922,68.20507799999996,80.38476599999922,128.0771479999994,116.9228520000006,101.41015599999992,110.76904300000024,111.9228520000006,109.35888699999941,98.7177729999994,110.64111300000059,99.35888699999941,94.74365200000011,93.3334960000002
123,86.79492200000004,63.589844000000085,79.61523400000078,128.20507799999996,111.53857400000015,101.53857400000015,109.35888699999941,111.15380900000036,106.2822270000006,87.17968800000017,108.3334960000002,99.10253900000043,88.84619099999964,88.9741210000002
124,91.15380900000036,70.89746099999957,82.56396500000028,131.0258789999998,119.10253900000043,102.69238299999961,113.58984400000008,115.76904300000024,111.79492200000004,91.41015599999992,112.43603499999972,101.0258789999998,93.20507799999996,93.0771479999994
125,99.23095699999976,82.82031300000017,86.6665039999998,132.94873000000007,133.3334960000002,103.46142599999985,119.10253900000043,120.38476599999922,119.87158199999976,106.41015599999992,118.3334960000002,103.20507799999996,102.56396500000028,101.15380900000036
126,105.12841800000024,91.41015599999992,88.3334960000002,131.9228520000006,144.3588869999994,102.69238299999961,121.6665039999998,119.48730499999965,123.46142599999985,121.0258789999998,121.0258789999998,103.3334960000002,109.74365200000011,106.53857400000015
127,106.15380900000036,93.0771479999994,86.41015599999992,129.7436520000001,146.0258789999998,101.15380900000036,119.10253900000043,113.20507799999996,120.25634799999989,126.6665039999998,119.74365200000011,101.0258789999998,110.51269500000035,106.15380900000036
128,103.46142599999985,90.25634799999989,81.9228520000006,129.3588869999994,139.61523400000078,100.25634799999989,113.0771479999994,106.0258789999998,113.7177729999994,122.82031300000017,117.30761700000039,98.46142599999985,106.2822270000006,101.15380900000036
129,99.35888699999941,86.53857400000015,77.30761700000039,131.79492200000004,131.2822270000006,100.51269500000035,107.05126999999993,102.43603499999972,108.9741210000002,114.74365200000011,115.89746099999957,97.56396500000028,101.2822270000006,94.61523400000078
130,95.64111300000059,83.3334960000002,74.35888699999941,134.87158199999976,127.17968800000017,101.41015599999992,103.9741210000002,102.69238299999961,108.0771479999994,108.84619099999964,114.48730499999965,98.0771479999994,98.20507799999996,88.58984400000008
131,93.20507799999996,80.0,73.3334960000002,135.38476599999922,130.0,101.6665039999998,104.10253900000043,103.84619099999964,109.74365200000011,107.69238299999961,111.2822270000006,98.58984400000008,96.9228520000006,84.23095699999976
132,92.43603499999972,76.9228520000006,74.10253900000043,132.82031300000017,137.56396500000028,101.15380900000036,106.41015599999992,103.46142599999985,111.79492200000004,109.74365200000011,105.76904300000024,98.20507799999996,95.64111300000059,82.05126999999993
133,94.10253900000043,75.64111300000059,76.2822270000006,130.12841800000024,146.15380900000036,100.76904300000024,109.23095699999976,102.30761700000039,113.0771479999994,110.64111300000059,101.15380900000036,97.30761700000039,94.48730499999965,83.46142599999985
134,98.7177729999994,78.0771479999994,80.51269500000035,131.0258789999998,152.94873000000007,100.89746099999957,112.30761700000039,103.20507799999996,113.58984400000008,108.20507799999996,101.9228520000006,97.56396500000028,95.12841800000024,89.48730499999965
135,106.0258789999998,84.61523400000078,86.9228520000006,137.05126999999993,158.58984400000008,101.6665039999998,115.76904300000024,108.46142599999985,114.35888699999941,104.74365200000011,109.87158199999976,100.0,99.48730499999965,99.35888699999941
136,114.10253900000043,93.20507799999996,94.61523400000078,145.76904300000024,163.9741210000002,102.43603499999972,119.74365200000011,117.05126999999993,115.76904300000024,105.76904300000024,122.05126999999993,104.23095699999976,106.9228520000006,109.87158199999976
137,120.51269500000035,100.12841800000024,100.64111300000059,152.56396500000028,168.58984400000008,102.69238299999961,123.3334960000002,125.76904300000024,117.56396500000028,114.23095699999976,132.05126999999993,108.46142599999985,114.10253900000043,116.9228520000006
138,122.69238299999961,101.79492200000004,102.30761700000039,154.10253900000043,168.84619099999964,102.43603499999972,125.38476599999922,130.6411130000006,118.9741210000002,127.05126999999993,134.61523400000078,110.38476599999922,117.05126999999993,117.82031300000017
139,119.74365200000011,96.9228520000006,98.84619099999964,149.87158199999976,161.9228520000006,101.79492200000004,125.12841800000024,130.0,119.23095699999976,135.51269500000035,129.10253900000043,109.23095699999976,113.58984400000008,112.69238299999961
140,113.84619099999964,87.94873000000007,92.69238299999961,143.3334960000002,150.51269500000035,101.41015599999992,122.30761700000039,125.25634799999989,118.3334960000002,133.46142599999985,119.74365200000011,105.64111300000059,105.51269500000035,105.0
141,108.20507799999996,79.48730499999965,87.05126999999993,137.56396500000028,141.15380900000036,101.6665039999998,118.0771479999994,119.74365200000011,116.9228520000006,122.56396500000028,112.43603499999972,101.6665039999998,97.30761700000039,98.0771479999994
142,104.35888699999941,74.74365200000011,84.48730499999965,133.84619099999964,138.58984400000008,102.17968800000017,114.23095699999976,116.79492200000004,116.0258789999998,112.30761700000039,110.0,99.35888699999941,93.7177729999994,94.74365200000011
143,102.56396500000028,72.94873000000007,84.74365200000011,131.15380900000036,141.6665039999998,102.82031300000017,113.20507799999996,117.05126999999993,115.76904300000024,111.53857400000015,111.6665039999998,99.48730499999965,95.76904300000024,95.12841800000024
144,101.9228520000006,72.30761700000039,86.15380900000036,128.9741210000002,145.12841800000024,103.20507799999996,115.89746099999957,119.61523400000078,116.53857400000015,120.64111300000059,114.23095699999976,101.15380900000036,100.38476599999922,97.69238299999961
145,102.69238299999961,72.69238299999961,87.56396500000028,128.7177729999994,145.51269500000035,103.20507799999996,121.0258789999998,123.20507799999996,118.20507799999996,131.9228520000006,115.89746099999957,103.3334960000002,103.46142599999985,100.64111300000059
146,105.38476599999922,75.51269500000035,88.84619099999964,131.79492200000004,144.10253900000043,103.3334960000002,125.89746099999957,127.17968800000017,121.41015599999992,136.41015599999992,117.56396500000028,105.0,103.58984400000008,102.82031300000017
147,109.23095699999976,80.89746099999957,90.64111300000059,137.3076170000004,144.7436520000001,103.58984400000008,127.94873000000007,130.6411130000006,126.0258789999998,131.41015599999992,120.25634799999989,106.15380900000036,101.9228520000006,103.7177729999994
148,112.17968800000017,86.15380900000036,92.69238299999961,142.05126999999993,148.9741210000002,103.58984400000008,126.53857400000015,132.94873000000007,130.76904300000024,123.0771479999994,123.9741210000002,106.41015599999992,100.76904300000024,102.69238299999961
149,112.69238299999961,87.69238299999961,93.7177729999994,142.82031300000017,154.3588869999994,103.20507799999996,123.3334960000002,133.46142599999985,134.48730499999965,120.64111300000059,126.6665039999998,105.64111300000059,100.89746099999957,100.25634799999989
150,111.2822270000006,84.61523400000078,92.43603499999972,139.23095699999976,156.9228520000006,102.43603499999972,120.25634799999989,132.82031300000017,135.51269500000035,128.0771479999994,126.0258789999998,104.35888699999941,101.53857400000015,97.82031300000017
151,110.0,78.9741210000002,88.7177729999994,134.3588869999994,154.48730499999965,102.05126999999993,118.58984400000008,131.0258789999998,133.3334960000002,139.23095699999976,121.53857400000015,103.0771479999994,101.79492200000004,96.79492200000004
152,110.51269500000035,73.9741210000002,84.10253900000043,131.0258789999998,148.3334960000002,102.05126999999993,118.0771479999994,127.94873000000007,128.46142599999985,143.3334960000002,114.74365200000011,102.05126999999993,101.2822270000006,97.43603499999972
153,112.17968800000017,71.79492200000004,80.51269500000035,130.76904300000024,142.3076170000004,102.17968800000017,117.82031300000017,124.23095699999976,122.56396500000028,135.12841800000024,109.10253900000043,101.15380900000036,100.12841800000024,98.7177729999994
154,113.0771479999994,72.56396500000028,80.12841800000024,132.82031300000017,140.38476599999922,102.43603499999972,116.9228520000006,121.0258789999998,118.20507799999996,121.2822270000006,107.94873000000007,100.25634799999989,98.84619099999964,99.74365200000011
155,112.05126999999993,75.12841800000024,83.20507799999996,135.76904300000024,143.46142599999985,103.0771479999994,115.89746099999957,120.38476599999922,117.82031300000017,113.58984400000008,112.56396500000028,100.38476599999922,98.20507799999996,100.76904300000024
156,110.64111300000059,78.58984400000008,88.46142599999985,138.9741210000002,148.58984400000008,104.23095699999976,115.64111300000059,123.0771479999994,122.82031300000017,118.20507799999996,121.15380900000036,102.30761700000039,99.48730499999965,102.43603499999972
157,111.15380900000036,82.43603499999972,93.7177729999994,141.79492200000004,152.43603499999972,105.25634799999989,117.05126999999993,128.46142599999985,131.41015599999992,129.87158199999976,129.87158199999976,105.89746099999957,102.69238299999961,105.0
158,114.10253900000043,85.89746099999957,96.9228520000006,144.3588869999994,153.46142599999985,105.38476599999922,119.35888699999941,133.58984400000008,139.10253900000043,137.6923829999996,134.87158199999976,109.87158199999976,105.51269500000035,107.17968800000017
159,117.05126999999993,87.94873000000007,96.53857400000015,145.38476599999922,152.05126999999993,104.61523400000078,120.64111300000059,134.3588869999994,140.51269500000035,135.0,133.84619099999964,112.05126999999993,105.12841800000024,107.69238299999961
160,116.41015599999992,87.05126999999993,92.94873000000007,143.84619099999964,148.7177729999994,103.46142599999985,119.10253900000043,129.10253900000043,133.20507799999996,123.9741210000002,127.56396500000028,110.51269500000035,99.87158199999976,105.64111300000059
161,111.0258789999998,82.94873000000007,87.94873000000007,139.3588869999994,144.23095699999976,102.82031300000017,115.51269500000035,120.0,120.76904300000024,113.7177729999994,118.9741210000002,105.89746099999957,91.6665039999998,102.05126999999993
162,104.10253900000043,78.20507799999996,84.35888699999941,133.9741210000002,140.89746099999957,103.0771479999994,112.69238299999961,112.82031300000017,111.2822270000006,112.82031300000017,113.0771479999994,101.0258789999998,85.12841800000024,98.9741210000002
163,100.51269500000035,75.76904300000024,84.35888699999941,130.2563479999999,140.6411130000006,104.23095699999976,112.82031300000017,111.6665039999998,111.15380900000036,122.56396500000028,112.94873000000007,99.10253900000043,83.7177729999994,97.82031300000017
164,101.6665039999998,76.0258789999998,87.05126999999993,128.84619099999964,142.56396500000028,105.51269500000035,114.74365200000011,115.38476599999922,119.48730499999965,136.2822270000006,117.05126999999993,100.64111300000059,86.79492200000004,97.94873000000007
165,104.10253900000043,75.76904300000024,88.7177729999994,127.43603499999972,141.2822270000006,105.25634799999989,114.35888699999941,118.84619099999964,129.7436520000001,144.48730499999965,120.12841800000024,102.82031300000017,90.51269500000035,96.53857400000015
166,103.20507799999996,71.79492200000004,86.41015599999992,123.3334960000002,132.82031300000017,102.94873000000007,109.61523400000078,117.56396500000028,134.3588869999994,141.2822270000006,117.69238299999961,102.69238299999961,90.51269500000035,91.79492200000004
167,98.84619099999964,65.0,81.41015599999992,117.05126999999993,119.23095699999976,99.87158199999976,103.0771479999994,112.17968800000017,131.2822270000006,128.9741210000002,111.2822270000006,100.12841800000024,86.9228520000006,85.51269500000035
168,96.15380900000036,61.79492200000004,79.48730499999965,112.69238299999961,109.23095699999976,98.7177729999994,100.64111300000059,107.82031300000017,124.61523400000078,116.53857400000015,107.43603499999972,97.94873000000007,84.61523400000078,82.56396500000028
169,101.0258789999998,67.56396500000028,84.74365200000011,114.48730499999965,110.89746099999957,100.76904300000024,106.41015599999992,109.35888699999941,120.12841800000024,112.30761700000039,111.6665039999998,99.61523400000078,89.35888699999941,87.30761700000039
170,114.10253900000043,81.15380900000036,96.15380900000036,122.56396500000028,125.64111300000059,105.12841800000024,118.3334960000002,117.56396500000028,121.0258789999998,117.69238299999961,124.10253900000043,105.64111300000059,102.43603499999972,99.48730499999965
171,129.10253900000043,95.89746099999957,108.20507799999996,132.6923829999996,145.89746099999957,109.10253900000043,129.87158199999976,128.7177729999994,125.89746099999957,127.43603499999972,138.7177729999994,113.46142599999985,119.48730499999965,113.58984400000008
172,137.94873000000007,104.87158199999976,115.25634799999989,139.87158199999976,160.6411130000006,110.12841800000024,134.48730499999965,137.82031300000017,131.6665039999998,134.48730499999965,147.05126999999993,118.84619099999964,132.56396500000028,123.0771479999994
173,136.2822270000006,106.15380900000036,114.74365200000011,141.2822270000006,162.6923829999996,107.69238299999961,130.38476599999922,141.15380900000036,134.61523400000078,135.12841800000024,144.3588869999994,119.23095699999976,135.51269500000035,124.35888699999941
174,125.12841800000024,101.41015599999992,108.20507799999996,136.53857400000015,152.17968800000017,103.58984400000008,121.41015599999992,137.94873000000007,132.82031300000017,129.3588869999994,131.53857400000015,114.61523400000078,127.94873000000007,118.0771479999994
175,109.87158199999976,92.56396500000028,99.35888699999941,127.69238299999961,134.7436520000001,100.25634799999989,113.84619099999964,128.84619099999964,125.76904300000024,120.12841800000024,114.35888699999941,107.05126999999993,114.35888699999941,107.56396500000028
176,97.43603499999972,81.6665039999998,91.9228520000006,117.69238299999961,117.82031300000017,99.23095699999976,110.89746099999957,116.9228520000006,115.12841800000024,111.79492200000004,100.25634799999989,99.61523400000078,102.30761700000039,96.9228520000006
177,93.3334960000002,71.9228520000006,88.58984400000008,110.25634799999989,107.05126999999993,99.74365200000011,111.9228520000006,107.05126999999993,104.48730499999965,108.3334960000002,94.74365200000011,95.76904300000024,98.7177729999994,90.76904300000024
178,98.9741210000002,67.30761700000039,90.0,108.58984400000008,104.87158199999976,101.0258789999998,114.23095699999976,104.23095699999976,98.84619099999964,111.6665039999998,99.23095699999976,97.05126999999993,106.6665039999998,92.43603499999972
179,111.15380900000036,70.51269500000035,94.74365200000011,113.58984400000008,110.38476599999922,101.9228520000006,116.0258789999998,110.51269500000035,102.30761700000039,119.87158199999976,110.51269500000035,102.56396500000028,123.46142599999985,101.2822270000006
180,123.9741210000002,81.15380900000036,100.25634799999989,123.46142599999985,120.64111300000059,102.17968800000017,118.0771479999994,122.69238299999961,114.61523400000078,129.3588869999994,123.3334960000002,109.23095699999976,142.05126999999993,112.82031300000017
181,131.79492200000004,95.0,104.23095699999976,133.7177729999994,132.3076170000004,102.30761700000039,121.41015599999992,134.3588869999994,130.6411130000006,136.2822270000006,133.20507799999996,113.84619099999964,155.2563479999999,121.53857400000015
182,132.56396500000028,105.38476599999922,105.25634799999989,139.10253900000043,141.15380900000036,102.17968800000017,125.12841800000024,138.84619099999964,142.17968800000017,138.3334960000002,136.79492200000004,113.84619099999964,158.46142599999985,123.58984400000008
183,127.17968800000017,106.15380900000036,103.0771479999994,136.2822270000006,142.3076170000004,102.17968800000017,126.53857400000015,133.46142599999985,142.94873000000007,135.12841800000024,132.94873000000007,109.10253900000043,151.9228520000006,118.20507799999996
184,118.46142599999985,96.6665039999998,98.84619099999964,126.53857400000015,133.20507799999996,101.9228520000006,123.7177729999994,122.05126999999993,133.84619099999964,128.58984400000008,123.0771479999994,102.43603499999972,139.87158199999976,108.20507799999996
185,111.0258789999998,83.0771479999994,94.61523400000078,116.41015599999992,118.3334960000002,101.53857400000015,118.46142599999985,112.43603499999972,122.82031300000017,123.46142599999985,112.56396500000028,98.20507799999996,128.7177729999994,98.84619099999964
186,108.46142599999985,75.0,93.0771479999994,112.82031300000017,107.56396500000028,101.15380900000036,114.74365200000011,111.9228520000006,119.23095699999976,123.84619099999964,107.56396500000028,99.61523400000078,124.10253900000043,95.38476599999922
187,111.9228520000006,77.82031300000017,94.87158199999976,118.84619099999964,108.46142599999985,101.6665039999998,115.64111300000059,120.89746099999957,126.0258789999998,130.89746099999957,111.79492200000004,105.89746099999957,127.56396500000028,99.48730499999965
188,118.7177729999994,89.10253900000043,98.46142599999985,130.51269500000035,120.64111300000059,102.82031300000017,120.38476599999922,133.0771479999994,137.94873000000007,140.51269500000035,122.82031300000017,113.3334960000002,136.0258789999998,108.84619099999964
189,124.61523400000078,100.51269500000035,101.2822270000006,140.89746099999957,135.6411130000006,103.9741210000002,125.25634799999989,140.89746099999957,146.53857400000015,146.6665039999998,133.9741210000002,117.17968800000017,144.10253900000043,117.82031300000017
190,127.30761700000039,105.51269500000035,102.05126999999993,144.61523400000078,144.10253900000043,104.10253900000043,126.15380900000036,140.2563479999999,146.2822270000006,145.2563479999999,139.61523400000078,115.38476599999922,147.6923829999996,122.05126999999993
191,126.41015599999992,103.46142599999985,100.76904300000024,141.41015599999992,142.43603499999972,103.20507799999996,122.56396500000028,133.0771479999994,138.46142599999985,137.05126999999993,138.3334960000002,110.0,146.41015599999992,120.51269500000035
192,123.7177729999994,99.10253900000043,99.10253900000043,134.87158199999976,134.3588869999994,102.17968800000017,117.30761700000039,125.12841800000024,129.10253900000043,127.43603499999972,133.58984400000008,104.87158199999976,143.20507799999996,115.76904300000024
193,120.64111300000059,97.05126999999993,97.43603499999972,129.87158199999976,127.43603499999972,102.17968800000017,114.23095699999976,121.6665039999998,124.74365200000011,122.56396500000028,130.0,102.94873000000007,141.41015599999992,111.6665039999998
194,117.82031300000017,97.17968800000017,95.76904300000024,128.84619099999964,125.12841800000024,102.82031300000017,115.0,123.84619099999964,127.05126999999993,124.74365200000011,130.6411130000006,103.84619099999964,142.17968800000017,109.87158199999976
195,115.51269500000035,96.41015599999992,94.35888699999941,130.89746099999957,124.74365200000011,103.3334960000002,118.3334960000002,128.58984400000008,132.17968800000017,131.2822270000006,134.3588869999994,105.25634799999989,143.3334960000002,109.48730499999965
196,114.35888699999941,93.0771479999994,94.23095699999976,132.94873000000007,121.79492200000004,102.94873000000007,120.76904300000024,131.41015599999992,134.48730499999965,136.41015599999992,137.82031300000017,105.12841800000024,142.56396500000028,108.20507799999996
197,115.38476599999922,88.46142599999985,95.89746099999957,132.82031300000017,115.64111300000059,102.56396500000028,120.89746099999957,130.51269500000035,132.17968800000017,136.15380900000036,138.0771479999994,104.23095699999976,138.9741210000002,105.76904300000024
198,118.20507799999996,85.76904300000024,98.58984400000008,130.51269500000035,110.76904300000024,102.94873000000007,119.61523400000078,127.30761700000039,127.17968800000017,130.2563479999999,134.7436520000001,104.23095699999976,134.48730499999965,103.3334960000002
199,121.15380900000036,86.6665039999998,100.89746099999957,128.58984400000008,111.41015599999992,103.46142599999985,118.84619099999964,124.35888699999941,123.58984400000008,121.79492200000004,130.2563479999999,106.0258789999998,130.89746099999957,102.56396500000028
200,123.0771479999994,90.51269500000035,101.79492200000004,128.9741210000002,117.56396500000028,103.20507799999996,120.12841800000024,123.46142599999985,123.7177729999994,115.0,127.94873000000007,109.23095699999976,129.3588869999994,103.7177729999994
201,124.23095699999976,95.64111300000059,102.05126999999993,132.43603499999972,124.61523400000078,102.05126999999993,123.9741210000002,125.51269500000035,127.05126999999993,112.82031300000017,130.0,112.56396500000028,129.87158199999976,106.6665039999998
202,125.89746099999957,100.38476599999922,103.46142599999985,137.56396500000028,128.20507799999996,101.6665039999998,129.48730499999965,129.48730499999965,131.15380900000036,116.79492200000004,135.89746099999957,115.12841800000024,132.3076170000004,110.89746099999957
203,128.84619099999964,104.23095699999976,107.30761700000039,142.6923829999996,127.56396500000028,103.7177729999994,134.48730499999965,133.9741210000002,134.7436520000001,125.89746099999957,142.6923829999996,116.6665039999998,135.2563479999999,115.89746099999957
204,131.79492200000004,106.79492200000004,111.9228520000006,146.0258789999998,125.12841800000024,107.82031300000017,137.05126999999993,136.9228520000006,137.43603499999972,136.53857400000015,146.9228520000006,117.43603499999972,137.43603499999972,120.25634799999989
205,132.6923829999996,106.79492200000004,113.9741210000002,146.41015599999992,123.46142599999985,111.6665039999998,136.2822270000006,137.3076170000004,138.84619099999964,142.3076170000004,146.15380900000036,117.30761700000039,137.05126999999993,121.41015599999992
206,129.23095699999976,102.94873000000007,110.89746099999957,142.94873000000007,122.43603499999972,112.56396500000028,132.3076170000004,134.61523400000078,137.6923829999996,137.43603499999972,140.0,115.64111300000059,132.94873000000007,117.17968800000017
207,121.41015599999992,95.76904300000024,103.7177729999994,136.79492200000004,119.87158199999976,109.87158199999976,127.43603499999972,130.0,133.20507799999996,122.17968800000017,131.2822270000006,112.69238299999961,126.15380900000036,108.0771479999994
208,112.94873000000007,88.3334960000002,97.17968800000017,130.76904300000024,115.0,105.25634799999989,124.61523400000078,126.2822270000006,127.17968800000017,104.35888699999941,124.74365200000011,109.48730499999965,119.74365200000011,99.10253900000043
209,109.23095699999976,85.12841800000024,96.9228520000006,127.94873000000007,109.87158199999976,101.9228520000006,125.51269500000035,126.41015599999992,123.20507799999996,94.87158199999976,124.23095699999976,108.3334960000002,117.69238299999961,96.6665039999998
210,112.82031300000017,88.0771479999994,103.9741210000002,128.9741210000002,108.20507799999996,101.79492200000004,128.9741210000002,130.51269500000035,123.84619099999964,99.61523400000078,129.48730499999965,110.12841800000024,121.41015599999992,103.58984400000008
211,120.64111300000059,94.61523400000078,113.46142599999985,131.79492200000004,111.6665039999998,103.9741210000002,131.9228520000006,135.12841800000024,128.3334960000002,114.48730499999965,136.0258789999998,113.58984400000008,128.46142599999985,116.6665039999998
212,127.05126999999993,100.51269500000035,119.35888699999941,133.58984400000008,118.3334960000002,105.51269500000035,132.05126999999993,136.41015599999992,132.82031300000017,128.46142599999985,138.46142599999985,116.6665039999998,133.7177729999994,128.46142599999985
213,128.7177729999994,102.30761700000039,119.10253900000043,133.84619099999964,123.9741210000002,104.35888699999941,130.2563479999999,133.46142599999985,133.84619099999964,132.17968800000017,135.89746099999957,117.56396500000028,134.10253900000043,133.7177729999994
214,127.69238299999961,101.15380900000036,115.76904300000024,134.3588869999994,126.0258789999998,102.43603499999972,128.7177729999994,129.61523400000078,131.41015599999992,124.74365200000011,132.05126999999993,116.9228520000006,131.0258789999998,132.17968800000017
215,128.0771479999994,101.15380900000036,115.12841800000024,137.56396500000028,125.51269500000035,103.0771479999994,129.23095699999976,129.61523400000078,128.84619099999964,115.0,132.17968800000017,116.79492200000004,129.10253900000043,128.58984400000008
216,133.0771479999994,106.6665039999998,120.25634799999989,144.3588869999994,125.76904300000024,107.69238299999961,131.79492200000004,135.6411130000006,131.15380900000036,113.7177729999994,138.46142599999985,118.7177729999994,132.43603499999972,128.0771479999994
217,141.79492200000004,117.43603499999972,129.48730499999965,152.3076170000004,128.3334960000002,114.10253900000043,134.61523400000078,145.2563479999999,139.7436520000001,125.0,148.20507799999996,121.9228520000006,140.6411130000006,132.43603499999972
218,148.7177729999994,127.69238299999961,136.53857400000015,157.17968800000017,130.76904300000024,117.43603499999972,136.0258789999998,152.17968800000017,150.2563479999999,141.53857400000015,156.15380900000036,124.48730499999965,148.3334960000002,138.46142599999985
219,148.3334960000002,129.87158199999976,136.0258789999998,155.38476599999922,128.84619099999964,115.12841800000024,135.38476599999922,151.2822270000006,155.12841800000024,151.0258789999998,158.20507799999996,124.48730499999965,149.7436520000001,140.76904300000024
220,139.23095699999976,121.41015599999992,127.69238299999961,147.3076170000004,122.17968800000017,108.3334960000002,133.0771479999994,142.3076170000004,150.2563479999999,146.53857400000015,153.84619099999964,121.53857400000015,143.7177729999994,137.05126999999993
221,126.6665039999998,107.94873000000007,116.6665039999998,138.0771479999994,115.64111300000059,102.56396500000028,130.12841800000024,131.2822270000006,138.9741210000002,132.6923829999996,147.17968800000017,117.82031300000017,134.61523400000078,130.12841800000024
222,118.20507799999996,99.35888699999941,110.0,134.23095699999976,115.25634799999989,101.9228520000006,128.0771479999994,125.76904300000024,129.48730499999965,122.17968800000017,143.0771479999994,116.0258789999998,128.7177729999994,125.64111300000059
223,118.3334960000002,101.15380900000036,111.79492200000004,137.94873000000007,122.05126999999993,106.9228520000006,128.20507799999996,129.7436520000001,128.46142599999985,123.7177729999994,143.0771479999994,117.05126999999993,129.10253900000043,126.2822270000006
224,125.76904300000024,111.15380900000036,119.87158199999976,145.89746099999957,131.0258789999998,113.58984400000008,130.76904300000024,140.89746099999957,135.76904300000024,135.51269500000035,145.6411130000006,119.48730499999965,132.82031300000017,130.38476599999922
225,134.7436520000001,121.9228520000006,129.23095699999976,152.43603499999972,136.53857400000015,117.56396500000028,135.38476599999922,153.3334960000002,146.2822270000006,147.82031300000017,147.94873000000007,121.53857400000015,135.38476599999922,134.10253900000043
226,139.61523400000078,128.20507799999996,134.87158199999976,154.7436520000001,136.9228520000006,117.05126999999993,141.15380900000036,161.2822270000006,154.7436520000001,152.05126999999993,148.84619099999964,122.56396500000028,135.38476599999922,135.2563479999999
227,138.9741210000002,129.3588869999994,135.76904300000024,154.23095699999976,134.87158199999976,113.3334960000002,146.2822270000006,163.3334960000002,158.3334960000002,147.6923829999996,149.7436520000001,122.56396500000028,134.23095699999976,134.61523400000078
228,134.87158199999976,128.0771479999994,133.46142599999985,153.46142599999985,133.3334960000002,109.74365200000011,148.3334960000002,160.76904300000024,156.9228520000006,139.87158199999976,151.79492200000004,122.17968800000017,133.3334960000002,133.7177729999994
229,131.0258789999998,126.6665039999998,130.76904300000024,153.0771479999994,132.56396500000028,108.7177729999994,145.89746099999957,155.76904300000024,151.2822270000006,133.9741210000002,154.3588869999994,121.2822270000006,132.6923829999996,133.58984400000008
230,129.3588869999994,126.15380900000036,129.3588869999994,152.94873000000007,131.6665039999998,110.38476599999922,140.38476599999922,150.0,143.46142599999985,131.15380900000036,155.51269500000035,120.12841800000024,131.41015599999992,134.3588869999994
231,130.12841800000024,125.38476599999922,129.61523400000078,152.82031300000017,130.2563479999999,113.7177729999994,135.6411130000006,145.12841800000024,137.05126999999993,129.87158199999976,153.9741210000002,119.10253900000043,128.9741210000002,136.0258789999998
232,131.6665039999998,123.58984400000008,130.6411130000006,153.0771479999994,129.3588869999994,116.9228520000006,135.12841800000024,142.82031300000017,134.87158199999976,128.9741210000002,150.76904300000024,118.20507799999996,126.15380900000036,137.43603499999972
233,132.43603499999972,120.25634799999989,131.41015599999992,153.7177729999994,130.0,118.0771479999994,138.7177729999994,143.84619099999964,138.0771479999994,129.7436520000001,148.0771479999994,117.43603499999972,124.61523400000078,137.3076170000004
234,131.41015599999992,116.79492200000004,131.6665039999998,154.48730499999965,131.79492200000004,116.79492200000004,143.20507799999996,146.79492200000004,143.9741210000002,134.3588869999994,147.05126999999993,116.9228520000006,125.12841800000024,135.2563479999999
235,129.10253900000043,115.38476599999922,131.53857400000015,155.51269500000035,132.56396500000028,114.48730499999965,144.48730499999965,149.10253900000043,148.84619099999964,142.05126999999993,147.43603499999972,116.9228520000006,127.43603499999972,133.0771479999994
236,127.43603499999972,116.79492200000004,131.41015599999992,156.2822270000006,130.12841800000024,112.43603499999972,141.53857400000015,149.48730499999965,150.6411130000006,149.3588869999994,148.20507799999996,117.69238299999961,131.0258789999998,132.82031300000017
237,128.58984400000008,120.25634799999989,132.05126999999993,156.15380900000036,124.23095699999976,111.41015599999992,137.05126999999993,148.9741210000002,150.12841800000024,152.17968800000017,148.7177729999994,119.61523400000078,134.87158199999976,135.6411130000006
238,132.43603499999972,123.20507799999996,133.20507799999996,154.23095699999976,117.94873000000007,111.15380900000036,134.48730499999965,148.84619099999964,149.3588869999994,148.84619099999964,148.84619099999964,122.17968800000017,137.6923829999996,140.0
239,135.89746099999957,122.94873000000007,133.84619099999964,150.12841800000024,114.10253900000043,111.0258789999998,134.87158199999976,148.7177729999994,148.3334960000002,140.89746099999957,148.3334960000002,124.23095699999976,137.6923829999996,143.0771479999994
240,135.89746099999957,118.46142599999985,132.56396500000028,143.9741210000002,113.3334960000002,110.38476599999922,136.0258789999998,146.53857400000015,145.76904300000024,131.15380900000036,146.15380900000036,124.23095699999976,133.58984400000008,141.9228520000006
241,131.9228520000006,111.79492200000004,129.3588869999994,137.82031300000017,113.7177729999994,109.23095699999976,135.38476599999922,142.05126999999993,141.0258789999998,123.0771479999994,142.56396500000028,121.79492200000004,126.2822270000006,136.53857400000015
242,126.6665039999998,107.43603499999972,126.6665039999998,134.61523400000078,113.58984400000008,108.20507799999996,132.94873000000007,137.6923829999996,135.6411130000006,120.0,140.0,118.58984400000008,119.61523400000078,130.38476599999922
243,124.10253900000043,109.35888699999941,127.17968800000017,136.41015599999992,113.7177729999994,108.46142599999985,130.38476599999922,136.9228520000006,133.3334960000002,122.82031300000017,140.76904300000024,117.05126999999993,118.20507799999996,128.0771479999994
244,126.6665039999998,118.0771479999994,131.41015599999992,143.46142599999985,116.15380900000036,110.25634799999989,129.87158199999976,140.89746099999957,136.9228520000006,129.61523400000078,145.2563479999999,118.3334960000002,123.9741210000002,131.15380900000036
245,132.6923829999996,128.46142599999985,136.2822270000006,152.6923829999996,121.6665039999998,112.56396500000028,131.9228520000006,146.79492200000004,145.12841800000024,135.89746099999957,150.76904300000024,121.15380900000036,133.0771479999994,136.9228520000006
246,137.6923829999996,133.20507799999996,137.43603499999972,158.9741210000002,126.53857400000015,113.7177729999994,134.3588869999994,149.48730499999965,152.05126999999993,137.94873000000007,152.94873000000007,122.56396500000028,138.58984400000008,140.0
247,137.17968800000017,128.0771479999994,132.82031300000017,158.58984400000008,126.2822270000006,112.56396500000028,135.12841800000024,145.6411130000006,150.76904300000024,134.48730499999965,149.3588869999994,120.64111300000059,135.89746099999957,137.17968800000017
248,131.0258789999998,115.51269500000035,125.0,152.3076170000004,119.35888699999941,109.35888699999941,132.82031300000017,136.53857400000015,140.0,127.94873000000007,142.3076170000004,116.79492200000004,127.05126999999993,129.61523400000078
249,123.46142599999985,104.23095699999976,118.9741210000002,145.2563479999999,110.12841800000024,105.38476599999922,129.23095699999976,128.3334960000002,127.05126999999993,122.43603499999972,136.9228520000006,114.35888699999941,119.35888699999941,122.82031300000017
250,120.25634799999989,102.05126999999993,119.10253900000043,143.0771479999994,104.48730499999965,101.79492200000004,126.9228520000006,126.79492200000004,121.6665039999998,121.53857400000015,137.43603499999972,115.76904300000024,118.9741210000002,121.2822270000006
251,122.94873000000007,109.74365200000011,125.0,146.79492200000004,104.48730499999965,99.74365200000011,127.43603499999972,132.82031300000017,127.56396500000028,126.41015599999992,142.94873000000007,119.74365200000011,125.12841800000024,125.12841800000024
252,128.3334960000002,120.38476599999922,132.17968800000017,151.79492200000004,106.53857400000015,99.87158199999976,129.48730499999965,140.2563479999999,139.48730499999965,133.3334960000002,148.20507799999996,122.94873000000007,131.0258789999998,129.61523400000078
253,131.2822270000006,125.25634799999989,135.51269500000035,153.20507799999996,105.76904300000024,101.15380900000036,130.38476599999922,141.79492200000004,147.3076170000004,137.43603499999972,147.82031300000017,122.94873000000007,129.61523400000078,130.12841800000024
254,130.6411130000006,121.2822270000006,133.3334960000002,150.6411130000006,101.9228520000006,102.43603499999972,129.10253900000043,135.76904300000024,145.2563479999999,136.41015599999992,141.6665039999998,120.76904300000024,121.53857400000015,127.30761700000039
255,129.87158199999976,113.58984400000008,129.3588869999994,149.10253900000043,100.76904300000024,103.0771479999994,127.43603499999972,128.0771479999994,136.2822270000006,132.56396500000028,135.76904300000024,119.61523400000078,114.48730499999965,126.53857400000015
256,133.58984400000008,110.12841800000024,128.7177729999994,153.20507799999996,107.56396500000028,103.0771479999994,127.94873000000007,126.79492200000004,128.84619099999964,131.15380900000036,136.15380900000036,121.9228520000006,116.53857400000015,132.17968800000017
257,141.9228520000006,114.61523400000078,132.94873000000007,162.43603499999972,120.89746099999957,103.20507799999996,130.89746099999957,133.7177729999994,128.9741210000002,134.10253900000043,143.46142599999985,126.15380900000036,127.56396500000028,142.43603499999972
258,148.84619099999964,121.9228520000006,137.94873000000007,170.0,131.9228520000006,104.23095699999976,133.3334960000002,142.3076170000004,134.23095699999976,137.43603499999972,151.53857400000015,128.3334960000002,139.10253900000043,149.61523400000078
259,147.82031300000017,124.10253900000043,138.20507799999996,169.61523400000078,131.9228520000006,106.41015599999992,132.17968800000017,143.9741210000002,137.6923829999996,134.87158199999976,152.56396500000028,124.87158199999976,141.2822270000006,146.9228520000006
260,139.10253900000043,118.20507799999996,133.20507799999996,161.9228520000006,121.2822270000006,108.9741210000002,128.20507799999996,137.17968800000017,135.2563479999999,125.64111300000059,145.38476599999922,117.56396500000028,132.82031300000017,135.51269500000035
261,131.2822270000006,110.51269500000035,128.20507799999996,154.48730499999965,109.74365200000011,110.51269500000035,125.64111300000059,128.9741210000002,130.89746099999957,117.69238299999961,136.2822270000006,111.9228520000006,122.56396500000028,124.48730499999965
262,132.82031300000017,109.35888699999941,129.23095699999976,155.38476599999922,107.56396500000028,110.38476599999922,128.58984400000008,127.82031300000017,131.79492200000004,120.76904300000024,133.9741210000002,113.58984400000008,121.6665039999998,123.46142599999985
263,144.10253900000043,116.79492200000004,137.43603499999972,165.76904300000024,116.41015599999992,108.9741210000002,136.2822270000006,135.6411130000006,139.7436520000001,136.2822270000006,141.2822270000006,121.9228520000006,133.0771479999994,133.46142599999985
264,156.0258789999998,125.76904300000024,147.05126999999993,178.7177729999994,128.46142599999985,107.43603499999972,143.46142599999985,146.0258789999998,148.9741210000002,153.3334960000002,151.79492200000004,131.41015599999992,148.3334960000002,146.2822270000006
265,157.82031300000017,127.82031300000017,150.6411130000006,184.87158199999976,132.94873000000007,106.2822270000006,144.23095699999976,148.9741210000002,150.2563479999999,157.43603499999972,156.15380900000036,135.2563479999999,155.0,151.15380900000036
266,146.0258789999998,120.51269500000035,146.0258789999998,180.2563479999999,125.89746099999957,104.74365200000011,137.17968800000017,139.87158199999976,140.12841800000024,142.43603499999972,150.12841800000024,130.76904300000024,146.9228520000006,144.10253900000043
267,127.94873000000007,109.10253900000043,136.6665039999998,168.84619099999964,113.20507799999996,102.17968800000017,126.6665039999998,123.0771479999994,123.84619099999964,116.0258789999998,137.94873000000007,121.2822270000006,129.23095699999976,130.51269500000035
268,115.12841800000024,101.79492200000004,128.9741210000002,159.3588869999994,104.48730499999965,99.48730499999965,119.35888699999941,109.35888699999941,112.43603499999972,94.87158199999976,128.20507799999996,113.20507799999996,113.58984400000008,119.87158199999976
269,114.61523400000078,103.0771479999994,127.17968800000017,158.46142599999985,105.38476599999922,98.46142599999985,119.10253900000043,106.79492200000004,113.46142599999985,92.82031300000017,126.79492200000004,111.41015599999992,109.61523400000078,118.46142599999985
270,124.61523400000078,110.64111300000059,130.51269500000035,166.15380900000036,113.0771479999994,100.0,124.61523400000078,115.38476599999922,124.87158199999976,111.0258789999998,133.20507799999996,115.76904300000024,118.0771479999994,125.12841800000024
271,136.6665039999998,118.84619099999964,135.2563479999999,176.79492200000004,120.64111300000059,103.3334960000002,131.2822270000006,127.94873000000007,137.6923829999996,136.79492200000004,141.53857400000015,122.17968800000017,132.05126999999993,133.7177729999994
272,142.43603499999972,122.17968800000017,137.17968800000017,183.0771479999994,122.30761700000039,106.79492200000004,134.10253900000043,135.2563479999999,143.20507799999996,152.82031300000017,145.38476599999922,126.15380900000036,141.2822270000006,137.6923829999996
273,139.10253900000043,119.10253900000043,135.0,180.51269500000035,117.94873000000007,108.9741210000002,131.9228520000006,133.58984400000008,138.7177729999994,149.10253900000043,142.43603499999972,125.51269500000035,139.7436520000001,135.38476599999922
274,130.38476599999922,112.17968800000017,130.51269500000035,171.15380900000036,111.2822270000006,109.10253900000043,126.9228520000006,125.76904300000024,129.23095699999976,130.89746099999957,135.2563479999999,121.0258789999998,128.9741210000002,129.48730499999965
275,123.20507799999996,107.05126999999993,126.9228520000006,161.9228520000006,108.20507799999996,107.69238299999961,123.0771479999994,118.20507799999996,122.17968800000017,112.94873000000007,129.61523400000078,115.76904300000024,116.79492200000004,125.0
276,122.30761700000039,108.3334960000002,127.05126999999993,159.3588869999994,111.79492200000004,105.64111300000059,122.43603499999972,115.38476599999922,122.30761700000039,108.20507799999996,129.23095699999976,113.46142599999985,111.6665039999998,125.25634799999989
277,127.56396500000028,115.51269500000035,130.76904300000024,164.87158199999976,120.25634799999989,104.48730499999965,123.58984400000008,117.69238299999961,128.20507799999996,117.43603499999972,133.3334960000002,115.38476599999922,116.0258789999998,129.61523400000078
278,134.48730499999965,122.82031300000017,135.0,173.20507799999996,127.05126999999993,104.61523400000078,123.46142599999985,121.6665039999998,134.10253900000043,130.6411130000006,137.94873000000007,119.48730499999965,124.74365200000011,134.48730499999965
279,137.82031300000017,123.46142599999985,136.2822270000006,177.43603499999972,126.2822270000006,106.0258789999998,120.38476599999922,123.0771479999994,135.12841800000024,136.6665039999998,138.46142599999985,121.79492200000004,130.2563479999999,135.76904300000024
280,136.15380900000036,116.41015599999992,134.10253900000043,174.23095699999976,117.30761700000039,107.69238299999961,116.2822270000006,120.76904300000024,130.38476599999922,132.3076170000004,133.7177729999994,120.38476599999922,128.7177729999994,132.82031300000017
281,132.6923829999996,106.9228520000006,130.89746099999957,167.43603499999972,106.2822270000006,109.48730499999965,114.87158199999976,117.43603499999972,124.87158199999976,123.58984400000008,127.82031300000017,117.17968800000017,123.46142599999985,128.7177729999994
282,132.6923829999996,102.94873000000007,130.89746099999957,163.9741210000002,102.69238299999961,111.53857400000015,118.58984400000008,118.0771479999994,123.9741210000002,119.48730499999965,126.41015599999992,115.89746099999957,121.2822270000006,128.0771479999994
283,138.58984400000008,108.9741210000002,136.2822270000006,168.84619099999964,112.05126999999993,113.7177729999994,126.79492200000004,125.64111300000059,130.51269500000035,124.23095699999976,132.56396500000028,118.9741210000002,126.2822270000006,133.20507799999996
284,148.58984400000008,122.43603499999972,145.0,180.38476599999922,130.38476599999922,115.12841800000024,135.38476599999922,137.82031300000017,141.53857400000015,134.61523400000078,143.84619099999964,125.25634799999989,136.41015599999992,142.6923829999996
285,156.53857400000015,135.51269500000035,151.6665039999998,191.0258789999998,145.2563479999999,114.87158199999976,139.7436520000001,147.94873000000007,151.15380900000036,143.9741210000002,153.20507799999996,130.76904300000024,145.0,150.6411130000006
286,156.79492200000004,139.3588869999994,151.53857400000015,192.82031300000017,145.0,113.3334960000002,137.17968800000017,149.48730499999965,154.3588869999994,146.53857400000015,153.7177729999994,130.89746099999957,145.51269500000035,151.41015599999992
287,148.20507799999996,131.6665039999998,143.9741210000002,183.3334960000002,127.56396500000028,111.6665039999998,129.3588869999994,141.2822270000006,149.3588869999994,141.41015599999992,144.48730499999965,125.0,137.17968800000017,143.3334960000002
288,135.76904300000024,117.69238299999961,133.3334960000002,168.3334960000002,103.9741210000002,110.64111300000059,120.51269500000035,128.58984400000008,139.48730499999965,133.46142599999985,131.53857400000015,116.79492200000004,125.38476599999922,131.53857400000015
289,127.05126999999993,106.6665039999998,126.0258789999998,157.3076170000004,89.74365200000011,110.51269500000035,115.38476599999922,119.23095699999976,130.51269500000035,129.7436520000001,124.23095699999976,112.05126999999993,118.7177729999994,123.7177729999994
290,126.0258789999998,104.48730499999965,125.64111300000059,156.2822270000006,93.46142599999985,110.25634799999989,115.76904300000024,118.3334960000002,127.17968800000017,133.3334960000002,127.82031300000017,112.94873000000007,121.41015599999992,123.9741210000002
291,130.2563479999999,108.9741210000002,130.6411130000006,164.23095699999976,109.87158199999976,109.23095699999976,119.10253900000043,124.48730499999965,130.0,140.0,139.10253900000043,117.05126999999993,130.0,129.3588869999994
292,133.3334960000002,113.46142599999985,135.51269500000035,174.10253900000043,125.51269500000035,106.79492200000004,120.89746099999957,131.9228520000006,135.38476599999922,142.05126999999993,149.10253900000043,119.48730499999965,136.79492200000004,133.46142599999985
293,132.05126999999993,114.10253900000043,137.05126999999993,178.9741210000002,129.87158199999976,103.84619099999964,119.35888699999941,134.7436520000001,138.58984400000008,137.05126999999993,151.41015599999992,118.84619099999964,136.53857400000015,132.82031300000017
294,129.48730499999965,113.3334960000002,136.41015599999992,177.94873000000007,122.94873000000007,102.05126999999993,117.05126999999993,132.17968800000017,139.10253900000043,130.51269500000035,147.6923829999996,117.43603499999972,131.53857400000015,130.2563479999999
295,131.6665039999998,115.89746099999957,137.56396500000028,175.6411130000006,113.7177729999994,102.82031300000017,118.3334960000002,128.58984400000008,139.87158199999976,131.53857400000015,145.0,118.9741210000002,128.84619099999964,132.17968800000017
296,140.76904300000024,123.3334960000002,142.6923829999996,176.9228520000006,111.15380900000036,106.41015599999992,124.35888699999941,128.3334960000002,143.7177729999994,142.6923829999996,149.23095699999976,124.23095699999976,132.94873000000007,141.9228520000006
297,151.41015599999992,130.89746099999957,148.84619099999964,181.53857400000015,116.0258789999998,110.51269500000035,131.79492200000004,132.17968800000017,149.61523400000078,157.43603499999972,158.84619099999964,130.2563479999999,141.9228520000006,155.0
298,155.0,132.56396500000028,150.51269500000035,184.48730499999965,121.53857400000015,111.9228520000006,135.0,136.0258789999998,153.20507799999996,165.0,166.15380900000036,132.17968800000017,148.9741210000002,162.43603499999972
299,146.9228520000006,126.53857400000015,145.12841800000024,181.15380900000036,121.15380900000036,109.61523400000078,131.2822270000006,135.6411130000006,151.0258789999998,158.58984400000008,164.61523400000078,127.69238299999961,148.7177729999994,158.3334960000002
300,131.79492200000004,117.94873000000007,135.76904300000024,172.56396500000028,115.51269500000035,105.89746099999957,123.20507799999996,131.0258789999998,144.3588869999994,141.9228520000006,154.7436520000001,119.61523400000078,141.53857400000015,145.51269500000035
301,120.12841800000024,113.9741210000002,128.7177729999994,164.7436520000001,111.53857400000015,104.61523400000078,116.53857400000015,126.41015599999992,138.3334960000002,126.2822270000006,144.61523400000078,113.7177729999994,133.58984400000008,133.0771479999994
302,118.46142599999985,116.2822270000006,127.56396500000028,162.94873000000007,113.9741210000002,107.17968800000017,114.87158199999976,125.25634799999989,137.3076170000004,121.0258789999998,141.0258789999998,113.84619099999964,129.48730499999965,128.3334960000002
303,124.87158199999976,120.12841800000024,130.12841800000024,166.6665039999998,119.61523400000078,110.89746099999957,117.05126999999993,127.30761700000039,140.6411130000006,127.56396500000028,143.7177729999994,117.69238299999961,128.9741210000002,130.6411130000006
304,131.79492200000004,120.51269500000035,131.9228520000006,171.79492200000004,121.0258789999998,111.9228520000006,119.35888699999941,129.10253900000043,144.61523400000078,138.58984400000008,147.43603499999972,120.64111300000059,128.84619099999964,134.48730499999965
305,134.7436520000001,117.30761700000039,131.15380900000036,175.38476599999922,115.51269500000035,110.0,120.12841800000024,129.48730499999965,146.53857400000015,146.6665039999998,148.46142599999985,120.12841800000024,127.69238299999961,135.89746099999957
306,134.23095699999976,115.51269500000035,130.76904300000024,178.0771479999994,107.56396500000028,108.0771479999994,120.89746099999957,130.2563479999999,146.41015599999992,149.3588869999994,147.82031300000017,118.46142599999985,127.56396500000028,135.6411130000006
307,133.84619099999964,119.23095699999976,134.3588869999994,181.2822270000006,105.12841800000024,109.23095699999976,123.84619099999964,133.9741210000002,146.41015599999992,149.3588869999994,149.23095699999976,119.61523400000078,131.53857400000015,136.9228520000006
308,135.2563479999999,127.30761700000039,141.79492200000004,185.2563479999999,111.2822270000006,113.46142599999985,128.7177729999994,140.38476599999922,147.3076170000004,149.48730499999965,153.9741210000002,124.48730499999965,139.10253900000043,141.6665039999998
309,137.17968800000017,133.58984400000008,148.46142599999985,188.20507799999996,122.17968800000017,117.56396500000028,132.56396500000028,145.76904300000024,148.7177729999994,149.87158199999976,159.10253900000043,129.87158199999976,146.53857400000015,148.46142599999985
310,137.56396500000028,133.3334960000002,149.7436520000001,188.46142599999985,130.38476599999922,118.20507799999996,133.20507799999996,146.9228520000006,149.10253900000043,148.3334960000002,160.6411130000006,131.2822270000006,148.7177729999994,153.58984400000008
311,136.2822270000006,127.56396500000028,144.87158199999976,186.0258789999998,131.0258789999998,114.10253900000043,130.89746099999957,142.94873000000007,147.6923829999996,144.10253900000043,156.79492200000004,128.3334960000002,144.23095699999976,154.48730499999965
312,135.6411130000006,122.30761700000039,137.82031300000017,183.0771479999994,125.0,107.94873000000007,128.0771479999994,136.41015599999992,144.87158199999976,139.48730499999965,150.12841800000024,124.10253900000043,136.6665039999998,151.53857400000015
313,137.56396500000028,122.94873000000007,133.9741210000002,181.53857400000015,117.69238299999961,104.23095699999976,127.05126999999993,131.15380900000036,142.56396500000028,137.43603499999972,144.7436520000001,122.30761700000039,131.41015599999992,147.56396500000028
314,141.2822270000006,128.84619099999964,135.89746099999957,182.17968800000017,114.23095699999976,105.38476599999922,127.82031300000017,129.61523400000078,142.43603499999972,137.94873000000007,142.3076170000004,123.58984400000008,130.76904300000024,145.12841800000024
315,143.3334960000002,133.84619099999964,141.15380900000036,183.3334960000002,115.0,110.25634799999989,127.94873000000007,131.2822270000006,144.61523400000078,138.58984400000008,142.43603499999972,126.0258789999998,132.3076170000004,144.48730499999965
316,141.0258789999998,132.94873000000007,146.15380900000036,182.56396500000028,117.56396500000028,115.0,126.2822270000006,133.3334960000002,147.17968800000017,137.56396500000028,143.3334960000002,127.30761700000039,132.43603499999972,144.87158199999976
317,135.51269500000035,126.9228520000006,148.58984400000008,179.23095699999976,118.84619099999964,116.6665039999998,124.23095699999976,133.84619099999964,147.94873000000007,136.15380900000036,144.48730499999965,127.56396500000028,130.0,145.51269500000035
318,130.89746099999957,121.0258789999998,148.84619099999964,175.51269500000035,117.69238299999961,115.76904300000024,124.48730499999965,132.82031300000017,146.6665039999998,136.9228520000006,145.38476599999922,127.30761700000039,126.53857400000015,146.41015599999992
319,130.38476599999922,120.12841800000024,148.20507799999996,174.23095699999976,115.76904300000024,113.9741210000002,127.94873000000007,132.17968800000017,144.48730499999965,140.89746099999957,145.12841800000024,127.05126999999993,124.74365200000011,147.94873000000007
320,133.20507799999996,124.10253900000043,147.3076170000004,176.2822270000006,115.51269500000035,112.43603499999972,132.56396500000028,132.82031300000017,142.17968800000017,144.87158199999976,143.58984400000008,126.2822270000006,125.38476599999922,148.9741210000002
321,135.38476599999922,128.46142599999985,145.51269500000035,178.84619099999964,116.9228520000006,110.12841800000024,134.23095699999976,133.84619099999964,140.0,144.7436520000001,141.15380900000036,124.10253900000043,126.9228520000006,147.56396500000028
322,133.0771479999994,127.82031300000017,142.3076170000004,178.20507799999996,117.69238299999961,106.6665039999998,130.51269500000035,133.0771479999994,137.17968800000017,138.9741210000002,138.58984400000008,120.12841800000024,126.79492200000004,142.17968800000017
323,126.79492200000004,121.79492200000004,138.58984400000008,173.9741210000002,115.89746099999957,102.82031300000017,123.46142599999985,129.7436520000001,133.46142599999985,130.76904300000024,136.53857400000015,115.89746099999957,123.7177729999994,135.12841800000024
324,121.9228520000006,115.89746099999957,137.17968800000017,169.7436520000001,113.3334960000002,100.51269500000035,118.7177729999994,125.76904300000024,130.38476599999922,125.76904300000024,136.41015599999992,113.9741210000002,119.87158199999976,131.0258789999998
325,123.46142599999985,115.89746099999957,139.87158199999976,169.7436520000001,113.46142599999985,100.64111300000059,120.51269500000035,124.61523400000078,129.61523400000078,127.17968800000017,138.46142599999985,116.15380900000036,118.46142599999985,133.46142599999985
326,130.6411130000006,122.43603499999972,144.7436520000001,173.84619099999964,117.43603499999972,102.94873000000007,127.43603499999972,127.17968800000017,131.79492200000004,132.3076170000004,140.6411130000006,120.64111300000059,120.25634799999989,140.2563479999999
327,137.17968800000017,129.61523400000078,148.0771479999994,177.6923829999996,121.9228520000006,105.64111300000059,133.3334960000002,130.76904300000024,134.7436520000001,135.38476599999922,140.0,123.0771479999994,122.56396500000028,146.15380900000036
328,137.05126999999993,131.41015599999992,147.05126999999993,177.6923829999996,123.20507799999996,106.79492200000004,133.7177729999994,132.17968800000017,136.15380900000036,133.3334960000002,136.2822270000006,121.2822270000006,122.17968800000017,147.17968800000017
329,130.2563479999999,126.53857400000015,142.6923829999996,173.84619099999964,120.12841800000024,105.76904300000024,129.48730499999965,131.41015599999992,135.76904300000024,128.58984400000008,132.17968800000017,116.9228520000006,118.46142599999985,143.20507799999996
330,121.79492200000004,118.7177729999994,137.6923829999996,168.7177729999994,114.23095699999976,103.46142599999985,124.87158199999976,130.2563479999999,134.3588869999994,126.79492200000004,130.0,113.9741210000002,113.58984400000008,136.53857400000015
331,116.9228520000006,112.43603499999972,133.58984400000008,164.10253900000043,108.0771479999994,101.79492200000004,123.20507799999996,130.0,133.3334960000002,130.0,128.9741210000002,114.10253900000043,109.35888699999941,129.7436520000001
332,115.89746099999957,109.10253900000043,129.61523400000078,159.61523400000078,103.84619099999964,101.53857400000015,123.9741210000002,130.38476599999922,132.3076170000004,134.23095699999976,126.6665039999998,115.38476599999922,106.0258789999998,124.48730499999965
333,115.76904300000024,107.05126999999993,125.12841800000024,154.7436520000001,102.43603499999972,102.30761700000039,125.12841800000024,130.12841800000024,130.89746099999957,133.58984400000008,122.05126999999993,114.61523400000078,103.0771479999994,121.41015599999992
334,113.9741210000002,104.35888699999941,120.89746099999957,150.12841800000024,103.0771479999994,102.69238299999961,125.0,128.3334960000002,128.46142599999985,125.0,117.17968800000017,111.2822270000006,100.51269500000035,119.23095699999976
335,110.0,101.6665039999998,118.46142599999985,147.3076170000004,103.46142599999985,102.17968800000017,123.3334960000002,125.12841800000024,124.74365200000011,111.15380900000036,115.0,107.82031300000017,99.10253900000043,116.41015599999992
336,105.51269500000035,100.51269500000035,119.10253900000043,146.53857400000015,102.17968800000017,101.79492200000004,120.51269500000035,121.2822270000006,120.25634799999989,98.9741210000002,115.89746099999957,106.6665039999998,99.35888699999941,112.43603499999972
337,103.0771479999994,102.17968800000017,121.41015599999992,146.79492200000004,100.12841800000024,102.56396500000028,117.17968800000017,117.69238299999961,116.0258789999998,95.0,117.05126999999993,108.20507799999996,100.25634799999989,108.20507799999996
338,104.10253900000043,106.41015599999992,123.58984400000008,147.43603499999972,99.35888699999941,103.7177729999994,114.35888699999941,115.64111300000059,114.23095699999976,100.76904300000024,115.76904300000024,111.2822270000006,100.76904300000024,106.0258789999998
339,108.58984400000008,112.17968800000017,125.12841800000024,148.0771479999994,102.05126999999993,104.10253900000043,113.7177729999994,116.6665039999998,116.15380900000036,112.43603499999972,113.0771479999994,114.61523400000078,101.15380900000036,108.46142599999985
340,115.12841800000024,117.82031300000017,127.43603499999972,149.23095699999976,108.20507799999996,103.3334960000002,116.79492200000004,121.41015599999992,121.6665039999998,124.48730499999965,113.3334960000002,117.69238299999961,103.7177729999994,116.2822270000006
341,121.15380900000036,122.05126999999993,131.2822270000006,150.51269500000035,114.87158199999976,102.82031300000017,122.82031300000017,128.3334960000002,128.7177729999994,132.56396500000028,118.84619099999964,119.61523400000078,110.0,127.05126999999993
342,124.23095699999976,124.10253900000043,135.51269500000035,150.12841800000024,118.46142599999985,103.58984400000008,128.9741210000002,133.9741210000002,134.48730499999965,135.6411130000006,127.69238299999961,119.74365200000011,117.94873000000007,136.15380900000036
343,123.7177729999994,123.84619099999964,137.56396500000028,146.6665039999998,117.30761700000039,105.25634799999989,132.05126999999993,135.0,137.43603499999972,134.87158199999976,134.3588869999994,117.82031300000017,123.0771479999994,139.61523400000078
344,121.2822270000006,121.9228520000006,136.15380900000036,139.3588869999994,113.58984400000008,106.9228520000006,130.6411130000006,130.89746099999957,137.3076170000004,132.43603499999972,135.0,115.12841800000024,121.6665039999998,136.41015599999992
345,118.46142599999985,118.58984400000008,132.17968800000017,129.3588869999994,111.0258789999998,107.69238299999961,126.15380900000036,123.9741210000002,134.7436520000001,129.48730499999965,129.48730499999965,113.46142599999985,114.10253900000043,128.9741210000002
346,116.15380900000036,113.7177729999994,127.69238299999961,118.46142599999985,111.6665039999998,107.82031300000017,120.76904300000024,117.94873000000007,130.76904300000024,126.41015599999992,121.53857400000015,113.7177729999994,104.35888699999941,121.0258789999998
347,114.48730499999965,107.94873000000007,125.12841800000024,108.7177729999994,114.23095699999976,107.43603499999972,117.69238299999961,115.51269500000035,125.89746099999957,123.84619099999964,116.2822270000006,115.25634799999989,97.82031300000017,116.2822270000006
348,113.20507799999996,103.0771479999994,125.76904300000024,101.15380900000036,115.89746099999957,107.30761700000039,117.94873000000007,116.2822270000006,121.15380900000036,121.9228520000006,116.79492200000004,116.53857400000015,98.20507799999996,115.76904300000024
349,112.56396500000028,100.25634799999989,128.46142599999985,95.51269500000035,114.74365200000011,107.69238299999961,119.61523400000078,117.82031300000017,118.0771479999994,121.53857400000015,122.56396500000028,116.2822270000006,105.51269500000035,118.0771479999994
350,112.82031300000017,99.48730499999965,131.15380900000036,90.64111300000059,110.89746099999957,108.7177729999994,120.0,117.43603499999972,117.56396500000028,122.17968800000017,130.12841800000024,113.84619099999964,115.64111300000059,120.51269500000035
351,113.7177729999994,100.64111300000059,132.05126999999993,86.6665039999998,106.0258789999998,109.10253900000043,117.82031300000017,114.61523400000078,119.10253900000043,123.0771479999994,135.6411130000006,110.51269500000035,123.3334960000002,121.53857400000015
352,115.12841800000024,102.30761700000039,130.76904300000024,84.10253900000043,102.43603499999972,107.94873000000007,114.48730499999965,111.41015599999992,120.89746099999957,122.43603499999972,136.9228520000006,108.58984400000008,125.38476599999922,121.2822270000006
353,115.89746099999957,103.0771479999994,128.46142599999985,83.7177729999994,101.15380900000036,105.51269500000035,111.79492200000004,110.0,120.89746099999957,119.35888699999941,134.3588869999994,109.35888699999941,122.69238299999961,120.38476599999922
354,115.0,101.53857400000015,126.15380900000036,84.74365200000011,101.9228520000006,103.3334960000002,111.0258789999998,110.51269500000035,118.3334960000002,114.23095699999976,130.0,111.79492200000004,117.82031300000017,119.74365200000011
355,113.3334960000002,98.46142599999985,124.48730499999965,85.89746099999957,104.10253900000043,102.30761700000039,112.17968800000017,112.82031300000017,114.61523400000078,110.0,126.41015599999992,113.9741210000002,114.10253900000043,120.0
356,112.43603499999972,96.53857400000015,124.35888699999941,86.2822270000006,107.30761700000039,102.56396500000028,114.35888699999941,116.41015599999992,112.94873000000007,110.0,125.64111300000059,114.48730499999965,113.3334960000002,121.6665039999998
357,114.87158199999976,98.20507799999996,126.0258789999998,86.0258789999998,110.76904300000024,102.94873000000007,117.30761700000039,121.53857400000015,115.76904300000024,116.15380900000036,127.82031300000017,114.10253900000043,115.25634799999989,124.35888699999941
358,120.38476599999922,104.23095699999976,129.23095699999976,85.25634799999989,114.61523400000078,103.46142599999985,120.38476599999922,127.17968800000017,123.0771479999994,126.79492200000004,131.41015599999992,114.48730499999965,118.20507799999996,127.82031300000017
359,126.41015599999992,111.6665039999998,132.94873000000007,85.12841800000024,118.46142599999985,104.61523400000078,122.56396500000028,131.53857400000015,131.6665039999998,137.56396500000028,133.7177729999994,116.2822270000006,121.15380900000036,131.41015599999992
360,129.7436520000001,116.53857400000015,135.38476599999922,85.76904300000024,121.53857400000015,107.17968800000017,123.20507799999996,132.6923829999996,137.56396500000028,143.46142599999985,132.94873000000007,118.20507799999996,123.58984400000008,134.3588869999994
361,128.58984400000008,116.0258789999998,135.0,87.17968800000017,122.30761700000039,110.64111300000059,122.30761700000039,130.2563479999999,138.58984400000008,141.9228520000006,128.9741210000002,117.56396500000028,124.48730499999965,135.2563479999999
362,123.46142599999985,110.38476599999922,131.0258789999998,87.82031300000017,118.7177729999994,112.69238299999961,121.15380900000036,125.12841800000024,134.3588869999994,133.58984400000008,122.43603499999972,113.58984400000008,122.82031300000017,132.43603499999972
363,116.79492200000004,102.30761700000039,124.48730499999965,85.89746099999957,111.15380900000036,111.2822270000006,120.38476599999922,118.9741210000002,126.53857400000015,122.17968800000017,115.51269500000035,107.94873000000007,118.0771479999994,126.0258789999998
364,111.79492200000004,95.76904300000024,117.82031300000017,80.51269500000035,102.43603499999972,106.79492200000004,118.84619099999964,113.9741210000002,118.20507799999996,112.56396500000028,110.76904300000024,103.46142599999985,112.43603499999972,118.46142599999985
365,110.12841800000024,94.35888699999941,113.7177729999994,73.3334960000002,97.56396500000028,102.05126999999993,115.64111300000059,111.79492200000004,113.20507799999996,108.20507799999996,109.74365200000011,103.0771479999994,109.87158199999976,113.46142599999985
366,112.56396500000028,99.61523400000078,114.48730499999965,68.3334960000002,100.51269500000035,100.89746099999957,112.17968800000017,113.58984400000008,114.10253900000043,110.12841800000024,112.94873000000007,106.9228520000006,113.0771479999994,114.23095699999976
367,118.3334960000002,110.38476599999922,120.38476599999922,69.35888699999941,111.6665039999998,104.87158199999976,111.6665039999998,119.23095699999976,120.89746099999957,117.17968800000017,119.61523400000078,113.3334960000002,122.17968800000017,121.0258789999998
368,126.53857400000015,122.82031300000017,128.9741210000002,76.6665039999998,126.9228520000006,112.17968800000017,116.0258789999998,126.6665039999998,130.12841800000024,127.17968800000017,127.69238299999961,118.9741210000002,133.58984400000008,131.15380900000036
369,134.3588869999994,131.79492200000004,136.15380900000036,86.53857400000015,138.58984400000008,118.20507799999996,123.9741210000002,132.6923829999996,136.6665039999998,136.41015599999992,134.3588869999994,120.89746099999957,142.05126999999993,139.3588869999994
370,138.58984400000008,133.46142599999985,138.46142599999985,92.56396500000028,140.0,118.9741210000002,130.89746099999957,133.7177729999994,137.17968800000017,140.38476599999922,136.53857400000015,119.23095699999976,143.3334960000002,141.41015599999992
371,137.17968800000017,127.94873000000007,135.6411130000006,91.2822270000006,131.53857400000015,114.35888699999941,132.3076170000004,128.58984400000008,132.3076170000004,137.3076170000004,133.7177729999994,115.89746099999957,137.43603499999972,136.79492200000004
372,131.2822270000006,119.61523400000078,131.0258789999998,84.48730499999965,120.51269500000035,107.94873000000007,127.05126999999993,120.0,126.0258789999998,130.12841800000024,128.7177729999994,113.7177729999994,129.61523400000078,129.61523400000078
373,125.25634799999989,114.61523400000078,128.46142599999985,77.30761700000039,115.38476599999922,104.23095699999976,118.7177729999994,112.56396500000028,122.82031300000017,124.74365200000011,126.15380900000036,113.84619099999964,125.89746099999957,125.25634799999989
374,122.30761700000039,116.15380900000036,128.9741210000002,74.10253900000043,118.0771479999994,105.0,112.56396500000028,110.64111300000059,123.7177729999994,124.87158199999976,127.82031300000017,115.12841800000024,128.20507799999996,126.15380900000036
375,122.30761700000039,121.9228520000006,130.38476599999922,74.35888699999941,122.82031300000017,108.3334960000002,111.79492200000004,114.10253900000043,126.0258789999998,128.58984400000008,131.79492200000004,115.51269500000035,132.94873000000007,129.7436520000001
376,121.41015599999992,125.0,129.10253900000043,73.46142599999985,122.43603499999972,110.25634799999989,114.61523400000078,118.58984400000008,125.76904300000024,130.12841800000024,132.94873000000007,112.82031300000017,133.9741210000002,130.6411130000006
377,116.53857400000015,120.12841800000024,124.10253900000043,67.94873000000007,114.48730499999965,108.20507799999996,116.9228520000006,119.61523400000078,120.89746099999957,124.74365200000011,128.0771479999994,107.05126999999993,128.46142599999985,125.51269500000035
378,109.23095699999976,108.84619099999964,117.43603499999972,59.23095699999976,104.23095699999976,103.46142599999985,116.41015599999992,116.53857400000015,113.7177729999994,113.20507799999996,118.7177729999994,100.89746099999957,120.0,115.76904300000024
379,104.74365200000011,99.23095699999976,112.82031300000017,52.43603499999972,98.9741210000002,99.87158199999976,114.23095699999976,112.69238299999961,108.9741210000002,101.2822270000006,110.76904300000024,98.20507799999996,115.64111300000059,106.79492200000004
380,106.15380900000036,97.82031300000017,112.56396500000028,51.410155999999915,101.79492200000004,100.51269500000035,113.7177729999994,112.30761700000039,109.48730499999965,95.76904300000024,108.58984400000008,100.51269500000035,118.58984400000008,103.3334960000002
381,111.2822270000006,104.87158199999976,115.64111300000059,55.0,108.46142599999985,103.9741210000002,115.76904300000024,115.64111300000059,114.10253900000043,99.87158199999976,112.17968800000017,105.89746099999957,125.51269500000035,106.15380900000036
382,114.48730499999965,113.9741210000002,118.84619099999964,58.333496000000196,111.15380900000036,107.05126999999993,118.7177729999994,119.61523400000078,118.58984400000008,110.25634799999989,117.30761700000039,110.25634799999989,130.2563479999999,112.43603499999972
383,112.69238299999961,118.58984400000008,119.61523400000078,57.17968800000017,105.76904300000024,107.30761700000039,119.61523400000078,121.2822270000006,120.0,119.23095699999976,120.12841800000024,110.51269500000035,129.48730499999965,118.20507799999996
