,EEG.AF3,EEG.F7,EEG.F3,EEG.FC5,EEG.T7,EEG.P7,EEG.O1,EEG.O2,EEG.P8,EEG.T8,EEG.FC6,EEG.F4,EEG.F8,EEG.AF4
0,146.79492200000004,76.41015599999992,176.2822270000006,288.46142599999985,131.41015599999992,117.56396500000028,132.56396500000028,163.46142599999985,178.58984400000008,170.0,149.87158199999976,134.10253900000043,210.89746099999957,154.87158199999976
1,131.9228520000006,60.51269500000035,162.05126999999993,276.15380900000036,125.12841800000024,115.0,126.79492200000004,154.61523400000078,168.46142599999985,167.43603499999972,141.9228520000006,125.0,198.84619099999964,139.23095699999976
2,116.6665039999998,40.0,150.51269500000035,267.05126999999993,119.48730499999965,114.35888699999941,123.7177729999994,150.0,159.3588869999994,165.51269500000035,130.12841800000024,118.58984400000008,185.38476599999922,126.6665039999998
3,107.43603499999972,20.769043000000238,147.6923829999996,266.79492200000004,116.79492200000004,115.51269500000035,127.43603499999972,155.2563479999999,159.10253900000043,168.7177729999994,121.0258789999998,118.7177729999994,176.0258789999998,121.41015599999992
4,107.05126999999993,9.230956999999762,153.9741210000002,275.3847659999992,117.82031300000017,117.43603499999972,137.05126999999993,167.82031300000017,167.56396500000028,176.41015599999992,118.0771479999994,124.74365200000011,171.9228520000006,122.30761700000039
5,113.9741210000002,10.897460999999566,164.23095699999976,289.3588869999994,121.53857400000015,118.58984400000008,147.43603499999972,180.12841800000024,177.05126999999993,184.48730499999965,120.12841800000024,132.17968800000017,170.2563479999999,125.76904300000024
6,123.9741210000002,26.922852000000603,172.17968800000017,304.7436520000001,126.2822270000006,118.46142599999985,152.3076170000004,185.6411130000006,180.6411130000006,188.20507799999996,123.20507799999996,136.79492200000004,166.79492200000004,129.48730499999965
7,132.82031300000017,52.69238299999961,174.48730499999965,319.23095699999976,130.89746099999957,117.69238299999961,149.3588869999994,183.46142599999985,176.41015599999992,185.89746099999957,122.82031300000017,136.53857400000015,158.0771479999994,132.6923829999996
8,137.43603499999972,79.23095699999976,172.17968800000017,331.53857400000015,134.3588869999994,117.05126999999993,140.76904300000024,177.05126999999993,168.20507799999996,180.2563479999999,117.05126999999993,132.82031300000017,142.3076170000004,135.38476599999922
9,136.2822270000006,97.82031300000017,168.46142599999985,340.6411130000006,136.41015599999992,116.53857400000015,132.05126999999993,170.38476599999922,161.53857400000015,175.76904300000024,106.15380900000036,128.3334960000002,119.74365200000011,135.76904300000024
10,129.7436520000001,104.23095699999976,165.89746099999957,346.0258789999998,135.6411130000006,116.0258789999998,127.56396500000028,165.76904300000024,159.3588869999994,174.10253900000043,91.0258789999998,124.35888699999941,92.05126999999993,131.6665039999998
11,120.51269500000035,101.41015599999992,164.48730499999965,347.82031300000017,131.79492200000004,115.64111300000059,128.7177729999994,162.56396500000028,159.3588869999994,171.79492200000004,71.9228520000006,120.51269500000035,61.153809000000365,122.43603499999972
12,113.20507799999996,97.56396500000028,162.82031300000017,347.5639650000003,125.89746099999957,115.51269500000035,132.6923829999996,159.10253900000043,156.6665039999998,164.48730499999965,50.38476599999922,116.53857400000015,30.51269500000035,110.89746099999957
13,111.79492200000004,100.38476599999922,159.87158199999976,348.0771479999994,120.0,115.51269500000035,135.6411130000006,153.9741210000002,148.3334960000002,152.6923829999996,29.48730499999965,112.69238299999961,3.846190999999635,101.9228520000006
14,116.6665039999998,111.6665039999998,155.89746099999957,351.4101559999999,116.79492200000004,115.25634799999989,135.2563479999999,148.3334960000002,136.41015599999992,141.9228520000006,12.948730000000069,110.38476599999922,-15.256347999999889,98.20507799999996
15,124.74365200000011,127.30761700000039,152.82031300000017,357.94873000000007,117.30761700000039,114.48730499999965,131.9228520000006,144.10253900000043,126.79492200000004,138.0771479999994,2.6923829999996087,110.38476599999922,-26.666747999999643,98.58984400000008
16,131.15380900000036,141.9228520000006,151.6665039999998,365.3847659999992,120.76904300000024,113.7177729999994,128.20507799999996,142.3076170000004,123.0771479999994,141.53857400000015,-2.4360349999997197,112.17968800000017,-33.974365000000034,99.23095699999976
17,132.94873000000007,153.9741210000002,151.9228520000006,370.51269500000035,125.89746099999957,113.46142599999985,125.76904300000024,142.43603499999972,125.0,147.3076170000004,-5.769286999999622,113.58984400000008,-41.79492200000004,97.17968800000017
18,130.38476599999922,165.38476599999922,151.6665039999998,371.2822270000006,131.9228520000006,113.84619099999964,124.74365200000011,141.6665039999998,127.30761700000039,147.82031300000017,-11.153809000000365,112.05126999999993,-53.33325200000036,92.17968800000017
19,126.41015599999992,177.3076170000004,149.48730499999965,367.6923829999996,138.0771479999994,114.87158199999976,123.3334960000002,136.9228520000006,124.87158199999976,139.23095699999976,-20.89746100000002,107.05126999999993,-68.33325200000036,85.89746099999957
20,124.23095699999976,189.61523400000078,145.89746099999957,362.5639650000003,143.9741210000002,116.53857400000015,120.89746099999957,128.0771479999994,116.41015599999992,123.0771479999994,-33.846190999999635,100.64111300000059,-84.23071300000038,80.38476599999922
21,125.89746099999957,201.53857400000015,142.94873000000007,359.7436520000001,148.0771479999994,117.94873000000007,118.0771479999994,118.58984400000008,105.89746099999957,106.6665039999998,-46.28198199999997,96.15380900000036,-97.56420900000057,77.17968800000017
22,130.76904300000024,213.58984400000008,142.3076170000004,361.2822270000006,148.58984400000008,118.58984400000008,116.41015599999992,113.20507799999996,98.3334960000002,96.6665039999998,-54.23071300000038,95.51269500000035,-106.79492200000004,76.41015599999992
23,135.0,225.6411130000006,143.3334960000002,364.7436520000001,145.2563479999999,118.3334960000002,116.53857400000015,113.3334960000002,95.25634799999989,94.48730499999965,-57.564209000000574,98.20507799999996,-112.69238299999961,76.9228520000006
24,134.23095699999976,235.76904300000024,143.7177729999994,364.48730499999965,139.3588869999994,117.56396500000028,117.17968800000017,116.15380900000036,94.23095699999976,94.35888699999941,-59.35888699999987,101.2822270000006,-118.97436500000003,76.2822270000006
25,126.79492200000004,241.41015599999992,141.41015599999992,356.6665039999998,132.82031300000017,116.79492200000004,117.05126999999993,116.0258789999998,91.15380900000036,88.7177729999994,-62.82055700000001,101.6665039999998,-129.35888699999987,72.56396500000028
26,115.51269500000035,242.17968800000017,136.53857400000015,342.4360349999997,127.94873000000007,116.0258789999998,115.12841800000024,110.12841800000024,84.10253900000043,75.12841800000024,-69.10253899999998,97.82031300000017,-144.10253899999998,65.0
27,105.89746099999957,242.05126999999993,131.2822270000006,326.9228520000006,126.53857400000015,115.64111300000059,112.30761700000039,99.61523400000078,74.87158199999976,58.7177729999994,-76.41015600000037,91.41015599999992,-159.4870609999998,55.38476599999922
28,101.6665039999998,246.2822270000006,127.56396500000028,315.76904300000024,129.3588869999994,115.38476599999922,109.48730499999965,88.84619099999964,67.56396500000028,47.17968800000017,-82.43579099999943,86.41015599999992,-170.76928699999962,46.53857400000015
29,102.05126999999993,256.4101559999999,125.64111300000059,310.89746099999957,134.48730499999965,115.64111300000059,107.30761700000039,82.17968800000017,64.74365200000011,43.846190999999635,-86.53857400000015,84.74365200000011,-176.28198199999997,40.51269500000035
30,102.69238299999961,268.9741210000002,123.9741210000002,310.0,138.3334960000002,115.89746099999957,105.12841800000024,80.76904300000024,65.25634799999989,45.25634799999989,-89.35888699999987,85.12841800000024,-178.33325200000036,37.43603499999972
31,100.0,278.7177729999994,121.41015599999992,308.3334960000002,138.9741210000002,116.0258789999998,102.43603499999972,82.94873000000007,66.6665039999998,46.2822270000006,-91.92309599999999,85.25634799999989,-181.02563499999997,35.76904300000024
32,93.9741210000002,283.9741210000002,118.3334960000002,302.94873000000007,137.43603499999972,116.53857400000015,100.25634799999989,86.2822270000006,67.94873000000007,45.51269500000035,-93.07690400000001,84.74365200000011,-185.0,34.23095699999976
33,87.56396500000028,287.3076170000004,116.6665039999998,294.10253900000043,136.79492200000004,117.30761700000039,100.64111300000059,89.23095699999976,70.38476599999922,44.61523400000078,-91.53857400000015,84.48730499999965,-188.46142599999985,32.17968800000017
34,83.0771479999994,292.6923829999996,116.6665039999998,284.23095699999976,138.7177729999994,118.3334960000002,104.10253900000043,91.15380900000036,73.9741210000002,43.46142599999985,-88.58984399999963,84.87158199999976,-189.61547900000005,29.615234000000783
35,80.25634799999989,301.4101559999999,116.53857400000015,275.0,141.79492200000004,118.7177729999994,108.58984400000008,90.51269500000035,75.38476599999922,39.35888699999941,-88.33325200000036,84.87158199999976,-189.8718259999996,26.153809000000365
36,76.79492200000004,310.51269500000035,113.0771479999994,266.4101559999999,143.0771479999994,117.94873000000007,110.0,85.12841800000024,70.38476599999922,28.846190999999635,-94.35888699999987,83.0771479999994,-192.9487299999996,20.897460999999566
37,70.89746099999957,315.89746099999957,105.12841800000024,257.05126999999993,140.38476599999922,116.6665039999998,106.41015599999992,75.0,58.46142599999985,12.43603499999972,-106.02563499999997,79.23095699999976,-201.28198199999997,13.717772999999397
38,62.82031300000017,315.2563479999999,94.87158199999976,245.89746099999957,134.87158199999976,115.64111300000059,99.23095699999976,63.46142599999985,45.38476599999922,-5.38452099999995,-117.82055700000001,74.74365200000011,-212.43579099999943,5.256347999999889
39,56.025878999999804,310.51269500000035,86.79492200000004,233.0771479999994,130.51269500000035,115.64111300000059,92.05126999999993,55.64111300000059,38.7177729999994,-17.564209000000574,-123.97436500000003,71.41015599999992,-220.76928699999962,-1.6665039999998044
40,52.82031300000017,306.2822270000006,84.35888699999941,219.3588869999994,131.41015599999992,116.0258789999998,88.3334960000002,54.23095699999976,41.79492200000004,-20.25634799999989,-122.17944299999999,70.64111300000059,-221.79492200000004,-4.871825999999601
41,52.17968800000017,306.2822270000006,87.17968800000017,205.6411130000006,137.56396500000028,116.41015599999992,88.84619099999964,58.20507799999996,50.76904300000024,-15.512939000000188,-116.53857400000015,72.30761700000039,-216.28198199999997,-5.38452099999995
42,49.87158199999976,308.7177729999994,91.41015599999992,191.2822270000006,145.51269500000035,116.2822270000006,91.53857400000015,62.43603499999972,57.05126999999993,-10.897461000000021,-113.97436500000003,74.23095699999976,-210.1281740000004,-7.307617000000391
43,42.69238299999961,308.84619099999964,92.69238299999961,176.15380900000036,151.0258789999998,115.12841800000024,93.58984400000008,62.56396500000028,54.74365200000011,-13.205077999999958,-117.94872999999961,73.7177729999994,-208.076904,-13.71801800000003
44,33.0771479999994,302.82031300000017,89.74365200000011,160.76904300000024,151.6665039999998,113.20507799999996,93.58984400000008,58.7177729999994,45.25634799999989,-23.58984399999963,-125.51293900000019,70.38476599999922,-208.97436500000003,-23.333252000000357
45,27.82031300000017,291.53857400000015,84.87158199999976,146.53857400000015,147.6923829999996,111.9228520000006,93.20507799999996,55.51269500000035,36.9228520000006,-35.89746100000002,-129.7436520000001,66.9228520000006,-206.02563499999997,-30.38452099999995
46,31.153809000000365,278.9741210000002,82.05126999999993,133.20507799999996,140.2563479999999,112.82031300000017,95.12841800000024,57.56396500000028,37.43603499999972,-42.564209000000574,-125.1281740000004,66.15380900000036,-193.33325200000036,-29.74365200000011
47,40.76904300000024,268.5898440000001,83.20507799999996,120.12841800000024,130.51269500000035,115.76904300000024,100.25634799999989,65.12841800000024,48.20507799999996,-40.0,-112.69238299999961,68.9741210000002,-171.53857400000015,-21.28198199999997
48,48.7177729999994,260.12841800000024,86.9228520000006,106.79492200000004,119.61523400000078,118.20507799999996,106.0258789999998,73.0771479999994,62.17968800000017,-31.025634999999966,-98.33325200000036,73.0771479999994,-148.076904,-10.1281740000004
49,49.102539000000434,251.2822270000006,89.74365200000011,94.23095699999976,108.9741210000002,116.9228520000006,107.94873000000007,74.87158199999976,70.51269500000035,-21.794922000000042,-88.20507799999996,75.51269500000035,-130.76928699999962,-2.8203119999998307
50,41.79492200000004,240.76904300000024,89.48730499999965,84.23095699999976,100.76904300000024,111.41015599999992,103.7177729999994,68.3334960000002,68.84619099999964,-17.564209000000574,-84.61547900000005,75.12841800000024,-122.56420900000057,-2.0512699999999313
51,32.17968800000017,229.7436520000001,86.0258789999998,77.17968800000017,96.79492200000004,105.12841800000024,95.0,58.20507799999996,60.25634799999989,-19.358886999999868,-85.1281740000004,73.46142599999985,-119.8718259999996,-5.769286999999622
52,26.153809000000365,220.2563479999999,80.76904300000024,71.2822270000006,97.30761700000039,102.17968800000017,87.05126999999993,51.666503999999804,52.17968800000017,-24.61547900000005,-85.0,72.43603499999972,-116.15380900000036,-9.8718259999996
53,24.871581999999762,212.05126999999993,75.64111300000059,63.7177729999994,98.58984400000008,104.10253900000043,84.48730499999965,52.94873000000007,49.61523400000078,-30.0,-81.66674799999964,72.43603499999972,-108.58984399999963,-11.28198199999997
54,25.769043000000238,202.43603499999972,71.79492200000004,52.69238299999961,95.89746099999957,109.23095699999976,87.82031300000017,59.87158199999976,52.05126999999993,-33.20507799999996,-76.53857400000015,72.30761700000039,-98.71801800000003,-10.256347999999889
55,25.25634799999989,190.38476599999922,69.74365200000011,40.25634799999989,88.7177729999994,114.48730499999965,93.58984400000008,66.9228520000006,55.897460999999566,-33.46142599999985,-72.05127000000039,71.2822270000006,-90.89746100000002,-8.71801800000003
56,23.846190999999635,178.46142599999985,70.25634799999989,31.282227000000603,82.43603499999972,117.56396500000028,97.56396500000028,70.0,58.974121000000196,-31.025634999999966,-67.94872999999961,70.25634799999989,-85.76928699999962,-7.692382999999609
57,25.128418000000238,171.2822270000006,73.9741210000002,29.74365200000011,83.9741210000002,117.17968800000017,97.69238299999961,69.35888699999941,61.666503999999804,-26.923095999999987,-61.53857400000015,71.6665039999998,-79.74365200000011,-5.641113000000132
58,31.666503999999804,171.2822270000006,80.64111300000059,34.74365200000011,94.10253900000043,114.35888699999941,95.25634799999989,67.94873000000007,65.0,-22.820557000000008,-51.025634999999966,76.6665039999998,-68.20507799999996,-0.8974609999995664
59,41.2822270000006,175.89746099999957,88.3334960000002,39.74365200000011,105.76904300000024,111.6665039999998,92.94873000000007,68.20507799999996,67.82031300000017,-20.769286999999622,-38.846190999999635,83.58984400000008,-49.8718259999996,6.025878999999804
60,47.69238299999961,178.7177729999994,93.46142599999985,37.30761700000039,110.51269500000035,110.64111300000059,91.9228520000006,69.48730499999965,68.0771479999994,-22.564209000000574,-29.8718259999996,88.0771479999994,-29.487060999999812,12.17968800000017
61,46.410155999999915,174.10253900000043,93.20507799999996,24.615234000000783,104.87158199999976,110.38476599999922,91.53857400000015,69.74365200000011,64.61523400000078,-27.435790999999426,-27.948729999999614,86.6665039999998,-13.846190999999635,13.846190999999635
62,38.46142599999985,161.9228520000006,88.0771479999994,6.538574000000153,93.46142599999985,108.9741210000002,90.0,66.9228520000006,58.974121000000196,-32.564209000000574,-32.30761700000039,79.10253900000043,-6.666747999999643,11.025878999999804
63,29.74365200000011,146.6665039999998,81.2822270000006,-8.461425999999847,85.0,106.53857400000015,87.05126999999993,61.9228520000006,53.589844000000085,-34.48706099999981,-37.435790999999426,70.12841800000024,-6.153809000000365,6.794922000000042
64,26.282227000000603,134.7436520000001,76.9228520000006,-13.461425999999847,85.51269500000035,105.0,84.87158199999976,58.20507799999996,51.410155999999915,-31.025634999999966,-36.92309599999999,66.15380900000036,-6.41015600000037,5.256347999999889
65,29.871581999999762,129.3588869999994,77.43603499999972,-7.564209000000574,94.35888699999941,105.89746099999957,86.53857400000015,59.74365200000011,54.102539000000434,-23.58984399999963,-27.051270000000386,70.38476599999922,-1.9228520000006029,8.846190999999635
66,36.9228520000006,128.84619099999964,81.9228520000006,3.4614259999998467,105.25634799999989,108.0771479999994,92.94873000000007,67.17968800000017,61.410155999999915,-15.769286999999622,-10.769286999999622,79.87158199999976,8.461425999999847,16.025878999999804
67,41.666503999999804,128.0771479999994,86.53857400000015,10.897460999999566,111.15380900000036,109.61523400000078,100.89746099999957,77.17968800000017,70.25634799999989,-11.153809000000365,4.6152340000007825,87.56396500000028,20.51269500000035,22.05126999999993
68,40.76904300000024,123.84619099999964,88.0771479999994,10.128418000000238,108.7177729999994,109.74365200000011,105.89746099999957,84.48730499999965,77.82031300000017,-9.61547900000005,12.692382999999609,88.20507799999996,29.358886999999413,23.461425999999847
69,36.410155999999915,117.43603499999972,86.15380900000036,3.846190999999635,100.89746099999957,108.9741210000002,105.51269500000035,86.0258789999998,82.30761700000039,-7.307617000000391,13.077147999999397,82.30761700000039,33.7177729999994,21.153809000000365
70,33.974121000000196,113.20507799999996,83.20507799999996,-1.0258789999998044,93.3334960000002,108.46142599999985,101.2822270000006,83.0771479999994,83.46142599999985,-0.256347999999889,11.153809000000365,75.25634799999989,36.79492200000004,19.358886999999413
71,36.2822270000006,112.30761700000039,82.05126999999993,0.8974609999995664,90.89746099999957,109.35888699999941,97.82031300000017,79.48730499999965,82.82031300000017,11.794922000000042,13.846190999999635,72.69238299999961,42.05126999999993,21.922852000000603
72,41.79492200000004,110.89746099999957,83.46142599999985,8.461425999999847,94.61523400000078,111.53857400000015,98.46142599999985,79.10253900000043,81.9228520000006,25.384765999999217,22.82031300000017,76.2822270000006,49.35888699999941,27.82031300000017
73,45.38476599999922,103.58984400000008,86.0258789999998,16.153809000000365,101.2822270000006,113.58984400000008,102.69238299999961,83.0771479999994,82.56396500000028,35.38476599999922,34.23095699999976,82.69238299999961,55.0,32.56396500000028
74,43.7177729999994,89.35888699999941,87.56396500000028,18.461425999999847,105.0,114.10253900000043,106.53857400000015,89.87158199999976,85.64111300000059,38.589844000000085,41.79492200000004,87.05126999999993,55.0,32.43603499999972
75,38.7177729999994,74.48730499999965,87.17968800000017,15.384765999999217,102.05126999999993,112.56396500000028,106.6665039999998,95.64111300000059,90.89746099999957,35.51269500000035,42.43603499999972,86.9228520000006,49.74365200000011,28.333496000000196
76,36.153809000000365,68.20507799999996,85.76904300000024,12.692382999999609,94.23095699999976,109.61523400000078,103.58984400000008,98.58984400000008,96.9228520000006,30.51269500000035,38.974121000000196,84.35888699999941,44.74365200000011,24.615234000000783
77,40.76904300000024,75.51269500000035,85.51269500000035,17.17968800000017,87.05126999999993,107.17968800000017,100.0,98.9741210000002,100.89746099999957,28.205077999999958,36.9228520000006,82.69238299999961,45.0,26.025878999999804
78,51.025878999999804,92.82031300000017,87.30761700000039,30.51269500000035,84.87158199999976,106.9228520000006,98.58984400000008,98.58984400000008,101.0258789999998,29.871581999999762,39.23095699999976,83.20507799999996,49.102539000000434,32.69238299999961
79,60.51269500000035,110.0,89.74365200000011,47.17968800000017,88.0771479999994,109.48730499999965,99.48730499999965,98.3334960000002,97.82031300000017,32.94873000000007,43.333496000000196,84.35888699999941,49.61523400000078,39.23095699999976
80,62.94873000000007,118.20507799999996,89.61523400000078,59.102539000000434,93.58984400000008,113.46142599999985,101.41015599999992,98.0771479999994,94.74365200000011,33.974121000000196,43.974121000000196,83.9741210000002,39.35888699999941,39.35888699999941
81,57.43603499999972,115.89746099999957,86.15380900000036,61.2822270000006,97.30761700000039,116.2822270000006,102.43603499999972,96.9228520000006,94.10253900000043,31.666503999999804,38.20507799999996,81.2822270000006,19.358886999999413,31.282227000000603
82,48.589844000000085,108.20507799999996,81.6665039999998,55.76904300000024,96.53857400000015,116.6665039999998,101.53857400000015,94.74365200000011,95.51269500000035,28.333496000000196,28.333496000000196,78.3334960000002,-1.7949220000000423,20.128418000000238
83,42.94873000000007,101.53857400000015,80.12841800000024,49.61523400000078,92.69238299999961,115.25634799999989,99.48730499999965,92.17968800000017,95.76904300000024,27.43603499999972,20.128418000000238,77.56396500000028,-13.974365000000034,13.717772999999397
84,44.23095699999976,99.35888699999941,83.9741210000002,49.61523400000078,90.51269500000035,114.23095699999976,97.94873000000007,90.51269500000035,92.94873000000007,31.282227000000603,18.974121000000196,80.38476599999922,-12.692382999999609,16.794922000000042
85,51.410155999999915,101.2822270000006,91.9228520000006,57.82031300000017,93.7177729999994,114.87158199999976,98.84619099999964,91.0258789999998,88.7177729999994,39.61523400000078,25.384765999999217,84.87158199999976,-1.6665039999998044,27.05126999999993
86,59.74365200000011,104.87158199999976,99.87158199999976,70.51269500000035,101.41015599999992,116.2822270000006,102.17968800000017,94.23095699999976,86.79492200000004,49.87158199999976,34.74365200000011,88.20507799999996,10.256347999999889,38.333496000000196
87,65.25634799999989,107.30761700000039,104.23095699999976,80.38476599999922,108.3334960000002,116.79492200000004,106.15380900000036,99.10253900000043,89.23095699999976,57.43603499999972,40.38476599999922,88.58984400000008,15.128418000000238,44.35888699999941
88,66.79492200000004,107.17968800000017,103.9741210000002,82.56396500000028,109.61523400000078,115.51269500000035,108.0771479999994,103.7177729999994,95.0,59.48730499999965,39.102539000000434,86.79492200000004,11.025878999999804,43.589844000000085
89,66.6665039999998,104.87158199999976,101.15380900000036,78.20507799999996,104.35888699999941,112.56396500000028,106.9228520000006,105.76904300000024,100.12841800000024,56.53857400000015,32.56396500000028,84.87158199999976,3.3334960000001956,39.74365200000011
90,66.9228520000006,101.15380900000036,99.23095699999976,71.79492200000004,95.38476599999922,109.35888699999941,103.46142599999985,103.84619099999964,100.12841800000024,51.9228520000006,26.025878999999804,84.48730499999965,-1.7949220000000423,37.43603499999972
91,67.05126999999993,96.0258789999998,99.23095699999976,68.3334960000002,86.6665039999998,107.82031300000017,100.0,98.20507799999996,94.10253900000043,49.102539000000434,23.205077999999958,85.25634799999989,-2.1796869999998307,37.94873000000007
92,64.74365200000011,88.9741210000002,99.74365200000011,69.35888699999941,81.79492200000004,108.3334960000002,98.20507799999996,91.15380900000036,85.38476599999922,49.35888699999941,23.974121000000196,85.76904300000024,0.256347999999889,39.23095699999976
93,59.61523400000078,82.05126999999993,98.9741210000002,73.58984400000008,81.6665039999998,109.23095699999976,98.20507799999996,85.89746099999957,79.74365200000011,51.153809000000365,25.25634799999989,85.0,2.6923829999996087,38.846190999999635
94,54.102539000000434,78.84619099999964,96.9228520000006,78.7177729999994,85.76904300000024,109.23095699999976,99.61523400000078,84.87158199999976,80.89746099999957,52.43603499999972,24.871581999999762,83.9741210000002,4.487304999999651,36.153809000000365
95,51.53857400000015,82.30761700000039,96.41015599999992,83.58984400000008,92.05126999999993,108.20507799999996,101.6665039999998,89.23095699999976,87.94873000000007,52.43603499999972,23.461425999999847,84.87158199999976,6.538574000000153,33.846190999999635
96,54.23095699999976,91.2822270000006,100.38476599999922,88.46142599999985,98.0771479999994,108.20507799999996,103.9741210000002,96.79492200000004,96.79492200000004,53.7177729999994,23.717772999999397,88.7177729999994,10.0,35.12841800000024
97,61.2822270000006,100.89746099999957,108.58984400000008,94.48730499999965,101.79492200000004,110.51269500000035,106.0258789999998,103.3334960000002,102.69238299999961,58.7177729999994,27.17968800000017,94.10253900000043,15.0,41.2822270000006
98,69.23095699999976,106.15380900000036,117.17968800000017,102.05126999999993,102.43603499999972,114.35888699999941,107.17968800000017,104.87158199999976,102.82031300000017,66.53857400000015,32.17968800000017,97.82031300000017,20.25634799999989,50.25634799999989
99,73.84619099999964,105.0,121.0258789999998,109.23095699999976,101.15380900000036,117.17968800000017,106.9228520000006,100.89746099999957,97.43603499999972,73.0771479999994,35.12841800000024,97.69238299999961,23.974121000000196,57.17968800000017
100,72.56396500000028,98.3334960000002,117.43603499999972,112.94873000000007,99.87158199999976,117.05126999999993,104.87158199999976,94.48730499999965,89.35888699999941,74.35888699999941,33.7177729999994,93.9741210000002,24.358886999999413,58.20507799999996
101,65.89746099999957,90.0,108.46142599999985,111.6665039999998,98.9741210000002,114.35888699999941,101.9228520000006,89.87158199999976,81.6665039999998,68.9741210000002,28.846190999999635,88.46142599999985,20.769043000000238,53.0771479999994
102,57.43603499999972,83.46142599999985,98.9741210000002,106.2822270000006,97.56396500000028,110.89746099999957,99.35888699999941,88.58984400000008,76.53857400000015,59.35888699999941,23.205077999999958,83.84619099999964,14.871581999999762,45.76904300000024
103,52.56396500000028,81.0258789999998,93.84619099999964,101.2822270000006,95.12841800000024,109.48730499999965,98.7177729999994,89.10253900000043,75.12841800000024,50.0,19.74365200000011,81.6665039999998,9.487304999999651,41.53857400000015
104,53.974121000000196,82.82031300000017,95.25634799999989,100.76904300000024,93.20507799999996,110.89746099999957,100.51269500000035,88.9741210000002,77.17968800000017,45.64111300000059,20.128418000000238,82.43603499999972,7.820313000000169,43.46142599999985
105,60.76904300000024,87.05126999999993,100.89746099999957,106.0258789999998,94.23095699999976,113.7177729999994,103.46142599999985,87.69238299999961,81.41015599999992,48.846190999999635,24.230956999999762,85.0,10.897460999999566,50.0
106,68.46142599999985,90.12841800000024,105.76904300000024,113.9741210000002,98.0771479999994,115.51269500000035,105.51269500000035,86.41015599999992,85.0,57.69238299999961,29.48730499999965,87.17968800000017,16.538574000000153,56.2822270000006
107,72.69238299999961,90.0,105.89746099999957,119.35888699999941,102.17968800000017,115.0,105.51269500000035,86.53857400000015,85.64111300000059,66.79492200000004,32.43603499999972,87.43603499999972,21.282227000000603,58.0771479999994
108,72.30761700000039,88.3334960000002,101.53857400000015,119.48730499999965,104.23095699999976,113.84619099999964,104.74365200000011,89.10253900000043,83.46142599999985,71.15380900000036,31.922852000000603,86.15380900000036,22.94873000000007,55.51269500000035
109,69.48730499999965,89.23095699999976,97.56396500000028,117.17968800000017,103.84619099999964,113.58984400000008,105.25634799999989,93.84619099999964,81.15380900000036,69.74365200000011,30.25634799999989,85.0,22.56396500000028,52.43603499999972
110,68.46142599999985,94.48730499999965,98.9741210000002,117.43603499999972,102.43603499999972,114.74365200000011,108.46142599999985,99.35888699999941,82.43603499999972,66.2822270000006,30.384765999999217,85.38476599999922,22.30761700000039,53.333496000000196
111,70.64111300000059,101.15380900000036,106.15380900000036,122.82031300000017,101.53857400000015,116.15380900000036,113.20507799999996,103.46142599999985,88.3334960000002,66.53857400000015,33.20507799999996,87.17968800000017,23.333496000000196,58.7177729999994
112,74.35888699999941,103.9741210000002,114.61523400000078,130.76904300000024,101.79492200000004,116.9228520000006,116.53857400000015,104.48730499999965,96.15380900000036,73.58984400000008,36.9228520000006,89.10253900000043,24.74365200000011,64.23095699999976
113,76.15380900000036,99.35888699999941,118.20507799999996,135.76904300000024,101.2822270000006,116.6665039999998,116.15380900000036,102.17968800000017,100.64111300000059,84.48730499999965,38.7177729999994,90.25634799999989,24.74365200000011,65.12841800000024
114,73.9741210000002,88.58984400000008,114.74365200000011,134.3588869999994,98.3334960000002,115.64111300000059,111.6665039999998,98.20507799999996,98.0771479999994,91.79492200000004,36.9228520000006,89.35888699999941,22.30761700000039,60.25634799999989
115,69.10253900000043,76.6665039999998,107.05126999999993,127.69238299999961,93.20507799999996,114.23095699999976,105.0,94.74365200000011,89.23095699999976,89.23095699999976,32.94873000000007,86.41015599999992,18.717772999999397,53.20507799999996
116,66.0258789999998,69.61523400000078,101.41015599999992,120.89746099999957,89.74365200000011,113.3334960000002,100.0,93.58984400000008,80.12841800000024,77.82031300000017,29.871581999999762,83.46142599999985,16.922852000000603,49.35888699999941
117,68.7177729999994,72.43603499999972,102.30761700000039,119.48730499999965,92.82031300000017,113.46142599999985,99.23095699999976,95.76904300000024,77.82031300000017,66.0258789999998,31.666503999999804,83.46142599999985,20.0,52.17968800000017
118,77.56396500000028,84.87158199999976,110.12841800000024,125.12841800000024,103.20507799999996,115.0,102.69238299999961,100.64111300000059,85.0,63.974121000000196,39.48730499999965,88.20507799999996,28.333496000000196,60.897460999999566
119,87.94873000000007,100.25634799999989,120.51269500000035,133.46142599999985,115.89746099999957,116.79492200000004,107.43603499999972,106.0258789999998,97.56396500000028,75.51269500000035,50.12841800000024,95.64111300000059,38.7177729999994,71.2822270000006
120,94.10253900000043,109.74365200000011,127.17968800000017,138.7177729999994,122.69238299999961,117.30761700000039,110.12841800000024,108.3334960000002,107.69238299999961,94.61523400000078,57.43603499999972,101.41015599999992,45.897460999999566,77.82031300000017
121,92.94873000000007,108.3334960000002,126.41015599999992,137.6923829999996,119.61523400000078,115.64111300000059,108.9741210000002,106.0258789999998,108.9741210000002,109.10253900000043,56.153809000000365,101.79492200000004,46.025878999999804,77.82031300000017
122,85.89746099999957,99.10253900000043,119.87158199999976,132.82031300000017,110.0,112.43603499999972,105.64111300000059,101.15380900000036,101.53857400000015,109.61523400000078,46.79492200000004,96.6665039999998,39.48730499999965,72.69238299999961
123,77.43603499999972,89.61523400000078,112.43603499999972,128.84619099999964,101.53857400000015,109.35888699999941,103.20507799999996,97.94873000000007,91.0258789999998,96.79492200000004,34.61523400000078,89.61523400000078,29.74365200000011,66.53857400000015
124,71.41015599999992,85.64111300000059,107.69238299999961,127.69238299999961,98.20507799999996,108.0771479999994,103.20507799999996,98.58984400000008,84.48730499999965,79.35888699999941,25.51269500000035,84.74365200000011,20.641113000000587,62.30761700000039
125,68.46142599999985,86.41015599999992,105.0,127.30761700000039,98.3334960000002,108.84619099999964,104.23095699999976,101.15380900000036,83.58984400000008,67.05126999999993,21.666503999999804,83.84619099999964,14.230956999999762,59.61523400000078
126,67.30761700000039,86.53857400000015,102.30761700000039,124.35888699999941,97.17968800000017,110.64111300000059,103.84619099999964,101.79492200000004,84.87158199999976,63.333496000000196,21.410155999999915,85.51269500000035,10.512695000000349,56.79492200000004
127,66.53857400000015,82.43603499999972,100.12841800000024,118.84619099999964,92.30761700000039,112.05126999999993,101.15380900000036,98.84619099999964,83.7177729999994,65.64111300000059,22.30761700000039,87.05126999999993,9.230956999999762,53.589844000000085
128,66.2822270000006,75.38476599999922,100.64111300000059,114.61523400000078,86.41015599999992,112.43603499999972,98.46142599999985,94.23095699999976,79.48730499999965,69.74365200000011,24.48730499999965,87.05126999999993,10.384765999999217,52.43603499999972
129,66.79492200000004,70.64111300000059,104.87158199999976,116.2822270000006,84.10253900000043,112.17968800000017,98.84619099999964,91.53857400000015,75.0,72.82031300000017,28.717772999999397,85.76904300000024,14.358886999999413,54.87158199999976
130,68.0771479999994,71.79492200000004,110.25634799999989,123.9741210000002,87.69238299999961,112.17968800000017,103.0771479999994,92.43603499999972,72.56396500000028,74.23095699999976,34.48730499999965,84.48730499999965,19.871581999999762,60.0
131,69.10253900000043,77.94873000000007,113.0771479999994,133.0771479999994,94.87158199999976,113.20507799999996,108.46142599999985,95.89746099999957,72.69238299999961,73.9741210000002,38.7177729999994,84.35888699999941,24.102539000000434,64.48730499999965
132,68.7177729999994,84.23095699999976,111.53857400000015,137.6923829999996,101.6665039999998,115.0,111.2822270000006,98.84619099999964,73.84619099999964,72.82031300000017,38.46142599999985,85.89746099999957,23.846190999999635,64.87158199999976
133,67.05126999999993,86.6665039999998,107.94873000000007,135.89746099999957,105.12841800000024,116.2822270000006,109.48730499999965,99.35888699999941,74.87158199999976,71.79492200000004,33.20507799999996,87.69238299999961,19.230956999999762,61.025878999999804
134,65.64111300000059,83.7177729999994,106.53857400000015,130.2563479999999,105.38476599999922,116.2822270000006,105.0,97.94873000000007,75.76904300000024,71.53857400000015,25.897460999999566,88.20507799999996,12.948730000000069,55.76904300000024
135,65.51269500000035,78.20507799999996,109.23095699999976,125.89746099999957,103.7177729999994,115.38476599999922,101.79492200000004,96.53857400000015,77.17968800000017,72.94873000000007,20.897460999999566,86.9228520000006,8.333496000000196,52.56396500000028
136,67.05126999999993,73.9741210000002,113.58984400000008,126.15380900000036,101.53857400000015,114.48730499999965,102.30761700000039,96.2822270000006,79.23095699999976,76.6665039999998,21.025878999999804,84.87158199999976,7.179688000000169,52.82031300000017
137,69.61523400000078,73.9741210000002,116.15380900000036,130.76904300000024,99.23095699999976,114.48730499999965,106.2822270000006,97.17968800000017,82.05126999999993,82.43603499999972,26.153809000000365,84.23095699999976,9.487304999999651,56.410155999999915
138,72.94873000000007,77.94873000000007,116.0258789999998,137.05126999999993,97.30761700000039,115.76904300000024,111.9228520000006,98.46142599999985,85.38476599999922,89.10253900000043,33.846190999999635,86.41015599999992,14.871581999999762,62.17968800000017
139,77.05126999999993,83.3334960000002,115.51269500000035,142.82031300000017,97.94873000000007,117.43603499999972,116.6665039999998,100.64111300000059,89.10253900000043,95.25634799999989,41.9228520000006,91.15380900000036,22.82031300000017,68.58984400000008
140,81.79492200000004,88.3334960000002,117.56396500000028,147.17968800000017,102.69238299999961,118.46142599999985,119.35888699999941,104.74365200000011,93.0771479999994,99.61523400000078,49.35888699999941,97.17968800000017,32.82031300000017,74.61523400000078
141,86.53857400000015,92.05126999999993,123.3334960000002,150.12841800000024,111.15380900000036,118.3334960000002,119.61523400000078,110.51269500000035,97.30761700000039,101.6665039999998,56.153809000000365,101.9228520000006,43.20507799999996,79.87158199999976
142,90.0,94.87158199999976,130.2563479999999,151.41015599999992,119.48730499999965,117.56396500000028,117.94873000000007,115.76904300000024,100.89746099999957,101.53857400000015,61.79492200000004,103.7177729999994,51.53857400000015,84.23095699999976
143,91.0258789999998,96.0258789999998,134.10253900000043,149.7436520000001,123.46142599999985,116.6665039999998,115.64111300000059,117.69238299999961,103.46142599999985,100.64111300000059,65.0,102.43603499999972,55.25634799999989,86.2822270000006
144,89.23095699999976,94.74365200000011,131.9228520000006,144.3588869999994,120.51269500000035,115.51269500000035,113.84619099999964,114.48730499999965,104.23095699999976,100.51269500000035,64.23095699999976,99.74365200000011,53.46142599999985,84.87158199999976
145,85.64111300000059,91.0258789999998,124.48730499999965,137.17968800000017,111.79492200000004,114.87158199999976,112.94873000000007,108.46142599999985,103.3334960000002,101.6665039999998,59.61523400000078,97.30761700000039,47.82031300000017,79.87158199999976
146,82.30761700000039,85.89746099999957,116.79492200000004,131.41015599999992,101.79492200000004,114.87158199999976,112.82031300000017,103.7177729999994,101.2822270000006,102.69238299999961,53.589844000000085,95.64111300000059,41.153809000000365,73.20507799999996
147,81.0258789999998,81.41015599999992,113.7177729999994,129.61523400000078,96.0258789999998,115.64111300000059,112.82031300000017,103.0771479999994,99.61523400000078,102.17968800000017,49.74365200000011,95.12841800000024,36.79492200000004,68.3334960000002
148,82.30761700000039,79.87158199999976,116.53857400000015,131.53857400000015,97.43603499999972,116.9228520000006,112.82031300000017,106.6665039999998,99.23095699999976,100.0,51.2822270000006,96.15380900000036,36.79492200000004,67.94873000000007
149,86.0258789999998,82.69238299999961,122.82031300000017,135.89746099999957,104.61523400000078,117.43603499999972,112.82031300000017,112.43603499999972,100.76904300000024,98.3334960000002,58.46142599999985,98.58984400000008,41.9228520000006,73.3334960000002
150,91.53857400000015,89.35888699999941,129.23095699999976,141.9228520000006,112.69238299999961,117.05126999999993,113.20507799999996,117.82031300000017,104.35888699999941,99.10253900000043,68.9741210000002,102.17968800000017,51.025878999999804,83.20507799999996
151,97.94873000000007,97.69238299999961,134.23095699999976,148.9741210000002,116.6665039999998,116.15380900000036,114.35888699999941,121.15380900000036,110.25634799999989,102.94873000000007,78.3334960000002,105.64111300000059,61.410155999999915,93.9741210000002
152,103.7177729999994,104.35888699999941,137.17968800000017,155.6411130000006,114.74365200000011,115.38476599999922,116.41015599999992,121.9228520000006,117.05126999999993,108.84619099999964,83.20507799999996,107.69238299999961,69.61523400000078,101.53857400000015
153,106.41015599999992,106.41015599999992,137.56396500000028,160.12841800000024,110.25634799999989,115.12841800000024,118.7177729999994,121.41015599999992,122.05126999999993,114.35888699999941,82.94873000000007,107.69238299999961,73.46142599999985,103.3334960000002
154,104.87158199999976,102.30761700000039,134.87158199999976,160.51269500000035,108.46142599999985,115.0,120.25634799999989,120.51269500000035,122.30761700000039,117.69238299999961,79.10253900000043,105.64111300000059,71.6665039999998,99.23095699999976
155,100.25634799999989,93.46142599999985,129.7436520000001,157.3076170000004,110.64111300000059,114.74365200000011,119.23095699999976,119.10253900000043,117.30761700000039,117.94873000000007,73.9741210000002,102.69238299999961,64.87158199999976,91.6665039999998
156,95.25634799999989,83.9741210000002,123.7177729999994,152.94873000000007,114.74365200000011,114.74365200000011,115.51269500000035,116.9228520000006,109.61523400000078,116.53857400000015,69.23095699999976,99.48730499999965,55.25634799999989,83.7177729999994
157,91.53857400000015,77.43603499999972,118.9741210000002,150.0,117.43603499999972,115.25634799999989,110.25634799999989,113.7177729999994,103.0771479999994,115.25634799999989,65.89746099999957,96.79492200000004,46.53857400000015,77.94873000000007
158,88.46142599999985,74.35888699999941,116.53857400000015,149.7436520000001,116.6665039999998,115.38476599999922,105.51269500000035,110.38476599999922,100.12841800000024,115.12841800000024,63.46142599999985,94.10253900000043,42.30761700000039,75.0
159,84.35888699999941,72.30761700000039,115.64111300000059,150.2563479999999,112.43603499999972,113.9741210000002,102.17968800000017,107.30761700000039,100.0,114.10253900000043,61.025878999999804,91.9228520000006,42.56396500000028,73.46142599999985
160,78.84619099999964,69.35888699999941,114.74365200000011,149.3588869999994,106.53857400000015,111.15380900000036,100.0,104.35888699999941,100.25634799999989,109.10253900000043,57.69238299999961,90.64111300000059,43.846190999999635,71.41015599999992
161,73.46142599999985,66.41015599999992,113.7177729999994,146.15380900000036,101.6665039999998,107.82031300000017,98.46142599999985,101.0258789999998,99.48730499999965,99.48730499999965,53.846190999999635,90.38476599999922,41.79492200000004,68.7177729999994
162,70.51269500000035,66.15380900000036,113.3334960000002,142.82031300000017,100.12841800000024,105.25634799999989,97.82031300000017,97.56396500000028,97.94873000000007,88.7177729999994,50.64111300000059,90.38476599999922,34.87158199999976,66.9228520000006
163,72.05126999999993,69.74365200000011,114.10253900000043,142.56396500000028,102.05126999999993,104.48730499999965,99.10253900000043,95.89746099999957,97.05126999999993,82.56396500000028,49.102539000000434,89.35888699999941,24.74365200000011,67.69238299999961
164,77.56396500000028,76.2822270000006,115.76904300000024,147.05126999999993,106.6665039999998,106.53857400000015,102.17968800000017,97.17968800000017,97.17968800000017,84.61523400000078,50.0,88.20507799999996,15.897460999999566,71.9228520000006
165,85.0,83.0771479999994,117.56396500000028,155.38476599999922,112.05126999999993,111.41015599999992,106.2822270000006,100.89746099999957,98.58984400000008,92.82031300000017,52.69238299999961,88.46142599999985,12.17968800000017,78.20507799999996
166,90.76904300000024,88.20507799999996,118.9741210000002,163.9741210000002,117.05126999999993,116.53857400000015,109.87158199999976,105.38476599999922,100.64111300000059,100.89746099999957,56.025878999999804,90.89746099999957,14.358886999999413,84.35888699999941
167,92.43603499999972,90.38476599999922,119.61523400000078,168.84619099999964,120.38476599999922,118.9741210000002,111.6665039999998,108.46142599999985,102.43603499999972,103.3334960000002,58.333496000000196,94.48730499999965,19.48730499999965,87.94873000000007
168,89.23095699999976,88.84619099999964,118.84619099999964,167.94873000000007,119.61523400000078,117.05126999999993,110.89746099999957,108.58984400000008,102.69238299999961,99.35888699999941,57.94873000000007,96.53857400000015,22.69238299999961,87.82031300000017
169,82.94873000000007,83.9741210000002,117.17968800000017,163.20507799999996,113.7177729999994,112.43603499999972,108.0771479999994,105.38476599999922,101.41015599999992,93.46142599999985,54.87158199999976,95.64111300000059,21.538574000000153,84.61523400000078
170,77.30761700000039,77.05126999999993,115.64111300000059,158.46142599999985,106.0258789999998,109.10253900000043,104.35888699999941,100.89746099999957,100.0,91.53857400000015,51.153809000000365,92.43603499999972,17.82031300000017,80.89746099999957
171,75.51269500000035,71.6665039999998,115.38476599999922,157.43603499999972,102.82031300000017,109.10253900000043,101.9228520000006,98.20507799999996,100.76904300000024,96.9228520000006,50.0,89.87158199999976,16.282227000000603,79.74365200000011
172,78.3334960000002,71.53857400000015,116.53857400000015,160.51269500000035,107.69238299999961,111.41015599999992,101.6665039999998,99.35888699999941,103.84619099999964,108.20507799999996,53.589844000000085,90.12841800000024,21.153809000000365,82.30761700000039
173,83.46142599999985,77.30761700000039,118.3334960000002,164.61523400000078,117.30761700000039,112.82031300000017,103.20507799999996,103.3334960000002,107.69238299999961,120.12841800000024,60.38476599999922,93.20507799999996,30.897460999999566,86.9228520000006
174,87.43603499999972,85.0,119.87158199999976,165.51269500000035,123.7177729999994,110.76904300000024,104.74365200000011,105.64111300000059,109.48730499999965,126.6665039999998,65.89746099999957,96.0258789999998,39.87158199999976,90.12841800000024
175,87.56396500000028,88.84619099999964,120.51269500000035,161.41015599999992,121.41015599999992,106.15380900000036,104.87158199999976,102.94873000000007,107.94873000000007,124.10253900000043,66.6665039999998,95.51269500000035,42.82031300000017,89.61523400000078
176,83.3334960000002,85.76904300000024,119.87158199999976,153.9741210000002,112.17968800000017,102.17968800000017,103.58984400000008,95.89746099999957,103.84619099999964,113.58984400000008,62.69238299999961,91.0258789999998,39.35888699999941,86.2822270000006
177,77.30761700000039,78.58984400000008,117.82031300000017,147.05126999999993,103.9741210000002,102.05126999999993,101.9228520000006,89.10253900000043,99.87158199999976,100.89746099999957,56.79492200000004,85.64111300000059,33.589844000000085,83.0771479999994
178,72.69238299999961,72.94873000000007,115.51269500000035,143.46142599999985,103.3334960000002,106.41015599999992,101.2822270000006,86.79492200000004,98.20507799999996,91.6665039999998,52.56396500000028,83.0771479999994,29.358886999999413,82.30761700000039
179,71.6665039999998,73.20507799999996,113.9741210000002,143.0771479999994,110.12841800000024,112.94873000000007,101.41015599999992,90.12841800000024,98.9741210000002,88.9741210000002,51.666503999999804,85.12841800000024,27.82031300000017,83.58984400000008
180,73.20507799999996,78.84619099999964,113.3334960000002,143.58984400000008,118.9741210000002,118.3334960000002,101.6665039999998,96.0258789999998,100.12841800000024,91.6665039999998,53.333496000000196,89.87158199999976,27.56396500000028,85.25634799999989
181,74.48730499999965,84.74365200000011,113.46142599999985,142.3076170000004,123.58984400000008,120.12841800000024,101.2822270000006,100.0,99.87158199999976,97.05126999999993,55.64111300000059,93.7177729999994,27.30761700000039,85.38476599999922
182,73.3334960000002,84.87158199999976,113.58984400000008,138.3334960000002,122.30761700000039,118.3334960000002,100.64111300000059,99.10253900000043,97.82031300000017,102.05126999999993,56.79492200000004,94.35888699999941,27.43603499999972,84.35888699999941
183,70.51269500000035,78.58984400000008,113.7177729999994,132.56396500000028,118.0771479999994,115.51269500000035,100.64111300000059,94.23095699999976,95.51269500000035,104.87158199999976,56.9228520000006,92.17968800000017,29.358886999999413,83.0771479999994
184,68.7177729999994,70.51269500000035,113.84619099999964,127.69238299999961,114.87158199999976,113.9741210000002,101.79492200000004,88.9741210000002,95.25634799999989,104.61523400000078,56.53857400000015,89.35888699999941,33.46142599999985,82.30761700000039
185,69.61523400000078,66.15380900000036,114.35888699999941,125.25634799999989,113.9741210000002,114.35888699999941,103.3334960000002,86.6665039999998,97.43603499999972,101.9228520000006,56.153809000000365,87.30761700000039,38.589844000000085,82.17968800000017
186,72.17968800000017,67.69238299999961,114.87158199999976,124.61523400000078,113.46142599999985,115.51269500000035,104.23095699999976,88.46142599999985,100.12841800000024,98.3334960000002,55.51269500000035,86.6665039999998,41.9228520000006,82.05126999999993
187,74.87158199999976,72.69238299999961,115.25634799999989,123.7177729999994,111.79492200000004,116.6665039999998,104.61523400000078,92.94873000000007,100.76904300000024,96.2822270000006,54.87158199999976,87.17968800000017,42.17968800000017,82.17968800000017
188,76.15380900000036,76.9228520000006,115.51269500000035,121.15380900000036,109.48730499999965,117.43603499999972,104.74365200000011,97.82031300000017,98.58984400000008,96.41015599999992,54.87158199999976,88.7177729999994,40.25634799999989,83.0771479999994
189,75.12841800000024,76.9228520000006,115.64111300000059,116.9228520000006,107.69238299999961,117.56396500000028,105.12841800000024,100.38476599999922,95.76904300000024,97.05126999999993,55.76904300000024,89.87158199999976,38.0771479999994,84.23095699999976
190,71.79492200000004,72.82031300000017,115.12841800000024,112.30761700000039,107.30761700000039,115.64111300000059,104.87158199999976,99.35888699999941,94.23095699999976,95.64111300000059,56.9228520000006,89.35888699999941,36.2822270000006,84.23095699999976
191,66.9228520000006,67.30761700000039,112.94873000000007,108.84619099999964,107.82031300000017,111.53857400000015,102.94873000000007,95.76904300000024,94.10253900000043,92.17968800000017,57.30761700000039,86.79492200000004,34.61523400000078,82.05126999999993
192,63.20507799999996,64.10253900000043,109.74365200000011,108.0771479999994,109.23095699999976,107.17968800000017,99.61523400000078,92.69238299999961,94.74365200000011,88.9741210000002,57.05126999999993,83.84619099999964,33.333496000000196,78.3334960000002
193,63.46142599999985,65.51269500000035,107.56396500000028,110.51269500000035,111.9228520000006,105.76904300000024,97.30761700000039,93.20507799999996,96.2822270000006,89.61523400000078,57.82031300000017,83.0771479999994,34.23095699999976,76.2822270000006
194,68.9741210000002,71.41015599999992,109.48730499999965,115.76904300000024,116.53857400000015,108.7177729999994,99.10253900000043,98.46142599999985,99.23095699999976,95.51269500000035,61.53857400000015,86.0258789999998,39.23095699999976,79.23095699999976
195,77.56396500000028,80.12841800000024,115.89746099999957,121.0258789999998,121.53857400000015,114.23095699999976,105.12841800000024,106.0258789999998,103.9741210000002,105.12841800000024,68.0771479999994,91.79492200000004,47.05126999999993,87.94873000000007
196,85.25634799999989,88.3334960000002,123.84619099999964,122.94873000000007,123.9741210000002,118.84619099999964,111.6665039999998,111.53857400000015,109.48730499999965,114.23095699999976,75.0,97.43603499999972,54.102539000000434,98.58984400000008
197,88.20507799999996,92.69238299999961,129.23095699999976,119.48730499999965,121.2822270000006,120.25634799999989,114.10253900000043,111.9228520000006,113.3334960000002,119.35888699999941,79.35888699999941,100.12841800000024,56.025878999999804,105.38476599999922
198,85.12841800000024,90.76904300000024,129.3588869999994,111.9228520000006,114.74365200000011,118.20507799999996,110.89746099999957,107.82031300000017,113.7177729999994,118.7177729999994,79.23095699999976,99.23095699999976,51.79492200000004,104.23095699999976
199,78.0771479999994,83.58984400000008,124.87158199999976,104.23095699999976,108.58984400000008,115.0,104.48730499999965,102.94873000000007,110.38476599999922,113.58984400000008,75.51269500000035,96.2822270000006,44.35888699999941,96.0258789999998
200,70.76904300000024,75.0,118.7177729999994,100.12841800000024,106.6665039999998,113.3334960000002,99.87158199999976,101.2822270000006,105.12841800000024,106.53857400000015,70.51269500000035,93.84619099999964,38.333496000000196,85.76904300000024
201,66.53857400000015,69.35888699999941,114.35888699999941,99.87158199999976,109.74365200000011,113.84619099999964,100.64111300000059,103.46142599999985,101.15380900000036,100.89746099999957,66.41015599999992,93.3334960000002,36.666503999999804,78.84619099999964
202,66.53857400000015,69.10253900000043,113.84619099999964,101.6665039999998,115.12841800000024,115.51269500000035,106.41015599999992,106.79492200000004,100.25634799999989,98.3334960000002,63.846190999999635,94.87158199999976,38.846190999999635,78.46142599999985
203,69.74365200000011,73.3334960000002,116.53857400000015,102.69238299999961,118.3334960000002,116.15380900000036,113.46142599999985,108.20507799999996,102.82031300000017,99.10253900000043,61.9228520000006,96.53857400000015,41.9228520000006,83.7177729999994
204,73.20507799999996,77.82031300000017,119.35888699999941,101.9228520000006,116.2822270000006,115.12841800000024,116.9228520000006,106.79492200000004,106.0258789999998,101.2822270000006,59.74365200000011,96.0258789999998,42.69238299999961,90.38476599999922
205,73.84619099999964,78.3334960000002,119.10253900000043,99.74365200000011,109.61523400000078,113.3334960000002,113.84619099999964,102.82031300000017,106.6665039999998,101.79492200000004,56.666503999999804,92.43603499999972,39.74365200000011,93.58984400000008
206,70.25634799999989,73.46142599999985,115.38476599999922,97.17968800000017,102.05126999999993,112.56396500000028,106.2822270000006,98.0771479999994,102.82031300000017,99.61523400000078,53.974121000000196,87.43603499999972,34.87158199999976,91.2822270000006
207,64.48730499999965,66.9228520000006,111.41015599999992,95.38476599999922,98.0771479999994,113.20507799999996,98.9741210000002,94.48730499999965,96.2822270000006,96.0258789999998,53.20507799999996,84.48730499999965,31.153809000000365,85.38476599999922
208,60.51269500000035,64.61523400000078,111.53857400000015,95.51269500000035,99.74365200000011,114.23095699999976,96.53857400000015,93.46142599999985,91.6665039999998,94.10253900000043,55.51269500000035,85.64111300000059,31.538574000000153,81.0258789999998
209,62.43603499999972,71.0258789999998,118.0771479999994,98.3334960000002,105.76904300000024,114.48730499999965,99.48730499999965,95.38476599999922,93.3334960000002,96.41015599999992,60.64111300000059,90.38476599999922,37.43603499999972,82.56396500000028
210,70.89746099999957,85.64111300000059,129.10253900000043,103.84619099999964,114.35888699999941,114.48730499999965,105.89746099999957,99.74365200000011,102.43603499999972,103.84619099999964,67.56396500000028,96.53857400000015,48.0771479999994,91.41015599999992
211,83.7177729999994,103.46142599999985,139.87158199999976,111.41015599999992,124.87158199999976,115.25634799999989,113.20507799999996,106.15380900000036,116.0258789999998,116.0258789999998,75.89746099999957,101.41015599999992,61.153809000000365,104.74365200000011
212,96.2822270000006,117.05126999999993,145.76904300000024,120.0,136.0258789999998,116.9228520000006,119.61523400000078,113.0771479999994,128.84619099999964,129.61523400000078,84.10253900000043,104.10253900000043,73.3334960000002,116.9228520000006
213,103.9741210000002,120.76904300000024,145.12841800000024,127.05126999999993,145.76904300000024,118.7177729999994,123.84619099999964,118.58984400000008,135.6411130000006,139.3588869999994,89.35888699999941,104.35888699999941,81.15380900000036,123.0771479999994
214,105.38476599999922,114.87158199999976,139.7436520000001,130.0,150.76904300000024,119.10253900000043,125.38476599999922,121.15380900000036,134.10253900000043,140.6411130000006,88.9741210000002,103.20507799999996,82.17968800000017,121.9228520000006
215,102.82031300000017,106.41015599999992,133.7177729999994,128.3334960000002,149.48730499999965,117.82031300000017,124.35888699999941,121.15380900000036,127.05126999999993,133.9741210000002,83.84619099999964,101.79492200000004,78.0771479999994,116.41015599999992
216,100.25634799999989,103.0771479999994,131.53857400000015,123.58984400000008,142.82031300000017,115.76904300000024,122.43603499999972,120.12841800000024,120.12841800000024,124.87158199999976,77.56396500000028,101.2822270000006,72.94873000000007,111.2822270000006
217,100.0,107.05126999999993,134.61523400000078,118.7177729999994,133.84619099999964,113.9741210000002,121.15380900000036,119.74365200000011,117.56396500000028,119.48730499999965,73.84619099999964,101.53857400000015,70.51269500000035,110.25634799999989
218,101.53857400000015,113.58984400000008,139.48730499999965,115.64111300000059,126.6665039999998,113.20507799999996,121.15380900000036,119.23095699999976,119.35888699999941,120.38476599999922,73.7177729999994,102.05126999999993,71.0258789999998,113.46142599999985
219,103.46142599999985,116.9228520000006,141.9228520000006,114.74365200000011,125.64111300000059,113.7177729999994,121.53857400000015,118.20507799999996,122.56396500000028,124.61523400000078,75.51269500000035,102.17968800000017,72.43603499999972,117.82031300000017
220,104.48730499999965,114.87158199999976,140.0,116.0258789999998,132.05126999999993,115.25634799999989,121.15380900000036,116.9228520000006,123.7177729999994,127.17968800000017,76.9228520000006,101.6665039999998,72.56396500000028,120.25634799999989
221,104.74365200000011,110.12841800000024,135.89746099999957,118.58984400000008,142.82031300000017,116.53857400000015,120.0,115.89746099999957,121.9228520000006,125.25634799999989,76.6665039999998,101.0258789999998,71.6665039999998,118.7177729999994
222,103.84619099999964,106.6665039999998,133.0771479999994,120.51269500000035,151.0258789999998,116.53857400000015,118.7177729999994,115.38476599999922,118.0771479999994,118.9741210000002,74.35888699999941,101.0258789999998,70.0,114.48730499999965
223,102.05126999999993,106.41015599999992,133.58984400000008,119.74365200000011,151.0258789999998,115.51269500000035,117.82031300000017,114.61523400000078,113.9741210000002,111.9228520000006,71.15380900000036,101.2822270000006,68.0771479999994,110.12841800000024
224,100.76904300000024,108.0771479999994,136.9228520000006,115.76904300000024,143.20507799999996,114.74365200000011,117.30761700000039,112.82031300000017,111.53857400000015,108.0771479999994,69.10253900000043,101.15380900000036,66.6665039999998,108.46142599999985
225,101.79492200000004,109.35888699999941,141.2822270000006,110.89746099999957,134.3588869999994,115.0,117.43603499999972,110.64111300000059,112.17968800000017,109.74365200000011,69.23095699999976,100.76904300000024,66.79492200000004,110.38476599999922
226,105.38476599999922,108.84619099999964,144.61523400000078,107.69238299999961,130.51269500000035,115.89746099999957,118.7177729999994,108.58984400000008,114.87158199999976,116.0258789999998,70.64111300000059,101.0258789999998,68.84619099999964,114.61523400000078
227,109.35888699999941,106.15380900000036,145.38476599999922,106.15380900000036,131.41015599999992,116.0258789999998,120.38476599999922,106.79492200000004,116.53857400000015,122.43603499999972,71.15380900000036,101.79492200000004,71.15380900000036,117.94873000000007
228,110.0,102.05126999999993,142.3076170000004,103.7177729999994,131.53857400000015,114.61523400000078,120.38476599999922,104.61523400000078,114.35888699999941,123.7177729999994,68.9741210000002,102.30761700000039,70.89746099999957,116.41015599999992
229,105.12841800000024,97.69238299999961,136.2822270000006,98.84619099999964,127.05126999999993,112.30761700000039,117.94873000000007,101.53857400000015,108.58984400000008,117.94873000000007,64.23095699999976,101.6665039999998,67.05126999999993,109.10253900000043
230,97.05126999999993,95.25634799999989,130.51269500000035,93.20507799999996,120.0,110.64111300000059,114.35888699999941,98.9741210000002,102.56396500000028,109.87158199999976,60.12841800000024,100.0,61.53857400000015,99.87158199999976
231,91.53857400000015,96.6665039999998,129.10253900000043,91.0258789999998,117.69238299999961,110.89746099999957,112.69238299999961,99.74365200000011,101.0258789999998,107.17968800000017,60.64111300000059,99.23095699999976,58.974121000000196,95.76904300000024
232,93.3334960000002,102.17968800000017,133.9741210000002,95.12841800000024,125.25634799999989,112.94873000000007,115.0,105.64111300000059,105.76904300000024,114.10253900000043,67.69238299999961,100.51269500000035,62.94873000000007,101.2822270000006
233,102.82031300000017,109.48730499999965,141.9228520000006,103.84619099999964,140.76904300000024,115.38476599999922,119.87158199999976,114.48730499999965,114.10253900000043,126.53857400000015,79.23095699999976,103.3334960000002,72.69238299999961,113.9741210000002
234,114.23095699999976,115.51269500000035,148.0771479999994,111.53857400000015,155.76904300000024,116.9228520000006,125.12841800000024,121.79492200000004,120.38476599999922,135.89746099999957,90.25634799999989,105.64111300000059,83.0771479999994,126.41015599999992
235,121.15380900000036,118.0771479999994,149.23095699999976,113.7177729999994,161.2822270000006,116.79492200000004,128.58984400000008,123.58984400000008,121.0258789999998,136.2822270000006,96.53857400000015,105.64111300000059,89.23095699999976,131.15380900000036
236,121.15380900000036,117.43603499999972,146.53857400000015,110.38476599999922,156.15380900000036,115.76904300000024,130.38476599999922,120.64111300000059,117.69238299999961,129.10253900000043,96.6665039999998,103.84619099999964,89.74365200000011,127.43603499999972
237,117.56396500000028,116.2822270000006,143.58984400000008,105.64111300000059,146.9228520000006,115.25634799999989,131.6665039999998,117.30761700000039,115.51269500000035,121.41015599999992,93.0771479999994,102.05126999999993,87.43603499999972,120.64111300000059
238,115.89746099999957,117.17968800000017,143.20507799999996,103.58984400000008,142.56396500000028,115.89746099999957,132.82031300000017,117.94873000000007,118.46142599999985,119.61523400000078,89.74365200000011,101.53857400000015,86.2822270000006,117.17968800000017
239,118.0771479999994,120.25634799999989,145.12841800000024,104.87158199999976,145.89746099999957,117.17968800000017,132.82031300000017,122.82031300000017,125.12841800000024,124.23095699999976,88.58984400000008,102.43603499999972,87.56396500000028,118.84619099999964
240,120.64111300000059,122.30761700000039,146.41015599999992,105.89746099999957,151.9228520000006,117.94873000000007,129.87158199999976,126.79492200000004,128.9741210000002,129.7436520000001,87.82031300000017,103.20507799999996,88.7177729999994,121.6665039999998
241,117.69238299999961,118.84619099999964,143.3334960000002,101.9228520000006,152.43603499999972,117.30761700000039,123.3334960000002,124.10253900000043,124.10253900000043,128.9741210000002,83.7177729999994,102.43603499999972,86.15380900000036,120.0
242,108.20507799999996,109.48730499999965,135.76904300000024,91.79492200000004,144.23095699999976,115.38476599999922,114.87158199999976,113.58984400000008,110.51269500000035,120.0,75.12841800000024,99.35888699999941,78.9741210000002,111.9228520000006
243,97.69238299999961,99.87158199999976,127.30761700000039,80.51269500000035,132.3076170000004,113.0771479999994,108.46142599999985,101.2822270000006,96.79492200000004,108.84619099999964,65.51269500000035,95.25634799999989,71.53857400000015,101.53857400000015
244,94.10253900000043,97.69238299999961,123.58984400000008,75.64111300000059,125.25634799999989,111.79492200000004,107.69238299999961,95.25634799999989,93.20507799999996,105.64111300000059,61.53857400000015,92.94873000000007,70.38476599999922,96.0258789999998
245,100.51269500000035,105.25634799999989,127.05126999999993,80.12841800000024,126.53857400000015,111.9228520000006,113.20507799999996,99.23095699999976,102.69238299999961,115.12841800000024,66.79492200000004,94.74365200000011,78.46142599999985,99.87158199999976
246,112.17968800000017,116.9228520000006,134.10253900000043,89.23095699999976,131.9228520000006,113.0771479999994,121.0258789999998,109.23095699999976,118.0771479999994,131.0258789999998,77.56396500000028,99.87158199999976,91.2822270000006,110.64111300000059
247,120.0,123.46142599999985,138.0771479999994,94.23095699999976,134.61523400000078,114.35888699999941,125.25634799999989,116.79492200000004,127.30761700000039,140.51269500000035,85.38476599999922,104.10253900000043,100.25634799999989,120.76904300000024
248,117.94873000000007,120.25634799999989,135.38476599999922,90.38476599999922,131.79492200000004,115.0,122.82031300000017,115.76904300000024,123.58984400000008,134.7436520000001,83.46142599999985,103.84619099999964,100.12841800000024,123.3334960000002
249,107.94873000000007,110.76904300000024,128.20507799999996,79.74365200000011,127.17968800000017,114.87158199999976,116.15380900000036,107.43603499999972,110.38476599999922,116.79492200000004,71.9228520000006,98.7177729999994,93.3334960000002,117.05126999999993
250,97.94873000000007,103.7177729999994,122.17968800000017,69.48730499999965,125.76904300000024,113.9741210000002,111.15380900000036,98.3334960000002,98.46142599999985,99.35888699999941,58.333496000000196,92.17968800000017,86.9228520000006,107.43603499999972
251,95.89746099999957,104.23095699999976,121.6665039999998,65.64111300000059,128.58984400000008,113.0771479999994,112.17968800000017,96.15380900000036,97.30761700000039,94.74365200000011,51.9228520000006,88.46142599999985,86.6665039999998,101.41015599999992
252,102.94873000000007,110.12841800000024,126.0258789999998,68.3334960000002,131.41015599999992,112.94873000000007,117.94873000000007,102.43603499999972,107.05126999999993,104.48730499999965,55.897460999999566,89.23095699999976,92.05126999999993,101.15380900000036
253,113.0771479999994,114.23095699999976,130.89746099999957,72.17968800000017,128.84619099999964,113.84619099999964,123.58984400000008,112.05126999999993,118.9741210000002,118.84619099999964,65.51269500000035,93.0771479999994,97.43603499999972,103.20507799999996
254,117.94873000000007,110.89746099999957,131.9228520000006,72.05126999999993,119.48730499999965,115.38476599999922,124.74365200000011,118.3334960000002,123.0771479999994,125.76904300000024,73.20507799999996,96.79492200000004,97.30761700000039,102.82031300000017
255,115.25634799999989,102.17968800000017,128.84619099999964,68.0771479999994,109.35888699999941,116.0258789999998,121.53857400000015,118.20507799999996,117.17968800000017,121.6665039999998,75.51269500000035,98.0771479999994,91.41015599999992,99.48730499999965
256,109.48730499999965,96.15380900000036,125.51269500000035,64.23095699999976,107.56396500000028,115.12841800000024,118.3334960000002,114.74365200000011,108.20507799999996,113.0771479999994,74.87158199999976,98.0771479999994,85.51269500000035,97.30761700000039
257,107.82031300000017,99.10253900000043,126.53857400000015,65.25634799999989,118.3334960000002,113.46142599999985,119.35888699999941,113.20507799999996,105.12841800000024,109.35888699999941,75.51269500000035,98.7177729999994,85.76904300000024,99.87158199999976
258,112.94873000000007,109.74365200000011,132.43603499999972,71.15380900000036,135.12841800000024,112.69238299999961,124.74365200000011,115.51269500000035,110.38476599999922,113.58984400000008,78.84619099999964,100.89746099999957,92.43603499999972,106.9228520000006
259,120.89746099999957,119.61523400000078,138.46142599999985,78.3334960000002,145.51269500000035,113.84619099999964,130.2563479999999,118.7177729999994,118.46142599999985,121.0258789999998,82.17968800000017,103.0771479999994,100.38476599999922,113.58984400000008
260,125.64111300000059,121.15380900000036,139.48730499999965,81.6665039999998,140.6411130000006,115.64111300000059,130.76904300000024,117.94873000000007,121.15380900000036,123.7177729999994,81.2822270000006,103.0771479999994,103.58984400000008,114.74365200000011
261,124.10253900000043,113.3334960000002,133.84619099999964,78.9741210000002,123.46142599999985,116.0258789999998,124.48730499999965,111.53857400000015,114.74365200000011,117.17968800000017,75.38476599999922,99.87158199999976,99.74365200000011,109.10253900000043
262,118.9741210000002,102.30761700000039,125.38476599999922,72.82031300000017,105.38476599999922,114.48730499999965,114.87158199999976,102.43603499999972,102.43603499999972,104.61523400000078,67.94873000000007,95.12841800000024,92.56396500000028,100.89746099999957
263,114.74365200000011,95.25634799999989,119.61523400000078,68.20507799999996,97.17968800000017,111.9228520000006,107.94873000000007,95.51269500000035,91.53857400000015,93.9741210000002,63.589844000000085,91.79492200000004,88.3334960000002,95.89746099999957
264,113.58984400000008,95.38476599999922,119.61523400000078,67.82031300000017,101.2822270000006,110.51269500000035,107.43603499999972,93.7177729999994,88.46142599999985,92.05126999999993,64.23095699999976,92.17968800000017,89.87158199999976,97.17968800000017
265,115.25634799999989,100.0,123.58984400000008,71.0258789999998,111.9228520000006,110.76904300000024,112.30761700000039,96.6665039999998,93.7177729999994,98.7177729999994,68.0771479999994,95.89746099999957,95.51269500000035,102.05126999999993
266,117.43603499999972,104.87158199999976,127.17968800000017,74.23095699999976,120.12841800000024,111.6665039999998,117.82031300000017,101.9228520000006,103.20507799999996,108.46142599999985,71.53857400000015,100.0,100.64111300000059,105.0
267,119.10253900000043,107.17968800000017,127.56396500000028,75.12841800000024,121.53857400000015,111.79492200000004,120.12841800000024,106.15380900000036,111.6665039999998,115.25634799999989,72.43603499999972,101.79492200000004,102.43603499999972,102.69238299999961
268,120.76904300000024,108.20507799999996,125.64111300000059,74.35888699999941,118.3334960000002,110.51269500000035,118.9741210000002,107.56396500000028,116.0258789999998,117.69238299999961,72.05126999999993,100.76904300000024,102.05126999999993,97.43603499999972
269,123.58984400000008,109.61523400000078,124.61523400000078,74.48730499999965,116.79492200000004,109.23095699999976,117.05126999999993,106.9228520000006,116.2822270000006,117.43603499999972,72.69238299999961,99.48730499999965,102.56396500000028,94.87158199999976
270,128.20507799999996,112.69238299999961,127.05126999999993,77.56396500000028,121.15380900000036,109.61523400000078,116.9228520000006,106.0258789999998,114.74365200000011,116.9228520000006,75.64111300000059,99.61523400000078,106.0258789999998,98.9741210000002
271,133.0771479999994,116.41015599999992,131.9228520000006,82.94873000000007,130.12841800000024,112.30761700000039,118.46142599999985,106.53857400000015,113.7177729999994,117.17968800000017,79.61523400000078,101.2822270000006,111.79492200000004,108.46142599999985
272,136.2822270000006,119.48730499999965,136.41015599999992,88.20507799999996,137.6923829999996,116.0258789999998,119.87158199999976,108.3334960000002,114.48730499999965,119.10253900000043,83.20507799999996,103.0771479999994,117.56396500000028,118.84619099999964
273,137.05126999999993,121.0258789999998,137.82031300000017,90.38476599999922,138.9741210000002,118.58984400000008,119.61523400000078,110.25634799999989,117.05126999999993,122.17968800000017,85.89746099999957,104.35888699999941,121.41015599999992,125.25634799999989
274,136.0258789999998,120.51269500000035,135.76904300000024,87.82031300000017,133.3334960000002,118.58984400000008,118.3334960000002,111.2822270000006,119.35888699999941,124.87158199999976,87.94873000000007,104.74365200000011,121.6665039999998,125.38476599999922
275,134.10253900000043,116.9228520000006,132.05126999999993,81.2822270000006,124.61523400000078,116.6665039999998,116.53857400000015,110.51269500000035,118.20507799999996,123.0771479999994,88.46142599999985,103.9741210000002,118.20507799999996,120.51269500000035
276,131.15380900000036,109.74365200000011,128.7177729999994,72.56396500000028,116.79492200000004,114.23095699999976,114.61523400000078,106.9228520000006,111.6665039999998,113.9741210000002,86.15380900000036,102.17968800000017,112.17968800000017,113.3334960000002
277,127.82031300000017,101.41015599999992,127.17968800000017,64.61523400000078,112.56396500000028,112.82031300000017,112.94873000000007,101.2822270000006,101.79492200000004,99.10253900000043,81.2822270000006,100.0,106.41015599999992,107.43603499999972
278,125.64111300000059,96.2822270000006,127.56396500000028,60.38476599999922,112.17968800000017,112.94873000000007,113.0771479999994,96.2822270000006,94.74365200000011,86.41015599999992,77.17968800000017,98.84619099999964,104.10253900000043,105.76904300000024
279,126.79492200000004,97.30761700000039,129.23095699999976,61.153809000000365,114.87158199999976,113.9741210000002,115.51269500000035,95.76904300000024,95.64111300000059,84.48730499999965,77.05126999999993,99.61523400000078,106.2822270000006,109.35888699999941
280,130.89746099999957,103.20507799999996,131.6665039999998,65.64111300000059,118.3334960000002,114.87158199999976,118.9741210000002,100.25634799999989,103.58984400000008,95.51269500000035,80.76904300000024,102.05126999999993,111.15380900000036,115.51269500000035
281,135.12841800000024,108.7177729999994,134.48730499999965,70.64111300000059,119.61523400000078,115.12841800000024,120.76904300000024,105.89746099999957,111.53857400000015,112.69238299999961,85.0,103.84619099999964,115.0,119.48730499999965
282,135.2563479999999,109.35888699999941,136.2822270000006,72.94873000000007,116.15380900000036,115.12841800000024,118.9741210000002,107.69238299999961,111.9228520000006,124.48730499999965,85.25634799999989,102.82031300000017,114.48730499999965,117.82031300000017
283,129.3588869999994,104.23095699999976,135.51269500000035,71.15380900000036,108.3334960000002,114.87158199999976,113.84619099999964,102.82031300000017,102.94873000000007,123.46142599999985,79.23095699999976,98.9741210000002,108.9741210000002,110.25634799999989
284,120.0,96.41015599999992,132.3076170000004,66.9228520000006,100.0,114.35888699999941,108.20507799999996,93.46142599999985,89.10253900000043,110.51269500000035,68.46142599999985,94.10253900000043,100.76904300000024,100.25634799999989
285,112.69238299999961,90.51269500000035,128.84619099999964,62.94873000000007,95.76904300000024,113.9741210000002,105.0,85.25634799999989,78.84619099999964,94.48730499999965,58.20507799999996,91.2822270000006,93.7177729999994,93.0771479999994
286,111.79492200000004,89.35888699999941,128.46142599999985,62.05126999999993,98.0771479999994,114.10253900000043,106.0258789999998,83.84619099999964,78.20507799999996,86.15380900000036,54.35888699999941,92.30761700000039,91.15380900000036,92.30761700000039
287,117.69238299999961,93.0771479999994,132.43603499999972,64.87158199999976,105.38476599999922,115.25634799999989,111.41015599999992,90.38476599999922,87.30761700000039,90.38476599999922,59.23095699999976,96.9228520000006,93.46142599999985,98.0771479999994
288,126.6665039999998,99.48730499999965,139.23095699999976,69.74365200000011,113.84619099999964,116.53857400000015,118.3334960000002,101.41015599999992,100.76904300000024,103.0771479999994,70.12841800000024,102.56396500000028,98.7177729999994,106.9228520000006
289,134.61523400000078,106.41015599999992,145.89746099999957,74.10253900000043,120.0,117.17968800000017,123.20507799999996,112.30761700000039,112.05126999999993,115.0,81.41015599999992,106.53857400000015,104.35888699999941,115.0
290,138.46142599999985,112.43603499999972,149.23095699999976,75.76904300000024,122.05126999999993,116.79492200000004,123.20507799999996,118.7177729999994,117.05126999999993,118.9741210000002,88.3334960000002,107.17968800000017,109.10253900000043,119.61523400000078
291,137.05126999999993,115.64111300000059,147.56396500000028,73.58984400000008,119.48730499999965,116.0258789999998,118.20507799999996,118.46142599999985,116.2822270000006,114.61523400000078,89.23095699999976,104.48730499999965,112.56396500000028,120.12841800000024
292,132.17968800000017,113.9741210000002,142.43603499999972,68.9741210000002,113.84619099999964,115.12841800000024,110.76904300000024,112.56396500000028,112.56396500000028,106.53857400000015,86.79492200000004,100.64111300000059,114.74365200000011,117.94873000000007
293,127.43603499999972,107.69238299999961,138.7177729999994,65.0,108.7177729999994,114.61523400000078,105.0,105.25634799999989,109.48730499999965,100.76904300000024,85.0,98.58984400000008,116.15380900000036,115.25634799999989
294,126.41015599999992,100.12841800000024,140.6411130000006,66.0258789999998,107.56396500000028,114.87158199999976,103.58984400000008,101.6665039999998,109.23095699999976,100.76904300000024,87.17968800000017,99.74365200000011,117.30761700000039,114.74365200000011
295,130.0,96.15380900000036,148.46142599999985,73.46142599999985,110.89746099999957,115.51269500000035,106.6665039999998,102.82031300000017,111.2822270000006,106.6665039999998,93.46142599999985,103.9741210000002,118.46142599999985,117.30761700000039
296,136.15380900000036,98.58984400000008,157.3076170000004,85.38476599999922,115.76904300000024,115.89746099999957,111.6665039999998,105.64111300000059,113.46142599999985,115.76904300000024,100.64111300000059,109.10253900000043,119.74365200000011,121.6665039999998
297,141.0258789999998,105.38476599999922,162.05126999999993,96.9228520000006,118.46142599999985,115.76904300000024,115.76904300000024,106.9228520000006,112.94873000000007,123.58984400000008,104.87158199999976,112.43603499999972,120.25634799999989,125.0
298,142.17968800000017,112.30761700000039,160.76904300000024,103.46142599999985,117.69238299999961,115.12841800000024,117.69238299999961,106.15380900000036,109.48730499999965,125.89746099999957,104.61523400000078,112.43603499999972,119.48730499999965,125.38476599999922
299,139.3588869999994,115.38476599999922,155.12841800000024,103.7177729999994,115.25634799999989,114.48730499999965,117.56396500000028,105.38476599999922,104.74365200000011,121.2822270000006,101.53857400000015,109.35888699999941,118.0771479999994,122.82031300000017
300,133.84619099999964,113.46142599999985,148.7177729999994,98.7177729999994,113.46142599999985,114.10253900000043,116.9228520000006,106.0258789999998,101.41015599999992,112.56396500000028,98.7177729999994,105.12841800000024,116.79492200000004,118.9741210000002
301,127.94873000000007,108.46142599999985,143.84619099999964,91.53857400000015,113.3334960000002,114.23095699999976,116.9228520000006,107.56396500000028,100.51269500000035,103.84619099999964,98.0771479999994,101.9228520000006,116.41015599999992,115.64111300000059
302,122.82031300000017,103.0771479999994,140.2563479999999,85.51269500000035,113.84619099999964,114.61523400000078,117.69238299999961,108.46142599999985,101.0258789999998,98.9741210000002,97.69238299999961,100.89746099999957,115.64111300000059,113.0771479999994
303,118.84619099999964,99.61523400000078,137.43603499999972,83.58984400000008,113.84619099999964,115.25634799999989,118.3334960000002,107.94873000000007,101.15380900000036,98.84619099999964,95.25634799999989,101.53857400000015,113.7177729999994,110.51269500000035
304,116.6665039999998,99.74365200000011,136.0258789999998,87.43603499999972,113.7177729999994,115.76904300000024,117.94873000000007,106.53857400000015,100.76904300000024,102.30761700000039,90.64111300000059,102.69238299999961,111.2822270000006,108.58984400000008
305,117.43603499999972,104.23095699999976,137.43603499999972,96.0258789999998,115.12841800000024,116.0258789999998,116.9228520000006,106.2822270000006,101.9228520000006,108.0771479999994,87.05126999999993,103.84619099999964,110.64111300000059,108.84619099999964
306,121.0258789999998,111.6665039999998,141.79492200000004,104.87158199999976,118.58984400000008,116.15380900000036,116.15380900000036,109.23095699999976,106.79492200000004,113.84619099999964,87.56396500000028,104.35888699999941,112.94873000000007,112.17968800000017
307,125.38476599999922,117.94873000000007,146.79492200000004,109.35888699999941,122.30761700000039,116.2822270000006,116.0258789999998,114.10253900000043,113.84619099999964,116.2822270000006,92.43603499999972,103.7177729999994,116.15380900000036,116.41015599999992
308,128.58984400000008,119.35888699999941,149.23095699999976,108.20507799999996,123.7177729999994,116.53857400000015,116.53857400000015,118.0771479999994,118.7177729999994,114.10253900000043,98.3334960000002,102.69238299999961,117.30761700000039,118.20507799999996
309,129.87158199999976,116.15380900000036,148.58984400000008,104.23095699999976,122.05126999999993,116.9228520000006,117.56396500000028,118.9741210000002,119.23095699999976,110.12841800000024,102.43603499999972,102.43603499999972,116.0258789999998,116.53857400000015
310,130.6411130000006,111.6665039999998,146.79492200000004,102.94873000000007,119.10253900000043,117.05126999999993,119.74365200000011,117.69238299999961,117.17968800000017,110.0,103.7177729999994,103.84619099999964,114.61523400000078,113.84619099999964
311,132.3076170000004,110.0,146.53857400000015,106.79492200000004,117.82031300000017,116.53857400000015,122.94873000000007,116.6665039999998,115.51269500000035,115.38476599999922,103.3334960000002,106.79492200000004,115.38476599999922,114.23095699999976
312,135.0,111.9228520000006,148.46142599999985,113.7177729999994,120.25634799999989,115.89746099999957,126.15380900000036,117.56396500000028,115.25634799999989,122.17968800000017,101.6665039999998,110.12841800000024,117.43603499999972,119.74365200000011
313,137.3076170000004,115.12841800000024,150.51269500000035,118.84619099999964,125.76904300000024,115.64111300000059,127.30761700000039,118.9741210000002,115.38476599999922,124.10253900000043,99.10253900000043,112.17968800000017,118.3334960000002,127.69238299999961
314,136.41015599999992,115.76904300000024,150.0,118.20507799999996,130.38476599999922,116.2822270000006,125.25634799999989,117.94873000000007,113.0771479999994,118.20507799999996,95.64111300000059,111.41015599999992,115.89746099999957,131.53857400000015
315,130.0,111.15380900000036,144.48730499999965,111.15380900000036,128.9741210000002,116.9228520000006,120.64111300000059,111.9228520000006,106.6665039999998,106.6665039999998,90.89746099999957,107.43603499999972,110.12841800000024,126.53857400000015
316,119.48730499999965,102.56396500000028,135.51269500000035,101.15380900000036,120.25634799999989,116.79492200000004,116.0258789999998,102.69238299999961,97.43603499999972,94.61523400000078,85.12841800000024,101.53857400000015,103.58984400000008,113.46142599999985
317,109.87158199999976,94.48730499999965,128.3334960000002,94.10253900000043,108.84619099999964,115.64111300000059,113.9741210000002,95.64111300000059,90.12841800000024,87.17968800000017,79.87158199999976,97.05126999999993,100.12841800000024,99.74365200000011
318,106.41015599999992,92.05126999999993,127.30761700000039,94.10253900000043,102.17968800000017,114.10253900000043,115.0,95.76904300000024,89.23095699999976,87.43603499999972,78.58984400000008,96.41015599999992,102.56396500000028,94.10253900000043
319,110.38476599999922,95.51269500000035,131.9228520000006,100.12841800000024,102.82031300000017,113.20507799999996,117.69238299999961,103.3334960000002,96.15380900000036,94.74365200000011,82.69238299999961,99.87158199999976,110.51269500000035,99.48730499999965
320,118.20507799999996,100.76904300000024,137.3076170000004,106.9228520000006,107.05126999999993,113.20507799999996,119.23095699999976,112.94873000000007,106.79492200000004,104.87158199999976,90.0,105.0,119.87158199999976,111.15380900000036
321,124.35888699999941,102.82031300000017,139.7436520000001,109.48730499999965,109.23095699999976,114.10253900000043,118.46142599999985,118.3334960000002,114.35888699999941,112.69238299999961,96.15380900000036,109.35888699999941,125.76904300000024,120.76904300000024
322,125.64111300000059,100.89746099999957,139.3588869999994,107.30761700000039,107.82031300000017,115.51269500000035,116.53857400000015,117.69238299999961,114.87158199999976,115.76904300000024,98.7177729999994,111.0258789999998,126.15380900000036,123.0771479999994
323,123.20507799999996,98.3334960000002,138.84619099999964,104.23095699999976,106.15380900000036,116.6665039999998,115.51269500000035,113.46142599999985,109.10253900000043,114.35888699999941,97.69238299999961,109.87158199999976,123.3334960000002,119.35888699999941
324,120.12841800000024,97.82031300000017,139.10253900000043,103.84619099999964,107.30761700000039,117.05126999999993,115.76904300000024,109.74365200000011,101.6665039999998,110.25634799999989,95.12841800000024,106.6665039999998,120.51269500000035,114.48730499999965
325,118.3334960000002,98.84619099999964,139.23095699999976,106.6665039999998,110.64111300000059,116.79492200000004,116.41015599999992,108.84619099999964,97.30761700000039,105.0,92.43603499999972,102.43603499999972,118.7177729999994,112.82031300000017
326,117.43603499999972,100.0,138.20507799999996,110.64111300000059,113.20507799999996,116.41015599999992,116.53857400000015,110.76904300000024,98.0771479999994,100.51269500000035,90.12841800000024,99.35888699999941,117.69238299999961,114.61523400000078
327,116.9228520000006,101.0258789999998,136.79492200000004,113.58984400000008,113.46142599999985,116.41015599999992,116.9228520000006,114.48730499999965,103.0771479999994,98.84619099999964,89.10253900000043,99.74365200000011,117.05126999999993,117.05126999999993
328,117.17968800000017,103.20507799999996,136.53857400000015,115.0,113.20507799999996,116.41015599999992,119.23095699999976,118.58984400000008,110.25634799999989,101.0258789999998,90.51269500000035,104.61523400000078,117.69238299999961,117.56396500000028
329,119.35888699999941,106.6665039999998,138.84619099999964,116.0258789999998,114.87158199999976,116.2822270000006,123.9741210000002,121.79492200000004,117.05126999999993,105.89746099999957,94.10253900000043,112.17968800000017,120.38476599999922,116.53857400000015
330,122.82031300000017,110.64111300000059,142.6923829999996,117.43603499999972,119.74365200000011,115.76904300000024,128.9741210000002,123.7177729999994,121.6665039999998,111.6665039999998,98.84619099999964,118.0771479999994,124.35888699999941,115.89746099999957
331,125.76904300000024,113.3334960000002,145.51269500000035,119.61523400000078,126.0258789999998,115.25634799999989,131.41015599999992,125.0,122.56396500000028,116.9228520000006,102.43603499999972,118.9741210000002,127.94873000000007,116.79492200000004
332,125.51269500000035,113.58984400000008,144.61523400000078,121.2822270000006,130.38476599999922,115.38476599999922,130.12841800000024,125.64111300000059,119.87158199999976,120.64111300000059,103.0771479999994,114.87158199999976,129.48730499999965,118.46142599999985
333,120.76904300000024,110.76904300000024,139.3588869999994,120.12841800000024,129.3588869999994,116.15380900000036,125.64111300000059,124.48730499999965,115.0,121.53857400000015,99.87158199999976,108.3334960000002,128.3334960000002,118.3334960000002
334,111.6665039999998,104.35888699999941,131.2822270000006,114.48730499999965,121.79492200000004,116.79492200000004,120.38476599999922,120.0,109.23095699999976,117.69238299999961,92.94873000000007,102.17968800000017,123.7177729999994,114.35888699999941
335,101.41015599999992,95.12841800000024,123.3334960000002,105.38476599999922,110.51269500000035,116.41015599999992,116.0258789999998,112.56396500000028,103.3334960000002,107.82031300000017,83.9741210000002,98.3334960000002,116.41015599999992,106.6665039999998
336,94.61523400000078,86.2822270000006,118.84619099999964,96.9228520000006,101.41015599999992,115.25634799999989,114.10253900000043,105.12841800000024,98.46142599999985,94.35888699999941,76.15380900000036,97.30761700000039,108.46142599999985,99.10253900000043
337,95.25634799999989,82.17968800000017,119.10253900000043,94.35888699999941,99.35888699999941,114.48730499999965,114.48730499999965,101.6665039999998,96.41015599999992,84.35888699999941,72.82031300000017,98.7177729999994,103.9741210000002,95.64111300000059
338,102.69238299999961,84.74365200000011,123.58984400000008,99.48730499999965,104.35888699999941,114.61523400000078,116.0258789999998,103.9741210000002,97.69238299999961,83.84619099999964,75.12841800000024,101.0258789999998,104.87158199999976,97.82031300000017
339,111.9228520000006,91.79492200000004,129.10253900000043,108.9741210000002,111.53857400000015,115.76904300000024,117.05126999999993,109.48730499999965,100.12841800000024,91.53857400000015,80.76904300000024,102.30761700000039,109.87158199999976,103.0771479999994
340,117.17968800000017,98.0771479999994,132.56396500000028,116.41015599999992,116.2822270000006,116.9228520000006,116.53857400000015,113.7177729999994,101.0258789999998,100.25634799999989,85.89746099999957,102.30761700000039,114.35888699999941,106.41015599999992
341,116.79492200000004,99.23095699999976,133.20507799999996,117.94873000000007,117.17968800000017,117.69238299999961,114.61523400000078,113.9741210000002,99.10253900000043,103.46142599999985,88.0771479999994,102.30761700000039,115.89746099999957,105.0
342,113.58984400000008,95.76904300000024,132.17968800000017,114.48730499999965,116.53857400000015,117.82031300000017,113.20507799999996,111.6665039999998,97.17968800000017,101.15380900000036,88.46142599999985,103.0771479999994,115.51269500000035,101.15380900000036
343,111.6665039999998,91.6665039999998,130.38476599999922,110.38476599999922,117.17968800000017,117.69238299999961,113.20507799999996,110.25634799999989,98.58984400000008,98.58984400000008,89.10253900000043,104.35888699999941,116.2822270000006,99.35888699999941
344,112.94873000000007,90.12841800000024,128.3334960000002,108.9741210000002,118.46142599999985,117.43603499999972,114.87158199999976,111.53857400000015,103.46142599999985,100.0,90.25634799999989,105.38476599999922,118.7177729999994,101.15380900000036
345,115.76904300000024,91.53857400000015,126.79492200000004,109.87158199999976,118.46142599999985,116.9228520000006,116.9228520000006,114.23095699999976,108.46142599999985,104.48730499999965,90.0,105.25634799999989,120.25634799999989,103.58984400000008
346,117.56396500000028,93.58984400000008,126.79492200000004,111.15380900000036,116.41015599999992,116.15380900000036,118.3334960000002,116.0258789999998,109.74365200000011,108.20507799999996,88.20507799999996,104.35888699999941,118.58984400000008,102.30761700000039
347,117.30761700000039,93.7177729999994,128.46142599999985,111.2822270000006,113.84619099999964,115.38476599999922,118.7177729999994,115.12841800000024,106.9228520000006,108.20507799999996,86.9228520000006,103.3334960000002,113.9741210000002,96.41015599999992
348,116.15380900000036,91.53857400000015,130.38476599999922,110.25634799999989,111.53857400000015,114.61523400000078,118.0771479999994,112.05126999999993,102.94873000000007,105.64111300000059,88.84619099999964,102.56396500000028,109.61523400000078,89.61523400000078
349,116.15380900000036,88.58984400000008,131.41015599999992,109.74365200000011,109.74365200000011,113.58984400000008,116.6665039999998,109.10253900000043,101.41015599999992,104.23095699999976,93.84619099999964,102.56396500000028,108.0771479999994,87.30761700000039
350,117.69238299999961,87.43603499999972,131.79492200000004,110.89746099999957,108.20507799999996,112.56396500000028,115.76904300000024,108.9741210000002,103.3334960000002,106.53857400000015,98.9741210000002,103.58984400000008,109.61523400000078,91.41015599999992
351,119.87158199999976,89.10253900000043,131.53857400000015,113.7177729999994,106.9228520000006,112.30761700000039,115.64111300000059,112.17968800000017,107.30761700000039,111.2822270000006,100.38476599999922,104.61523400000078,112.82031300000017,99.10253900000043
352,120.38476599999922,91.53857400000015,130.76904300000024,116.2822270000006,106.2822270000006,112.56396500000028,116.0258789999998,115.76904300000024,110.12841800000024,114.61523400000078,96.79492200000004,104.48730499999965,115.0,105.0
353,117.82031300000017,91.79492200000004,129.10253900000043,116.41015599999992,106.2822270000006,112.82031300000017,115.51269500000035,116.2822270000006,109.87158199999976,113.46142599999985,90.38476599999922,102.43603499999972,114.48730499999965,106.41015599999992
354,114.48730499999965,90.12841800000024,127.69238299999961,114.23095699999976,107.82031300000017,112.17968800000017,114.10253900000043,113.58984400000008,107.82031300000017,108.7177729999994,85.89746099999957,99.74365200000011,113.20507799999996,104.35888699999941
355,114.48730499999965,90.0,127.82031300000017,112.69238299999961,111.53857400000015,111.2822270000006,113.3334960000002,111.53857400000015,107.43603499999972,104.23095699999976,87.43603499999972,99.35888699999941,114.61523400000078,103.20507799999996
356,119.87158199999976,94.48730499999965,130.2563479999999,114.87158199999976,116.6665039999998,110.51269500000035,114.61523400000078,113.84619099999964,110.76904300000024,103.84619099999964,95.38476599999922,102.82031300000017,120.89746099999957,106.15380900000036
357,128.58984400000008,102.30761700000039,134.23095699999976,121.2822270000006,121.0258789999998,110.76904300000024,118.0771479999994,120.38476599999922,116.6665039999998,108.0771479999994,105.25634799999989,107.94873000000007,129.7436520000001,112.17968800000017
358,134.7436520000001,107.94873000000007,137.6923829999996,128.0771479999994,121.9228520000006,112.17968800000017,121.2822270000006,126.6665039999998,120.64111300000059,114.23095699999976,111.2822270000006,110.64111300000059,135.76904300000024,116.9228520000006
359,133.58984400000008,106.6665039999998,137.94873000000007,130.38476599999922,119.35888699999941,113.9741210000002,121.79492200000004,128.46142599999985,118.84619099999964,118.0771479999994,109.87158199999976,108.9741210000002,135.12841800000024,116.2822270000006
360,125.64111300000059,98.84619099999964,134.61523400000078,126.15380900000036,116.15380900000036,115.51269500000035,119.10253900000043,124.74365200000011,111.0258789999998,117.17968800000017,102.30761700000039,104.61523400000078,128.0771479999994,110.0
361,116.15380900000036,90.12841800000024,130.12841800000024,119.10253900000043,114.74365200000011,115.89746099999957,115.0,118.0771479999994,101.79492200000004,112.43603499999972,94.23095699999976,101.0258789999998,118.84619099999964,101.9228520000006
362,110.76904300000024,86.41015599999992,127.94873000000007,114.74365200000011,115.0,115.38476599999922,112.30761700000039,112.69238299999961,96.2822270000006,106.9228520000006,90.64111300000059,101.0258789999998,112.56396500000028,97.43603499999972
363,111.2822270000006,89.23095699999976,129.3588869999994,116.0258789999998,115.0,114.61523400000078,112.30761700000039,111.15380900000036,97.30761700000039,103.20507799999996,92.69238299999961,104.23095699999976,111.79492200000004,98.20507799999996
364,115.0,95.12841800000024,132.82031300000017,120.51269500000035,113.9741210000002,114.23095699999976,114.35888699999941,113.20507799999996,103.20507799999996,102.56396500000028,97.43603499999972,108.3334960000002,115.38476599999922,101.2822270000006
365,118.20507799999996,99.87158199999976,135.6411130000006,124.48730499999965,114.61523400000078,114.61523400000078,116.9228520000006,117.17968800000017,110.64111300000059,105.76904300000024,101.41015599999992,110.25634799999989,120.89746099999957,102.94873000000007
366,118.9741210000002,102.69238299999961,136.15380900000036,125.64111300000059,118.9741210000002,115.51269500000035,119.10253900000043,121.2822270000006,116.79492200000004,112.82031300000017,102.82031300000017,109.35888699999941,126.53857400000015,102.30761700000039
367,118.46142599999985,103.9741210000002,135.0,124.48730499999965,125.51269500000035,116.15380900000036,121.15380900000036,124.61523400000078,120.25634799999989,120.51269500000035,102.17968800000017,106.9228520000006,131.15380900000036,101.15380900000036
368,118.7177729999994,103.58984400000008,134.23095699999976,122.82031300000017,128.9741210000002,115.89746099999957,123.46142599999985,126.41015599999992,120.0,123.3334960000002,100.25634799999989,105.38476599999922,133.0771479999994,101.41015599999992
369,121.2822270000006,101.41015599999992,135.51269500000035,122.69238299999961,126.15380900000036,114.61523400000078,126.0258789999998,127.30761700000039,117.05126999999993,118.7177729999994,98.58984400000008,106.6665039999998,131.6665039999998,104.23095699999976
370,125.89746099999957,99.10253900000043,139.3588869999994,125.64111300000059,120.38476599999922,113.3334960000002,128.58984400000008,128.46142599999985,114.48730499999965,110.76904300000024,99.23095699999976,110.38476599999922,129.10253900000043,110.0
371,130.76904300000024,99.87158199999976,143.7177729999994,130.76904300000024,117.82031300000017,113.3334960000002,131.15380900000036,131.2822270000006,115.76904300000024,107.94873000000007,103.7177729999994,115.0,128.84619099999964,117.82031300000017
372,133.46142599999985,105.0,146.0258789999998,135.2563479999999,121.9228520000006,114.74365200000011,132.56396500000028,134.61523400000078,121.41015599999992,114.48730499999965,110.64111300000059,118.3334960000002,132.17968800000017,125.12841800000024
373,132.05126999999993,111.79492200000004,144.10253900000043,135.89746099999957,130.12841800000024,116.15380900000036,131.15380900000036,135.6411130000006,127.17968800000017,125.89746099999957,115.12841800000024,118.3334960000002,136.2822270000006,128.20507799999996
374,126.9228520000006,115.25634799999989,138.58984400000008,131.79492200000004,135.89746099999957,115.25634799999989,125.89746099999957,131.9228520000006,127.69238299999961,132.17968800000017,113.46142599999985,114.35888699999941,136.53857400000015,125.12841800000024
375,120.12841800000024,112.82031300000017,132.05126999999993,124.48730499999965,133.9741210000002,111.79492200000004,118.7177729999994,123.46142599999985,120.64111300000059,126.79492200000004,106.53857400000015,107.82031300000017,131.2822270000006,117.43603499999972
376,114.74365200000011,105.64111300000059,127.82031300000017,117.30761700000039,124.23095699999976,107.43603499999972,113.0771479999994,113.58984400000008,109.61523400000078,113.3334960000002,100.25634799999989,102.30761700000039,123.46142599999985,109.74365200000011
377,112.82031300000017,98.58984400000008,127.17968800000017,113.3334960000002,112.43603499999972,105.12841800000024,111.9228520000006,107.05126999999993,100.89746099999957,102.30761700000039,99.61523400000078,100.38476599999922,118.46142599999985,106.2822270000006
378,114.23095699999976,96.2822270000006,129.61523400000078,113.46142599999985,106.0258789999998,105.76904300000024,115.64111300000059,106.6665039999998,99.61523400000078,103.3334960000002,105.25634799999989,102.56396500000028,120.0,108.20507799999996
379,117.30761700000039,101.0258789999998,132.82031300000017,116.41015599999992,109.23095699999976,108.0771479999994,121.41015599999992,111.79492200000004,105.64111300000059,116.53857400000015,112.05126999999993,106.6665039999998,127.17968800000017,113.0771479999994
380,119.23095699999976,110.25634799999989,134.87158199999976,119.61523400000078,119.23095699999976,110.25634799999989,125.38476599999922,118.58984400000008,113.9741210000002,132.82031300000017,114.61523400000078,109.61523400000078,134.7436520000001,117.30761700000039
381,119.23095699999976,118.3334960000002,134.87158199999976,121.53857400000015,129.23095699999976,111.6665039999998,125.51269500000035,122.43603499999972,119.23095699999976,140.51269500000035,110.76904300000024,110.0,137.43603499999972,118.7177729999994
382,118.7177729999994,120.89746099999957,133.3334960000002,121.6665039999998,133.3334960000002,111.6665039999998,122.30761700000039,121.9228520000006,119.74365200000011,135.0,104.10253900000043,108.9741210000002,134.61523400000078,117.69238299999961
383,120.0,117.30761700000039,131.53857400000015,120.76904300000024,130.12841800000024,110.76904300000024,118.20507799999996,118.84619099999964,117.82031300000017,121.79492200000004,100.51269500000035,108.3334960000002,130.0,116.15380900000036
