,EEG.AF3,EEG.F7,EEG.F3,EEG.FC5,EEG.T7,EEG.P7,EEG.O1,EEG.O2,EEG.P8,EEG.T8,EEG.FC6,EEG.F4,EEG.F8,EEG.AF4
0,121.53857400000015,94.48730499999965,129.23095699999976,135.38476599999922,102.94873000000007,115.25634799999989,115.25634799999989,123.20507799999996,130.51269500000035,130.38476599999922,121.53857400000015,110.25634799999989,141.0258789999998,111.53857400000015
1,113.7177729999994,84.35888699999941,122.43603499999972,126.15380900000036,94.23095699999976,116.41015599999992,110.12841800000024,118.20507799999996,124.87158199999976,124.35888699999941,111.15380900000036,105.64111300000059,129.61523400000078,110.38476599999922
2,112.82031300000017,83.58984400000008,122.82031300000017,122.82031300000017,95.25634799999989,117.43603499999972,112.43603499999972,118.9741210000002,125.89746099999957,125.0,111.53857400000015,105.25634799999989,126.9228520000006,112.43603499999972
3,116.15380900000036,90.76904300000024,128.20507799999996,125.89746099999957,103.84619099999964,117.69238299999961,120.25634799999989,123.9741210000002,131.6665039999998,128.9741210000002,119.87158199999976,107.94873000000007,130.51269500000035,116.2822270000006
4,118.84619099999964,99.87158199999976,133.0771479999994,131.41015599999992,114.48730499999965,116.79492200000004,128.20507799999996,129.3588869999994,137.43603499999972,132.3076170000004,129.23095699999976,110.89746099999957,134.87158199999976,119.23095699999976
5,118.46142599999985,105.25634799999989,133.46142599999985,135.0,122.17968800000017,115.38476599999922,132.43603499999972,131.79492200000004,140.51269500000035,134.10253900000043,133.7177729999994,112.17968800000017,136.79492200000004,119.23095699999976
6,116.53857400000015,105.38476599999922,130.2563479999999,135.0,124.48730499999965,114.35888699999941,132.43603499999972,131.2822270000006,141.41015599999992,136.0258789999998,132.56396500000028,111.79492200000004,137.05126999999993,116.79492200000004
7,116.2822270000006,102.82031300000017,127.56396500000028,133.7177729999994,122.56396500000028,114.61523400000078,130.38476599999922,129.61523400000078,142.43603499999972,140.2563479999999,129.3588869999994,110.89746099999957,138.20507799999996,113.46142599999985
8,119.35888699999941,101.15380900000036,128.0771479999994,134.10253900000043,119.48730499999965,115.76904300000024,128.3334960000002,128.58984400000008,144.3588869999994,146.41015599999992,128.20507799999996,110.38476599999922,141.41015599999992,111.15380900000036
9,123.9741210000002,101.79492200000004,130.89746099999957,137.05126999999993,117.94873000000007,116.41015599999992,126.79492200000004,128.7177729999994,145.2563479999999,151.41015599999992,130.76904300000024,110.89746099999957,144.7436520000001,110.51269500000035
10,125.64111300000059,102.69238299999961,131.6665039999998,140.0,117.43603499999972,115.64111300000059,125.38476599999922,128.7177729999994,142.6923829999996,151.6665039999998,134.48730499999965,111.6665039999998,145.0,111.15380900000036
11,120.64111300000059,100.89746099999957,127.82031300000017,139.48730499999965,115.76904300000024,113.58984400000008,123.58984400000008,127.17968800000017,136.0258789999998,145.76904300000024,134.23095699999976,111.0258789999998,140.12841800000024,112.56396500000028
12,109.48730499999965,96.0258789999998,120.51269500000035,134.23095699999976,111.41015599999992,111.53857400000015,120.76904300000024,123.7177729999994,127.69238299999961,136.2822270000006,128.3334960000002,107.56396500000028,131.79492200000004,113.7177729999994
13,97.69238299999961,91.0258789999998,114.10253900000043,127.17968800000017,105.12841800000024,111.0258789999998,117.43603499999972,119.87158199999976,121.79492200000004,127.43603499999972,119.23095699999976,102.17968800000017,124.10253900000043,113.7177729999994
14,92.17968800000017,89.48730499999965,112.43603499999972,123.46142599999985,100.12841800000024,112.56396500000028,115.12841800000024,117.94873000000007,120.89746099999957,123.3334960000002,112.56396500000028,97.94873000000007,120.64111300000059,113.46142599999985
15,95.89746099999957,92.69238299999961,115.64111300000059,125.51269500000035,99.48730499999965,115.38476599999922,115.76904300000024,118.7177729999994,124.23095699999976,124.61523400000078,112.30761700000039,97.94873000000007,122.30761700000039,113.3334960000002
16,106.0258789999998,98.3334960000002,120.25634799999989,131.53857400000015,104.87158199999976,117.94873000000007,120.0,121.2822270000006,128.46142599999985,128.58984400000008,117.94873000000007,102.56396500000028,127.30761700000039,114.10253900000043
17,116.41015599999992,103.20507799999996,122.82031300000017,136.9228520000006,114.74365200000011,119.10253900000043,126.15380900000036,123.3334960000002,131.15380900000036,132.3076170000004,126.15380900000036,109.35888699999941,132.43603499999972,115.25634799999989
18,121.53857400000015,104.87158199999976,122.05126999999993,138.0771479999994,125.12841800000024,118.7177729999994,130.38476599999922,123.3334960000002,131.79492200000004,133.58984400000008,132.3076170000004,113.9741210000002,135.2563479999999,116.2822270000006
19,119.74365200000011,103.58984400000008,119.35888699999941,134.48730499999965,130.89746099999957,117.43603499999972,129.87158199999976,121.53857400000015,130.76904300000024,132.3076170000004,133.84619099999964,113.7177729999994,134.10253900000043,116.15380900000036
20,113.9741210000002,101.15380900000036,116.53857400000015,129.10253900000043,130.0,116.2822270000006,125.0,119.48730499999965,129.7436520000001,130.12841800000024,131.2822270000006,108.7177729999994,129.7436520000001,114.87158199999976
21,108.9741210000002,100.12841800000024,115.25634799999989,125.25634799999989,124.48730499999965,116.0258789999998,119.35888699999941,118.9741210000002,129.61523400000078,128.7177729999994,127.82031300000017,103.20507799999996,124.74365200000011,113.20507799999996
22,108.0771479999994,102.05126999999993,115.76904300000024,125.25634799999989,119.23095699999976,116.53857400000015,117.43603499999972,120.76904300000024,131.15380900000036,129.23095699999976,126.41015599999992,101.79492200000004,122.30761700000039,112.43603499999972
23,110.76904300000024,106.2822270000006,117.94873000000007,127.94873000000007,117.56396500000028,117.56396500000028,121.41015599999992,124.23095699999976,133.46142599999985,131.41015599999992,127.82031300000017,106.0258789999998,123.84619099999964,113.7177729999994
24,114.48730499999965,110.51269500000035,120.76904300000024,131.0258789999998,119.48730499999965,118.7177729999994,128.9741210000002,127.56396500000028,134.7436520000001,133.0771479999994,130.51269500000035,112.56396500000028,127.82031300000017,116.41015599999992
25,116.15380900000036,112.43603499999972,122.94873000000007,131.79492200000004,122.30761700000039,119.35888699999941,134.7436520000001,128.7177729999994,133.46142599999985,131.2822270000006,131.53857400000015,116.6665039999998,130.76904300000024,118.7177729999994
26,113.3334960000002,110.38476599999922,123.20507799999996,129.10253900000043,123.0771479999994,119.48730499999965,133.58984400000008,126.6665039999998,128.84619099999964,125.38476599999922,129.10253900000043,114.74365200000011,129.3588869999994,118.9741210000002
27,106.41015599999992,104.87158199999976,120.89746099999957,123.58984400000008,121.41015599999992,118.9741210000002,125.12841800000024,121.6665039999998,122.30761700000039,117.69238299999961,123.46142599999985,107.94873000000007,123.46142599999985,117.17968800000017
28,98.3334960000002,97.94873000000007,116.79492200000004,117.43603499999972,119.23095699999976,118.20507799999996,115.25634799999989,116.2822270000006,117.30761700000039,112.17968800000017,117.05126999999993,100.89746099999957,116.79492200000004,114.61523400000078
29,94.35888699999941,93.7177729999994,113.58984400000008,113.58984400000008,118.58984400000008,117.56396500000028,111.15380900000036,113.84619099999964,117.43603499999972,112.56396500000028,113.3334960000002,98.58984400000008,115.38476599999922,112.43603499999972
30,97.43603499999972,95.51269500000035,113.20507799999996,113.20507799999996,119.74365200000011,117.82031300000017,115.76904300000024,116.0258789999998,123.7177729999994,118.46142599999985,113.84619099999964,102.69238299999961,121.79492200000004,112.05126999999993
31,105.38476599999922,101.6665039999998,115.76904300000024,114.87158199999976,121.15380900000036,118.7177729999994,124.87158199999976,120.38476599999922,132.56396500000028,125.64111300000059,117.05126999999993,110.25634799999989,132.82031300000017,113.20507799999996
32,113.0771479999994,106.53857400000015,118.84619099999964,116.15380900000036,120.64111300000059,119.35888699999941,131.15380900000036,123.20507799999996,138.3334960000002,128.3334960000002,119.35888699999941,116.0258789999998,139.87158199999976,115.0
33,115.76904300000024,105.64111300000059,120.38476599999922,115.25634799999989,117.94873000000007,119.10253900000043,130.2563479999999,122.17968800000017,137.6923829999996,124.35888699999941,118.0771479999994,116.41015599999992,137.17968800000017,116.0258789999998
34,114.23095699999976,100.38476599999922,120.51269500000035,113.7177729999994,115.89746099999957,118.0771479999994,124.87158199999976,118.84619099999964,132.3076170000004,116.79492200000004,114.61523400000078,112.94873000000007,126.53857400000015,115.51269500000035
35,112.94873000000007,96.9228520000006,121.9228520000006,114.61523400000078,118.9741210000002,117.05126999999993,121.0258789999998,117.05126999999993,127.17968800000017,112.05126999999993,112.69238299999961,109.87158199999976,116.41015599999992,114.23095699999976
36,115.89746099999957,100.25634799999989,126.53857400000015,118.84619099999964,127.82031300000017,116.9228520000006,122.56396500000028,119.48730499999965,126.6665039999998,113.9741210000002,115.0,110.89746099999957,114.35888699999941,113.3334960000002
37,123.0771479999994,108.9741210000002,132.6923829999996,123.20507799999996,136.79492200000004,117.43603499999972,128.46142599999985,125.0,130.76904300000024,120.89746099999957,120.0,115.51269500000035,121.41015599999992,113.7177729999994
38,129.87158199999976,115.76904300000024,135.89746099999957,122.30761700000039,137.56396500000028,117.82031300000017,132.82031300000017,129.23095699999976,135.2563479999999,126.2822270000006,123.3334960000002,119.61523400000078,131.0258789999998,114.48730499999965
39,131.2822270000006,113.46142599999985,132.94873000000007,114.48730499999965,126.79492200000004,117.94873000000007,130.89746099999957,127.82031300000017,135.2563479999999,124.61523400000078,121.15380900000036,119.35888699999941,135.51269500000035,114.87158199999976
40,126.41015599999992,101.79492200000004,124.61523400000078,102.82031300000017,110.12841800000024,117.82031300000017,122.30761700000039,120.51269500000035,129.48730499999965,115.38476599999922,113.7177729999994,113.84619099999964,131.6665039999998,114.35888699999941
41,118.58984400000008,87.69238299999961,115.64111300000059,93.7177729999994,97.69238299999961,117.94873000000007,112.30761700000039,111.0258789999998,120.89746099999957,103.58984400000008,104.61523400000078,105.76904300000024,122.43603499999972,113.46142599999985
42,112.05126999999993,79.23095699999976,110.51269500000035,90.89746099999957,96.53857400000015,118.20507799999996,106.79492200000004,104.87158199999976,113.9741210000002,95.89746099999957,98.3334960000002,99.23095699999976,113.46142599999985,112.30761700000039
43,109.74365200000011,80.25634799999989,110.64111300000059,94.48730499999965,105.0,118.3334960000002,108.58984400000008,105.12841800000024,111.6665039999998,96.15380900000036,96.9228520000006,97.56396500000028,109.23095699999976,111.15380900000036
44,111.79492200000004,88.0771479999994,114.48730499999965,100.89746099999957,115.76904300000024,118.3334960000002,115.25634799999989,110.76904300000024,114.10253900000043,102.69238299999961,99.74365200000011,101.0258789999998,110.51269500000035,110.64111300000059
45,116.15380900000036,97.17968800000017,119.23095699999976,106.6665039999998,121.6665039999998,118.3334960000002,121.53857400000015,117.17968800000017,119.48730499999965,110.51269500000035,104.10253900000043,106.79492200000004,115.51269500000035,111.41015599999992
46,120.25634799999989,103.3334960000002,122.69238299999961,109.87158199999976,121.6665039999998,118.0771479999994,123.46142599999985,120.38476599999922,125.25634799999989,115.76904300000024,107.69238299999961,112.05126999999993,120.89746099999957,113.0771479999994
47,123.0771479999994,106.53857400000015,124.23095699999976,110.51269500000035,119.35888699999941,117.69238299999961,121.2822270000006,119.61523400000078,129.7436520000001,117.82031300000017,109.87158199999976,114.87158199999976,124.74365200000011,114.48730499999965
48,125.64111300000059,108.84619099999964,124.87158199999976,110.12841800000024,118.84619099999964,117.30761700000039,118.58984400000008,117.69238299999961,132.94873000000007,118.3334960000002,112.05126999999993,115.89746099999957,126.79492200000004,114.61523400000078
49,128.20507799999996,110.64111300000059,125.38476599999922,109.10253900000043,120.38476599999922,117.56396500000028,117.94873000000007,117.17968800000017,134.23095699999976,119.10253900000043,115.12841800000024,115.76904300000024,127.82031300000017,114.10253900000043
50,128.7177729999994,109.61523400000078,125.0,107.05126999999993,120.25634799999989,117.94873000000007,119.23095699999976,118.3334960000002,132.94873000000007,119.74365200000011,117.94873000000007,114.35888699999941,127.30761700000039,113.58984400000008
51,124.87158199999976,103.0771479999994,122.05126999999993,102.82031300000017,115.12841800000024,117.69238299999961,120.12841800000024,117.94873000000007,128.20507799999996,118.58984400000008,117.17968800000017,110.51269500000035,123.46142599999985,113.84619099999964
52,116.15380900000036,91.6665039999998,116.53857400000015,97.69238299999961,105.64111300000059,116.41015599999992,118.58984400000008,113.46142599999985,120.51269500000035,113.58984400000008,110.64111300000059,105.0,115.51269500000035,114.48730499999965
53,106.9228520000006,82.05126999999993,110.64111300000059,94.61523400000078,97.30761700000039,115.25634799999989,114.61523400000078,106.0258789999998,112.30761700000039,105.51269500000035,100.89746099999957,100.38476599999922,106.2822270000006,114.61523400000078
54,102.56396500000028,81.2822270000006,107.69238299999961,96.0258789999998,96.15380900000036,115.0,110.76904300000024,100.12841800000024,107.17968800000017,98.20507799999996,94.48730499999965,99.10253900000043,100.64111300000059,114.10253900000043
55,105.64111300000059,90.25634799999989,108.84619099999964,100.76904300000024,102.82031300000017,115.89746099999957,109.10253900000043,98.9741210000002,106.6665039999998,95.76904300000024,95.89746099999957,101.9228520000006,102.17968800000017,112.69238299999961
56,112.82031300000017,101.41015599999992,112.05126999999993,104.23095699999976,110.76904300000024,117.05126999999993,110.25634799999989,101.53857400000015,108.84619099999964,98.58984400000008,103.46142599999985,106.2822270000006,108.84619099999964,111.41015599999992
57,118.0771479999994,105.38476599999922,113.9741210000002,102.05126999999993,112.05126999999993,117.05126999999993,112.43603499999972,103.9741210000002,109.23095699999976,102.43603499999972,110.76904300000024,108.9741210000002,115.25634799999989,111.2822270000006
58,118.0771479999994,99.61523400000078,113.3334960000002,95.0,105.64111300000059,116.15380900000036,113.3334960000002,103.7177729999994,106.15380900000036,103.20507799999996,112.43603499999972,108.58984400000008,117.05126999999993,112.56396500000028
59,115.0,90.12841800000024,112.69238299999961,88.9741210000002,97.94873000000007,114.87158199999976,113.0771479999994,102.05126999999993,101.53857400000015,100.25634799999989,108.9741210000002,106.2822270000006,114.74365200000011,114.48730499999965
60,113.9741210000002,86.53857400000015,115.0,90.12841800000024,97.17968800000017,114.48730499999965,113.3334960000002,102.69238299999961,100.12841800000024,97.30761700000039,105.38476599999922,105.25634799999989,112.30761700000039,115.89746099999957
61,118.3334960000002,93.0771479999994,121.15380900000036,98.84619099999964,105.0,115.64111300000059,115.38476599999922,107.56396500000028,104.35888699999941,97.82031300000017,106.0258789999998,108.20507799999996,113.58984400000008,116.2822270000006
62,126.41015599999992,105.64111300000059,128.3334960000002,109.48730499999965,115.51269500000035,117.94873000000007,118.3334960000002,114.48730499999965,112.82031300000017,101.9228520000006,111.2822270000006,114.74365200000011,117.56396500000028,115.89746099999957
63,133.0771479999994,115.76904300000024,132.17968800000017,115.51269500000035,120.76904300000024,119.74365200000011,119.48730499999965,118.58984400000008,120.25634799999989,106.53857400000015,116.6665039999998,120.38476599999922,120.64111300000059,115.12841800000024
64,134.10253900000043,117.05126999999993,130.6411130000006,113.58984400000008,117.43603499999972,119.74365200000011,116.2822270000006,116.41015599999992,121.53857400000015,108.3334960000002,117.82031300000017,120.89746099999957,119.23095699999976,114.23095699999976
65,128.9741210000002,110.12841800000024,124.87158199999976,106.15380900000036,108.0771479999994,117.56396500000028,108.7177729999994,108.7177729999994,115.12841800000024,106.15380900000036,113.3334960000002,115.76904300000024,113.20507799999996,113.3334960000002
66,121.0258789999998,100.76904300000024,118.58984400000008,98.84619099999964,98.7177729999994,114.35888699999941,100.38476599999922,100.25634799999989,105.0,102.56396500000028,106.2822270000006,108.46142599999985,106.15380900000036,112.43603499999972
67,115.51269500000035,95.89746099999957,115.51269500000035,97.05126999999993,94.87158199999976,112.05126999999993,95.89746099999957,96.15380900000036,97.56396500000028,101.41015599999992,102.69238299999961,103.7177729999994,103.0771479999994,111.79492200000004
68,115.89746099999957,98.7177729999994,116.9228520000006,102.05126999999993,98.20507799999996,112.17968800000017,98.20507799999996,99.35888699999941,97.69238299999961,105.25634799999989,106.2822270000006,103.7177729999994,106.9228520000006,111.41015599999992
69,120.38476599999922,106.0258789999998,120.76904300000024,109.48730499999965,105.38476599999922,114.35888699999941,105.89746099999957,107.69238299999961,104.87158199999976,112.69238299999961,114.74365200000011,107.43603499999972,115.25634799999989,111.9228520000006
70,123.58984400000008,111.2822270000006,122.56396500000028,112.82031300000017,110.64111300000059,116.6665039999998,114.35888699999941,115.38476599999922,113.9741210000002,118.46142599999985,121.9228520000006,111.15380900000036,121.2822270000006,113.20507799999996
71,121.53857400000015,109.23095699999976,119.48730499999965,108.3334960000002,110.89746099999957,117.69238299999961,118.7177729999994,117.82031300000017,119.10253900000043,118.20507799999996,122.05126999999993,111.6665039999998,120.12841800000024,114.35888699999941
72,115.38476599999922,101.6665039999998,112.94873000000007,99.61523400000078,107.69238299999961,116.9228520000006,117.43603499999972,114.61523400000078,118.20507799999996,112.17968800000017,116.2822270000006,108.58984400000008,113.84619099999964,114.35888699999941
73,110.89746099999957,95.89746099999957,108.46142599999985,94.48730499999965,105.76904300000024,115.64111300000059,113.58984400000008,109.74365200000011,114.10253900000043,105.64111300000059,111.53857400000015,104.74365200000011,109.61523400000078,113.58984400000008
74,112.82031300000017,98.84619099999964,110.0,98.3334960000002,108.58984400000008,115.51269500000035,111.79492200000004,107.82031300000017,111.6665039999998,104.35888699999941,113.7177729999994,102.82031300000017,113.0771479999994,113.0771479999994
75,120.38476599999922,109.74365200000011,116.6665039999998,108.7177729999994,114.87158199999976,116.6665039999998,113.84619099999964,110.12841800000024,113.9741210000002,109.23095699999976,121.41015599999992,103.7177729999994,122.43603499999972,113.20507799999996
76,127.56396500000028,119.74365200000011,122.43603499999972,117.82031300000017,119.48730499999965,118.3334960000002,117.69238299999961,113.9741210000002,118.7177729999994,115.38476599999922,127.56396500000028,105.89746099999957,129.48730499999965,113.7177729999994
77,128.46142599999985,119.87158199999976,121.53857400000015,118.3334960000002,117.17968800000017,119.35888699999941,118.84619099999964,115.25634799999989,121.0258789999998,116.9228520000006,125.76904300000024,107.05126999999993,127.05126999999993,113.58984400000008
78,121.9228520000006,108.58984400000008,114.35888699999941,108.84619099999964,107.82031300000017,118.9741210000002,115.0,112.17968800000017,117.69238299999961,112.30761700000039,116.6665039999998,105.89746099999957,115.12841800000024,113.3334960000002
79,112.30761700000039,93.0771479999994,106.15380900000036,94.74365200000011,96.6665039999998,117.94873000000007,108.0771479999994,106.0258789999998,109.87158199999976,105.12841800000024,106.15380900000036,103.0771479999994,101.53857400000015,113.3334960000002
80,105.0,83.7177729999994,102.43603499999972,83.46142599999985,90.64111300000059,117.05126999999993,102.30761700000039,100.51269500000035,102.82031300000017,100.25634799999989,100.64111300000059,100.38476599999922,95.38476599999922,113.7177729999994
81,102.94873000000007,85.12841800000024,104.61523400000078,79.48730499999965,92.69238299999961,116.9228520000006,100.64111300000059,98.46142599999985,100.51269500000035,99.74365200000011,102.05126999999993,99.48730499999965,99.23095699999976,114.48730499999965
82,104.74365200000011,93.84619099999964,108.9741210000002,81.79492200000004,99.35888699999941,117.30761700000039,103.0771479999994,100.76904300000024,102.94873000000007,101.9228520000006,106.53857400000015,100.25634799999989,108.3334960000002,115.38476599999922
83,106.6665039999998,101.41015599999992,110.89746099999957,86.2822270000006,103.84619099999964,117.17968800000017,106.9228520000006,104.87158199999976,106.6665039999998,104.10253900000043,109.35888699999941,101.79492200000004,114.87158199999976,115.76904300000024
84,106.41015599999992,102.05126999999993,108.84619099999964,88.9741210000002,101.15380900000036,116.41015599999992,108.84619099999964,107.43603499999972,108.58984400000008,104.74365200000011,107.82031300000017,102.56396500000028,113.84619099999964,115.12841800000024
85,104.10253900000043,96.2822270000006,104.61523400000078,88.46142599999985,92.69238299999961,115.38476599999922,107.69238299999961,106.2822270000006,107.56396500000028,103.58984400000008,103.46142599999985,102.30761700000039,105.89746099999957,113.3334960000002
86,102.69238299999961,89.87158199999976,102.30761700000039,86.15380900000036,85.0,115.25634799999989,104.10253900000043,102.05126999999993,104.23095699999976,101.15380900000036,99.74365200000011,101.0258789999998,96.9228520000006,111.2822270000006
87,104.23095699999976,88.3334960000002,104.35888699999941,83.9741210000002,85.25634799999989,116.6665039999998,100.76904300000024,97.69238299999961,100.25634799999989,99.61523400000078,99.61523400000078,99.48730499999965,93.3334960000002,110.25634799999989
88,108.58984400000008,92.69238299999961,110.25634799999989,83.58984400000008,95.0,118.58984400000008,100.38476599999922,96.53857400000015,97.56396500000028,100.64111300000059,102.69238299999961,98.84619099999964,97.43603499999972,110.51269500000035
89,112.43603499999972,98.7177729999994,115.51269500000035,84.74365200000011,107.56396500000028,119.74365200000011,102.94873000000007,98.9741210000002,96.79492200000004,103.9741210000002,105.38476599999922,99.74365200000011,105.0,111.41015599999992
90,111.79492200000004,100.0,116.0258789999998,85.89746099999957,113.58984400000008,118.9741210000002,106.15380900000036,101.79492200000004,96.79492200000004,105.89746099999957,104.23095699999976,100.64111300000059,108.58984400000008,112.94873000000007
91,105.89746099999957,94.74365200000011,111.2822270000006,86.2822270000006,109.10253900000043,116.9228520000006,106.41015599999992,101.6665039999998,95.89746099999957,103.20507799999996,99.23095699999976,99.23095699999976,104.10253900000043,114.61523400000078
92,98.7177729999994,86.6665039999998,105.38476599999922,85.64111300000059,99.23095699999976,115.64111300000059,102.69238299999961,98.20507799999996,93.9741210000002,95.76904300000024,93.9741210000002,95.0,94.48730499999965,115.89746099999957
93,95.12841800000024,82.05126999999993,102.05126999999993,83.7177729999994,92.30761700000039,116.0258789999998,97.17968800000017,93.84619099999964,92.30761700000039,87.69238299999961,92.05126999999993,90.12841800000024,86.53857400000015,115.76904300000024
94,96.6665039999998,83.58984400000008,101.9228520000006,79.87158199999976,92.05126999999993,117.43603499999972,92.94873000000007,91.2822270000006,92.05126999999993,83.46142599999985,93.7177729999994,87.82031300000017,85.0,113.9741210000002
95,101.0258789999998,88.46142599999985,103.20507799999996,74.23095699999976,95.76904300000024,118.20507799999996,91.79492200000004,91.79492200000004,93.3334960000002,85.12841800000024,97.56396500000028,90.12841800000024,90.25634799999989,111.79492200000004
96,104.10253900000043,92.94873000000007,104.10253900000043,69.48730499999965,98.58984400000008,117.05126999999993,93.9741210000002,94.87158199999976,95.12841800000024,91.41015599999992,101.79492200000004,96.0258789999998,98.58984400000008,110.51269500000035
97,104.35888699999941,95.25634799999989,104.61523400000078,68.84619099999964,97.69238299999961,114.74365200000011,97.69238299999961,98.58984400000008,96.9228520000006,98.3334960000002,105.12841800000024,102.05126999999993,105.0,111.2822270000006
98,103.0771479999994,96.15380900000036,105.64111300000059,73.84619099999964,94.35888699999941,113.0771479999994,100.64111300000059,101.15380900000036,98.58984400000008,102.30761700000039,106.41015599999992,104.61523400000078,106.79492200000004,113.3334960000002
99,102.94873000000007,96.79492200000004,107.05126999999993,81.9228520000006,92.69238299999961,113.46142599999985,102.05126999999993,101.9228520000006,100.89746099999957,102.56396500000028,105.12841800000024,103.58984400000008,104.35888699999941,115.12841800000024
100,105.51269500000035,97.94873000000007,108.20507799999996,88.84619099999964,95.38476599999922,115.51269500000035,102.43603499999972,101.9228520000006,103.9741210000002,101.41015599999992,102.30761700000039,101.2822270000006,101.53857400000015,115.0
101,109.74365200000011,99.10253900000043,108.3334960000002,91.9228520000006,100.89746099999957,117.43603499999972,103.0771479999994,102.05126999999993,107.56396500000028,102.05126999999993,100.51269500000035,100.51269500000035,101.9228520000006,112.82031300000017
102,113.3334960000002,99.61523400000078,108.46142599999985,91.15380900000036,105.38476599999922,117.94873000000007,104.61523400000078,103.20507799999996,111.15380900000036,105.76904300000024,101.79492200000004,101.53857400000015,106.2822270000006,110.51269500000035
103,114.61523400000078,99.48730499999965,110.0,89.35888699999941,106.15380900000036,117.05126999999993,106.9228520000006,105.64111300000059,114.35888699999941,111.41015599999992,106.79492200000004,103.7177729999994,112.30761700000039,110.64111300000059
104,113.7177729999994,99.74365200000011,113.3334960000002,89.23095699999976,104.23095699999976,115.89746099999957,108.58984400000008,109.35888699999941,116.79492200000004,116.9228520000006,113.20507799999996,106.41015599999992,116.41015599999992,113.46142599999985
105,112.17968800000017,100.76904300000024,116.41015599999992,92.30761700000039,102.82031300000017,115.38476599999922,108.58984400000008,113.3334960000002,117.43603499999972,120.12841800000024,118.3334960000002,108.58984400000008,116.53857400000015,117.30761700000039
106,111.2822270000006,102.94873000000007,117.05126999999993,97.56396500000028,104.23095699999976,116.0258789999998,106.53857400000015,115.12841800000024,115.64111300000059,119.74365200000011,119.48730499999965,109.48730499999965,113.58984400000008,119.48730499999965
107,111.53857400000015,106.15380900000036,115.38476599999922,102.43603499999972,107.69238299999961,117.05126999999993,103.3334960000002,113.7177729999994,112.69238299999961,116.2822270000006,117.05126999999993,108.9741210000002,110.76904300000024,118.84619099999964
108,113.0771479999994,110.12841800000024,114.10253900000043,105.51269500000035,110.12841800000024,118.0771479999994,101.2822270000006,109.61523400000078,111.0258789999998,111.41015599999992,113.46142599999985,107.94873000000007,111.15380900000036,116.41015599999992
109,116.0258789999998,114.35888699999941,115.51269500000035,106.2822270000006,108.9741210000002,118.46142599999985,102.43603499999972,106.0258789999998,112.05126999999993,107.30761700000039,112.30761700000039,108.0771479999994,115.64111300000059,114.10253900000043
110,119.74365200000011,118.0771479999994,119.87158199999976,105.76904300000024,105.12841800000024,118.7177729999994,106.79492200000004,105.64111300000059,115.12841800000024,105.89746099999957,115.0,109.87158199999976,121.9228520000006,112.94873000000007
111,122.69238299999961,120.12841800000024,125.25634799999989,104.74365200000011,102.43603499999972,118.9741210000002,112.56396500000028,109.48730499999965,118.3334960000002,107.82031300000017,118.9741210000002,112.43603499999972,126.15380900000036,112.94873000000007
112,122.43603499999972,119.74365200000011,128.20507799999996,103.20507799999996,103.84619099999964,118.9741210000002,116.0258789999998,115.0,119.74365200000011,112.05126999999993,120.12841800000024,113.58984400000008,125.51269500000035,113.3334960000002
113,117.69238299999961,117.43603499999972,126.41015599999992,100.89746099999957,108.58984400000008,118.3334960000002,115.0,117.82031300000017,118.46142599999985,115.38476599999922,116.41015599999992,112.05126999999993,119.74365200000011,113.20507799999996
114,110.64111300000059,114.87158199999976,120.89746099999957,98.9741210000002,113.46142599999985,116.9228520000006,109.61523400000078,115.64111300000059,115.25634799999989,115.76904300000024,110.12841800000024,108.7177729999994,112.43603499999972,112.17968800000017
115,105.76904300000024,114.10253900000043,115.51269500000035,98.9741210000002,116.79492200000004,115.12841800000024,103.9741210000002,109.35888699999941,112.43603499999972,114.10253900000043,105.51269500000035,106.0258789999998,108.20507799999996,111.15380900000036
116,106.9228520000006,115.89746099999957,113.9741210000002,101.41015599999992,118.20507799999996,114.10253900000043,101.6665039999998,103.46142599999985,112.69238299999961,113.46142599999985,105.51269500000035,106.15380900000036,109.10253900000043,110.89746099999957
117,112.82031300000017,118.20507799999996,116.2822270000006,104.35888699999941,117.43603499999972,114.10253900000043,103.58984400000008,101.0258789999998,115.64111300000059,115.12841800000024,108.58984400000008,108.3334960000002,112.69238299999961,111.79492200000004
118,117.82031300000017,117.43603499999972,119.10253900000043,104.61523400000078,113.9741210000002,115.0,106.6665039999998,101.9228520000006,117.69238299999961,116.79492200000004,110.76904300000024,110.25634799999989,113.58984400000008,112.82031300000017
119,116.79492200000004,112.69238299999961,119.48730499999965,101.2822270000006,108.7177729999994,115.89746099999957,107.94873000000007,103.3334960000002,116.0258789999998,115.38476599999922,108.84619099999964,109.87158199999976,109.35888699999941,113.0771479999994
120,110.25634799999989,106.79492200000004,117.56396500000028,95.89746099999957,104.23095699999976,116.41015599999992,106.6665039999998,102.94873000000007,110.76904300000024,110.38476599999922,103.7177729999994,106.9228520000006,102.30761700000039,112.94873000000007
121,103.3334960000002,103.7177729999994,115.64111300000059,92.05126999999993,103.20507799999996,116.9228520000006,104.61523400000078,100.64111300000059,104.87158199999976,104.74365200000011,98.84619099999964,103.0771479999994,97.56396500000028,112.82031300000017
122,100.38476599999922,105.25634799999989,115.38476599999922,92.05126999999993,105.51269500000035,117.30761700000039,103.84619099999964,98.46142599999985,101.6665039999998,102.43603499999972,97.43603499999972,100.64111300000059,97.94873000000007,112.94873000000007
123,101.9228520000006,109.35888699999941,116.53857400000015,95.0,109.35888699999941,117.82031300000017,105.25634799999989,98.46142599999985,102.43603499999972,104.74365200000011,99.61523400000078,100.51269500000035,102.17968800000017,112.69238299999961
124,105.0,112.82031300000017,117.05126999999993,98.58984400000008,111.79492200000004,117.94873000000007,107.43603499999972,100.64111300000059,105.51269500000035,108.84619099999964,102.69238299999961,102.05126999999993,106.6665039999998,112.05126999999993
125,106.79492200000004,113.58984400000008,115.51269500000035,101.53857400000015,111.6665039999998,117.56396500000028,108.0771479999994,102.69238299999961,108.3334960000002,110.25634799999989,103.7177729999994,103.3334960000002,108.0771479999994,111.6665039999998
126,106.6665039999998,112.43603499999972,112.43603499999972,102.94873000000007,110.51269500000035,116.9228520000006,106.2822270000006,103.20507799999996,108.58984400000008,107.17968800000017,102.30761700000039,103.3334960000002,106.15380900000036,112.05126999999993
127,106.2822270000006,112.05126999999993,110.12841800000024,103.46142599999985,111.0258789999998,116.15380900000036,103.20507799999996,102.43603499999972,107.17968800000017,102.05126999999993,100.38476599999922,102.17968800000017,103.3334960000002,112.94873000000007
128,108.0771479999994,113.84619099999964,110.38476599999922,103.3334960000002,114.74365200000011,115.76904300000024,101.15380900000036,102.17968800000017,105.51269500000035,98.7177729999994,100.25634799999989,101.41015599999992,102.05126999999993,114.10253900000043
129,111.2822270000006,116.79492200000004,113.3334960000002,102.05126999999993,118.9741210000002,115.89746099999957,100.89746099999957,102.69238299999961,105.0,98.84619099999964,102.17968800000017,101.41015599999992,102.56396500000028,114.87158199999976
130,113.20507799999996,118.20507799999996,116.53857400000015,99.35888699999941,118.46142599999985,116.41015599999992,101.6665039999998,102.94873000000007,105.12841800000024,101.2822270000006,103.9741210000002,101.79492200000004,103.58984400000008,114.74365200000011
131,111.79492200000004,117.43603499999972,117.56396500000028,95.89746099999957,110.64111300000059,116.2822270000006,102.17968800000017,102.17968800000017,105.0,103.46142599999985,103.46142599999985,102.17968800000017,104.23095699999976,113.58984400000008
132,108.58984400000008,116.9228520000006,116.2822270000006,93.7177729999994,99.74365200000011,115.51269500000035,101.9228520000006,101.0258789999998,104.23095699999976,104.10253900000043,102.05126999999993,102.82031300000017,106.2822270000006,111.6665039999998
133,108.0771479999994,119.87158199999976,114.48730499999965,94.61523400000078,93.58984400000008,115.0,101.9228520000006,100.38476599999922,103.20507799999996,104.48730499999965,103.46142599999985,104.48730499999965,112.05126999999993,110.51269500000035
134,113.46142599999985,126.53857400000015,114.87158199999976,97.82031300000017,97.30761700000039,115.76904300000024,102.56396500000028,100.51269500000035,103.46142599999985,106.41015599999992,110.12841800000024,107.17968800000017,122.30761700000039,111.0258789999998
135,123.3334960000002,133.0771479999994,117.94873000000007,101.0258789999998,107.94873000000007,117.05126999999993,103.20507799999996,101.2822270000006,105.25634799999989,111.0258789999998,120.25634799999989,110.12841800000024,134.23095699999976,112.82031300000017
136,132.56396500000028,134.87158199999976,122.17968800000017,101.9228520000006,117.43603499999972,117.05126999999993,103.0771479999994,102.05126999999993,108.3334960000002,117.17968800000017,128.9741210000002,112.43603499999972,144.3588869999994,114.61523400000078
137,136.41015599999992,131.53857400000015,125.76904300000024,101.53857400000015,119.10253900000043,114.74365200000011,102.43603499999972,103.46142599999985,111.53857400000015,122.05126999999993,132.05126999999993,113.58984400000008,150.89746099999957,115.25634799999989
138,134.48730499999965,126.79492200000004,127.56396500000028,102.30761700000039,113.20507799999996,111.15380900000036,102.17968800000017,105.51269500000035,114.10253900000043,122.82031300000017,128.84619099999964,113.84619099999964,154.3588869999994,114.48730499999965
139,130.51269500000035,125.76904300000024,128.0771479999994,105.25634799999989,104.61523400000078,108.20507799999996,102.94873000000007,108.0771479999994,115.12841800000024,118.7177729999994,122.94873000000007,113.58984400000008,156.79492200000004,113.20507799999996
140,129.61523400000078,131.41015599999992,128.3334960000002,109.35888699999941,98.0771479999994,107.56396500000028,104.10253900000043,109.48730499999965,113.84619099999964,111.53857400000015,118.58984400000008,113.20507799999996,159.61523400000078,112.43603499999972
141,133.58984400000008,143.0771479999994,129.7436520000001,112.30761700000039,95.38476599999922,108.9741210000002,104.10253900000043,108.58984400000008,110.25634799999989,104.35888699999941,118.9741210000002,112.82031300000017,164.3588869999994,113.0771479999994
142,141.53857400000015,158.46142599999985,132.05126999999993,113.58984400000008,96.41015599999992,111.79492200000004,102.82031300000017,105.51269500000035,106.0258789999998,100.89746099999957,123.58984400000008,112.82031300000017,171.41015599999992,115.0
143,150.76904300000024,175.0,134.48730499999965,115.25634799999989,100.0,114.23095699999976,101.41015599999992,101.6665039999998,103.46142599999985,102.69238299999961,129.87158199999976,113.3334960000002,180.38476599999922,116.41015599999992
144,159.48730499999965,191.0258789999998,136.15380900000036,121.0258789999998,105.25634799999989,115.25634799999989,100.76904300000024,99.48730499999965,103.3334960000002,108.46142599999985,134.87158199999976,114.61523400000078,189.48730499999965,115.89746099999957
145,166.15380900000036,205.38476599999922,136.6665039999998,131.9228520000006,110.12841800000024,114.74365200000011,101.0258789999998,100.12841800000024,103.58984400000008,113.3334960000002,136.79492200000004,115.89746099999957,195.0,113.46142599999985
146,169.48730499999965,217.05126999999993,136.15380900000036,144.23095699999976,111.9228520000006,113.58984400000008,100.89746099999957,101.79492200000004,101.79492200000004,112.82031300000017,135.2563479999999,116.41015599999992,193.20507799999996,110.76904300000024
147,169.10253900000043,225.12841800000024,135.2563479999999,152.05126999999993,108.7177729999994,112.94873000000007,98.58984400000008,101.15380900000036,97.30761700000039,105.25634799999989,131.2822270000006,115.51269500000035,183.7177729999994,109.74365200000011
148,166.53857400000015,230.51269500000035,134.10253900000043,152.05126999999993,101.79492200000004,112.94873000000007,93.9741210000002,96.53857400000015,90.89746099999957,93.7177729999994,125.76904300000024,113.9741210000002,170.51269500000035,110.76904300000024
149,164.3588869999994,235.0,133.0771479999994,146.0258789999998,95.89746099999957,113.3334960000002,88.58984400000008,89.35888699999941,85.25634799999989,83.9741210000002,120.38476599999922,113.0771479999994,159.87158199999976,112.94873000000007
150,164.48730499999965,240.38476599999922,132.82031300000017,139.48730499999965,95.51269500000035,113.9741210000002,85.25634799999989,83.84619099999964,82.69238299999961,80.0,116.53857400000015,113.7177729999994,155.0,114.48730499999965
151,167.05126999999993,247.3076170000004,133.9741210000002,137.3076170000004,101.15380900000036,115.0,85.51269500000035,83.20507799999996,83.7177729999994,81.79492200000004,115.25634799999989,115.25634799999989,154.87158199999976,113.9741210000002
152,171.2822270000006,255.6411130000006,137.17968800000017,140.76904300000024,108.84619099999964,116.41015599999992,88.58984400000008,87.05126999999993,86.53857400000015,85.64111300000059,116.0258789999998,116.2822270000006,155.12841800000024,111.79492200000004
153,176.2822270000006,265.76904300000024,141.79492200000004,147.05126999999993,113.3334960000002,117.17968800000017,92.05126999999993,91.6665039999998,88.46142599999985,88.20507799999996,117.56396500000028,116.41015599999992,152.6923829999996,109.61523400000078
154,180.76904300000024,276.6665039999998,145.76904300000024,152.82031300000017,112.05126999999993,116.6665039999998,93.3334960000002,93.3334960000002,87.82031300000017,87.56396500000028,117.82031300000017,116.41015599999992,146.79492200000004,108.7177729999994
155,183.0771479999994,286.79492200000004,146.6665039999998,155.6411130000006,107.05126999999993,114.74365200000011,91.41015599999992,90.76904300000024,84.48730499999965,83.9741210000002,115.51269500000035,116.53857400000015,139.3588869999994,109.61523400000078
156,182.17968800000017,293.9741210000002,143.9741210000002,155.51269500000035,103.0771479999994,112.56396500000028,87.56396500000028,86.0258789999998,79.87158199999976,78.3334960000002,110.89746099999957,116.53857400000015,132.43603499999972,111.41015599999992
157,178.20507799999996,296.53857400000015,138.84619099999964,152.94873000000007,102.69238299999961,111.53857400000015,84.61523400000078,82.56396500000028,76.0258789999998,72.05126999999993,105.51269500000035,115.64111300000059,126.41015599999992,112.82031300000017
158,172.6923829999996,293.84619099999964,134.10253900000043,148.58984400000008,104.87158199999976,112.30761700000039,83.7177729999994,82.69238299999961,74.23095699999976,66.53857400000015,100.76904300000024,113.84619099999964,120.51269500000035,113.7177729999994
159,167.82031300000017,288.3334960000002,131.9228520000006,144.10253900000043,105.64111300000059,113.7177729999994,84.35888699999941,86.15380900000036,74.10253900000043,63.846190999999635,97.30761700000039,111.41015599999992,114.23095699999976,114.23095699999976
160,165.51269500000035,284.87158199999976,132.6923829999996,142.17968800000017,102.94873000000007,114.48730499999965,84.23095699999976,89.74365200000011,74.61523400000078,64.87158199999976,94.74365200000011,108.46142599999985,107.82031300000017,114.35888699999941
161,166.0258789999998,287.6923829999996,134.3588869999994,145.0,99.35888699999941,114.35888699999941,82.05126999999993,89.87158199999976,74.74365200000011,68.0771479999994,92.17968800000017,105.76904300000024,101.41015599999992,113.84619099999964
162,167.6923829999996,296.15380900000036,135.12841800000024,152.05126999999993,98.46142599999985,114.10253900000043,78.3334960000002,85.12841800000024,74.23095699999976,70.0,88.7177729999994,103.58984400000008,93.58984400000008,112.69238299999961
163,167.6923829999996,305.0,133.7177729999994,160.38476599999922,101.2822270000006,113.9741210000002,75.38476599999922,77.43603499999972,72.43603499999972,67.69238299999961,83.7177729999994,102.43603499999972,82.69238299999961,111.6665039999998
164,164.7436520000001,309.48730499999965,131.41015599999992,166.2822270000006,105.89746099999957,113.84619099999964,75.25634799999989,70.76904300000024,69.10253900000043,60.64111300000059,76.53857400000015,102.05126999999993,69.23095699999976,111.15380900000036
165,159.61523400000078,308.84619099999964,129.87158199999976,166.9228520000006,109.87158199999976,113.3334960000002,78.20507799999996,68.20507799999996,65.38476599999922,52.30761700000039,69.10253900000043,101.53857400000015,57.17968800000017,111.2822270000006
166,155.12841800000024,307.17968800000017,129.87158199999976,163.0771479999994,112.43603499999972,112.69238299999961,82.56396500000028,70.76904300000024,64.10253900000043,48.0771479999994,64.61523400000078,101.0258789999998,51.666503999999804,112.05126999999993
167,154.3588869999994,309.10253900000043,131.6665039999998,158.46142599999985,115.12841800000024,113.20507799999996,85.89746099999957,76.6665039999998,67.30761700000039,51.666503999999804,65.76904300000024,101.0258789999998,54.87158199999976,113.46142599999985
168,158.3334960000002,316.79492200000004,133.9741210000002,157.82031300000017,119.23095699999976,115.25634799999989,87.05126999999993,83.0771479999994,74.74365200000011,61.410155999999915,71.79492200000004,102.17968800000017,64.35888699999941,114.61523400000078
169,164.3588869999994,327.82031300000017,135.51269500000035,162.05126999999993,125.0,117.05126999999993,86.6665039999998,87.43603499999972,83.46142599999985,71.6665039999998,78.84619099999964,103.58984400000008,73.84619099999964,114.74365200000011
170,167.05126999999993,336.53857400000015,135.12841800000024,167.43603499999972,129.61523400000078,116.41015599999992,86.15380900000036,87.56396500000028,88.3334960000002,76.53857400000015,82.05126999999993,103.58984400000008,75.89746099999957,113.7177729999994
171,162.82031300000017,338.3334960000002,132.6923829999996,168.7177729999994,129.3588869999994,113.20507799999996,85.89746099999957,83.20507799999996,85.51269500000035,73.20507799999996,79.35888699999941,102.17968800000017,67.82031300000017,112.43603499999972
172,153.20507799999996,332.4360349999997,129.23095699999976,163.3334960000002,123.58984400000008,108.9741210000002,84.87158199999976,75.76904300000024,74.87158199999976,63.589844000000085,71.79492200000004,100.0,53.0771479999994,111.15380900000036
173,143.9741210000002,322.82031300000017,126.41015599999992,154.3588869999994,116.15380900000036,105.89746099999957,82.43603499999972,68.58984400000008,60.897460999999566,52.43603499999972,63.7177729999994,98.3334960000002,38.974121000000196,110.25634799999989
174,140.6411130000006,314.3588869999994,125.25634799999989,147.3076170000004,112.43603499999972,105.12841800000024,79.35888699999941,64.61523400000078,50.76904300000024,44.61523400000078,59.87158199999976,97.56396500000028,32.17968800000017,110.0
175,143.7177729999994,310.0,125.51269500000035,145.76904300000024,113.84619099999964,106.41015599999992,76.79492200000004,64.87158199999976,48.0771479999994,41.79492200000004,61.2822270000006,97.43603499999972,33.974121000000196,111.15380900000036
176,149.23095699999976,309.3588869999994,125.89746099999957,148.46142599999985,117.05126999999993,108.58984400000008,75.64111300000059,67.43603499999972,51.410155999999915,43.0771479999994,64.35888699999941,96.9228520000006,40.38476599999922,113.58984400000008
177,151.41015599999992,309.23095699999976,124.61523400000078,150.38476599999922,117.30761700000039,110.0,75.38476599999922,69.48730499999965,55.51269500000035,45.0,64.48730499999965,94.74365200000011,45.64111300000059,116.2822270000006
178,147.17968800000017,306.53857400000015,121.0258789999998,147.56396500000028,112.30761700000039,109.23095699999976,74.61523400000078,68.84619099999964,56.410155999999915,45.25634799999989,59.87158199999976,90.76904300000024,46.025878999999804,117.17968800000017
179,137.82031300000017,300.12841800000024,115.76904300000024,140.0,103.7177729999994,106.79492200000004,72.82031300000017,66.41015599999992,54.35888699999941,44.102539000000434,53.0771479999994,86.2822270000006,41.53857400000015,115.64111300000059
180,129.3588869999994,291.9228520000006,111.2822270000006,131.15380900000036,97.05126999999993,104.61523400000078,71.79492200000004,65.51269500000035,53.589844000000085,44.61523400000078,49.48730499999965,84.35888699999941,35.897460999999566,112.69238299999961
181,127.56396500000028,284.87158199999976,110.89746099999957,126.41015599999992,97.17968800000017,104.35888699999941,73.58984400000008,69.61523400000078,58.20507799999996,49.74365200000011,53.20507799999996,86.9228520000006,34.48730499999965,109.87158199999976
182,134.61523400000078,282.3076170000004,115.76904300000024,129.10253900000043,105.25634799999989,106.15380900000036,78.9741210000002,78.9741210000002,69.10253900000043,59.61523400000078,64.61523400000078,93.58984400000008,40.51269500000035,108.7177729999994
183,146.79492200000004,285.2563479999999,124.48730499999965,138.3334960000002,117.30761700000039,109.35888699999941,86.2822270000006,90.64111300000059,82.56396500000028,71.6665039999998,79.48730499999965,101.79492200000004,52.56396500000028,109.74365200000011
184,156.79492200000004,291.15380900000036,132.6923829999996,149.10253900000043,127.05126999999993,112.56396500000028,92.17968800000017,99.35888699999941,93.0771479999994,81.41015599999992,92.05126999999993,107.94873000000007,64.61523400000078,112.56396500000028
185,158.20507799999996,294.3588869999994,136.15380900000036,155.51269500000035,129.61523400000078,115.0,93.7177729999994,101.53857400000015,96.79492200000004,85.0,97.56396500000028,109.87158199999976,69.23095699999976,115.38476599999922
186,149.23095699999976,289.3588869999994,133.3334960000002,154.23095699999976,125.12841800000024,115.76904300000024,90.0,97.17968800000017,94.35888699999941,81.6665039999998,94.35888699999941,107.56396500000028,63.0771479999994,116.41015599999992
187,134.23095699999976,275.0,126.41015599999992,146.53857400000015,117.82031300000017,114.87158199999976,84.10253900000043,90.0,88.58984400000008,74.23095699999976,83.9741210000002,102.94873000000007,48.333496000000196,115.38476599999922
188,120.51269500000035,256.15380900000036,118.9741210000002,137.17968800000017,113.7177729999994,113.20507799999996,80.12841800000024,84.35888699999941,83.58984400000008,67.30761700000039,71.53857400000015,98.0771479999994,31.922852000000603,113.46142599999985
189,113.20507799999996,240.89746099999957,114.23095699999976,131.2822270000006,116.41015599999992,112.56396500000028,81.53857400000015,82.82031300000017,81.9228520000006,65.25634799999989,62.94873000000007,94.35888699999941,21.025878999999804,111.79492200000004
190,112.69238299999961,235.0,112.69238299999961,130.2563479999999,124.74365200000011,113.9741210000002,88.3334960000002,85.76904300000024,84.23095699999976,69.74365200000011,61.79492200000004,92.05126999999993,18.461425999999847,111.15380900000036
191,115.0,236.79492200000004,113.20507799999996,132.3076170000004,132.6923829999996,116.53857400000015,97.17968800000017,91.15380900000036,88.9741210000002,78.3334960000002,66.41015599999992,90.12841800000024,22.17968800000017,111.0258789999998
192,115.0,239.3588869999994,113.0771479999994,132.43603499999972,134.23095699999976,117.94873000000007,103.3334960000002,96.53857400000015,93.9741210000002,86.0258789999998,71.53857400000015,88.3334960000002,26.538574000000153,111.15380900000036
193,109.87158199999976,235.0,110.25634799999989,126.6665039999998,127.17968800000017,116.53857400000015,102.82031300000017,100.0,97.05126999999993,88.20507799999996,71.79492200000004,85.89746099999957,25.384765999999217,111.0258789999998
194,100.76904300000024,222.05126999999993,104.48730499999965,114.74365200000011,115.12841800000024,112.69238299999961,95.51269500000035,100.38476599999922,97.17968800000017,84.10253900000043,65.25634799999989,83.20507799999996,16.410155999999915,110.51269500000035
195,92.30761700000039,206.15380900000036,98.46142599999985,101.53857400000015,106.0258789999998,109.23095699999976,85.89746099999957,98.0771479999994,95.25634799999989,77.30761700000039,55.38476599999922,80.89746099999957,2.6923829999996087,109.61523400000078
196,89.61523400000078,195.6411130000006,95.76904300000024,94.10253900000043,106.53857400000015,108.7177729999994,80.76904300000024,95.25634799999989,93.46142599999985,73.9741210000002,47.69238299999961,80.25634799999989,-8.846190999999635,109.35888699999941
197,93.58984400000008,195.38476599999922,98.20507799999996,96.15380900000036,117.30761700000039,112.05126999999993,84.74365200000011,95.12841800000024,94.35888699999941,77.30761700000039,47.05126999999993,82.05126999999993,-12.307617000000391,110.12841800000024
198,100.12841800000024,202.05126999999993,103.7177729999994,105.25634799999989,131.79492200000004,116.79492200000004,96.79492200000004,99.10253900000043,98.58984400000008,86.0258789999998,53.7177729999994,85.51269500000035,-7.948729999999614,111.6665039999998
199,102.05126999999993,207.05126999999993,107.69238299999961,113.46142599999985,140.2563479999999,119.35888699999941,110.12841800000024,105.25634799999989,103.7177729999994,94.48730499999965,61.666503999999804,88.7177729999994,-1.7949220000000423,112.82031300000017
200,95.12841800000024,202.82031300000017,106.2822270000006,113.46142599999985,136.6665039999998,118.20507799999996,116.41015599999992,108.7177729999994,105.76904300000024,96.53857400000015,63.0771479999994,88.84619099999964,-1.2822270000006029,113.3334960000002
201,80.76904300000024,189.10253900000043,99.10253900000043,103.7177729999994,123.9741210000002,114.35888699999941,111.41015599999992,106.0258789999998,102.30761700000039,89.35888699999941,54.48730499999965,84.48730499999965,-8.974365000000034,113.3334960000002
202,65.76904300000024,171.79492200000004,89.48730499999965,89.35888699999941,110.89746099999957,110.0,98.20507799999996,97.69238299999961,94.35888699999941,75.89746099999957,39.35888699999941,76.79492200000004,-21.666747999999643,113.46142599999985
203,57.17968800000017,158.58984400000008,81.6665039999998,77.43603499999972,104.61523400000078,106.79492200000004,85.25634799999989,87.94873000000007,85.38476599999922,63.46142599999985,25.25634799999989,69.10253900000043,-32.948729999999614,113.20507799999996
204,57.17968800000017,153.3334960000002,79.23095699999976,73.0771479999994,105.76904300000024,105.64111300000059,79.61523400000078,81.79492200000004,79.74365200000011,58.333496000000196,18.717772999999397,65.12841800000024,-37.948729999999614,112.30761700000039
205,63.20507799999996,155.51269500000035,82.56396500000028,76.9228520000006,110.64111300000059,106.79492200000004,83.20507799999996,81.9228520000006,80.38476599999922,62.17968800000017,21.922852000000603,66.9228520000006,-34.8718259999996,111.15380900000036
206,69.87158199999976,162.43603499999972,89.23095699999976,85.89746099999957,116.2822270000006,109.48730499999965,92.17968800000017,88.3334960000002,87.17968800000017,71.2822270000006,32.17968800000017,73.9741210000002,-26.153809000000365,110.38476599999922
207,72.43603499999972,168.84619099999964,95.0,94.35888699999941,120.89746099999957,112.56396500000028,100.89746099999957,97.82031300000017,96.53857400000015,80.0,43.46142599999985,82.30761700000039,-17.435790999999426,110.38476599999922
208,68.3334960000002,169.61523400000078,96.0258789999998,96.9228520000006,123.0771479999994,114.35888699999941,104.87158199999976,105.51269500000035,102.56396500000028,83.20507799999996,49.23095699999976,87.17968800000017,-15.1281740000004,110.89746099999957
209,58.46142599999985,161.79492200000004,91.41015599999992,91.2822270000006,121.41015599999992,114.23095699999976,103.9741210000002,107.17968800000017,101.2822270000006,79.10253900000043,46.2822270000006,85.64111300000059,-22.051270000000386,111.41015599999992
210,47.69238299999961,147.43603499999972,84.35888699999941,80.64111300000059,115.76904300000024,112.05126999999993,100.38476599999922,102.17968800000017,93.84619099999964,70.0,37.05126999999993,78.7177729999994,-35.0,111.53857400000015
211,41.410155999999915,133.20507799999996,79.87158199999976,71.79492200000004,108.7177729999994,109.23095699999976,97.05126999999993,94.10253900000043,85.51269500000035,61.9228520000006,27.82031300000017,70.89746099999957,-46.153809000000365,110.89746099999957
212,42.69238299999961,126.15380900000036,80.89746099999957,70.51269500000035,104.35888699999941,107.69238299999961,95.38476599999922,88.3334960000002,82.05126999999993,60.38476599999922,25.641113000000587,67.17968800000017,-48.974365000000034,109.61523400000078
213,50.897460999999566,130.12841800000024,86.9228520000006,77.43603499999972,106.9228520000006,109.23095699999976,95.64111300000059,88.58984400000008,86.15380900000036,67.94873000000007,32.69238299999961,70.25634799999989,-41.53857400000015,108.84619099999964
214,62.05126999999993,143.0771479999994,95.51269500000035,88.58984400000008,117.69238299999961,113.84619099999964,98.20507799999996,94.87158199999976,95.89746099999957,82.82031300000017,45.76904300000024,78.46142599999985,-28.076904000000013,108.9741210000002
215,71.2822270000006,157.43603499999972,102.82031300000017,97.69238299999961,132.17968800000017,118.84619099999964,102.56396500000028,103.84619099999964,105.89746099999957,98.84619099999964,57.43603499999972,87.30761700000039,-15.1281740000004,110.25634799999989
216,73.58984400000008,164.61523400000078,105.25634799999989,99.74365200000011,141.9228520000006,120.12841800000024,106.2822270000006,109.87158199999976,111.0258789999998,107.69238299999961,60.25634799999989,91.41015599999992,-9.358886999999868,111.79492200000004
217,66.53857400000015,158.7177729999994,100.25634799999989,93.0771479999994,138.46142599999985,115.89746099999957,105.89746099999957,108.58984400000008,108.0771479999994,103.20507799999996,51.53857400000015,87.82031300000017,-15.0,113.46142599999985
218,52.56396500000028,141.6665039999998,89.23095699999976,80.51269500000035,121.6665039999998,108.58984400000008,100.12841800000024,99.48730499999965,97.82031300000017,86.2822270000006,35.0,78.0771479999994,-30.0,114.61523400000078
219,39.35888699999941,122.43603499999972,77.43603499999972,68.46142599999985,100.76904300000024,103.3334960000002,91.9228520000006,87.30761700000039,85.38476599999922,65.76904300000024,19.615234000000783,67.94873000000007,-46.53857400000015,115.25634799999989
220,34.102539000000434,111.2822270000006,70.89746099999957,62.82031300000017,88.58984400000008,102.94873000000007,86.41015599999992,79.48730499999965,77.43603499999972,53.46142599999985,14.102539000000434,63.0771479999994,-55.25634799999989,114.74365200000011
221,38.20507799999996,111.9228520000006,72.05126999999993,64.74365200000011,92.05126999999993,107.17968800000017,86.41015599999992,80.0,77.05126999999993,54.48730499999965,20.0,65.25634799999989,-52.435790999999426,113.3334960000002
222,46.666503999999804,120.0,77.94873000000007,70.25634799999989,107.43603499999972,112.30761700000039,90.89746099999957,87.05126999999993,82.56396500000028,65.25634799999989,31.025878999999804,71.53857400000015,-42.051270000000386,111.79492200000004
223,52.56396500000028,127.94873000000007,83.9741210000002,74.74365200000011,124.48730499999965,114.61523400000078,96.79492200000004,95.25634799999989,89.10253900000043,77.30761700000039,38.846190999999635,77.05126999999993,-31.794922000000042,110.38476599999922
224,53.333496000000196,131.6665039999998,87.17968800000017,77.30761700000039,134.48730499999965,113.20507799999996,101.41015599999992,100.64111300000059,94.10253900000043,85.0,40.25634799999989,79.23095699999976,-25.769286999999622,109.35888699999941
225,52.17968800000017,132.17968800000017,87.94873000000007,80.25634799999989,135.76904300000024,110.38476599999922,104.61523400000078,103.9741210000002,97.82031300000017,88.46142599999985,38.846190999999635,79.23095699999976,-23.205077999999958,108.9741210000002
226,53.333496000000196,132.56396500000028,88.58984400000008,84.48730499999965,131.79492200000004,108.9741210000002,107.56396500000028,107.94873000000007,101.79492200000004,90.25634799999989,40.38476599999922,80.0,-21.41015600000037,109.23095699999976
227,57.56396500000028,133.7177729999994,89.61523400000078,87.82031300000017,125.64111300000059,110.38476599999922,110.76904300000024,113.0771479999994,106.0258789999998,91.53857400000015,45.76904300000024,82.69238299999961,-19.487060999999812,110.12841800000024
228,61.153809000000365,134.23095699999976,90.25634799999989,86.15380900000036,118.20507799999996,112.94873000000007,112.30761700000039,116.2822270000006,108.9741210000002,91.0258789999998,51.025878999999804,85.38476599999922,-19.230713000000378,111.15380900000036
229,60.0,132.17968800000017,88.84619099999964,77.94873000000007,110.0,114.35888699999941,110.12841800000024,114.87158199999976,108.46142599999985,87.56396500000028,51.666503999999804,85.64111300000059,-21.794922000000042,111.9228520000006
230,54.102539000000434,127.43603499999972,85.89746099999957,66.41015599999992,103.3334960000002,113.46142599999985,104.35888699999941,110.0,105.0,82.69238299999961,47.17968800000017,82.43603499999972,-26.153809000000365,112.94873000000007
231,47.05126999999993,120.76904300000024,82.82031300000017,57.82031300000017,100.76904300000024,110.76904300000024,98.46142599999985,105.12841800000024,100.25634799999989,79.74365200000011,40.51269500000035,77.69238299999961,-30.0,113.84619099999964
232,42.69238299999961,114.35888699999941,80.76904300000024,56.53857400000015,103.0771479999994,108.3334960000002,96.2822270000006,103.84619099999964,97.30761700000039,80.89746099999957,35.897460999999566,74.48730499999965,-31.794922000000042,114.10253900000043
233,43.333496000000196,111.0258789999998,80.89746099999957,62.82031300000017,108.84619099999964,108.0771479999994,99.10253900000043,106.9228520000006,97.82031300000017,84.35888699999941,35.25634799999989,74.74365200000011,-31.025634999999966,113.0771479999994
234,48.20507799999996,112.30761700000039,83.0771479999994,72.56396500000028,115.25634799999989,110.12841800000024,103.9741210000002,112.05126999999993,101.2822270000006,86.6665039999998,37.56396500000028,77.94873000000007,-28.333252000000357,111.53857400000015
235,54.35888699999941,117.17968800000017,86.15380900000036,80.25634799999989,119.23095699999976,112.30761700000039,106.2822270000006,114.35888699999941,104.35888699999941,84.35888699999941,40.38476599999922,81.6665039999998,-25.38452099999995,110.64111300000059
236,59.102539000000434,123.3334960000002,88.3334960000002,82.17968800000017,119.48730499999965,112.56396500000028,103.9741210000002,111.0258789999998,104.23095699999976,78.58984400000008,42.05126999999993,83.3334960000002,-22.820557000000008,110.76904300000024
237,62.17968800000017,128.7177729999994,89.35888699999941,79.23095699999976,118.0771479999994,111.41015599999992,100.51269500000035,103.9741210000002,101.0258789999998,74.61523400000078,43.20507799999996,82.56396500000028,-20.641113000000132,111.41015599999992
238,64.74365200000011,133.20507799999996,91.15380900000036,76.0258789999998,117.30761700000039,111.15380900000036,100.51269500000035,98.46142599999985,97.82031300000017,77.94873000000007,45.51269500000035,81.2822270000006,-17.179442999999992,111.6665039999998
239,67.43603499999972,136.15380900000036,95.0,76.9228520000006,118.46142599999985,112.82031300000017,105.38476599999922,99.10253900000043,98.3334960000002,88.58984400000008,49.35888699999941,81.53857400000015,-12.307617000000391,111.53857400000015
240,69.10253900000043,136.41015599999992,100.12841800000024,82.43603499999972,120.38476599999922,115.25634799999989,112.05126999999993,105.25634799999989,102.69238299999961,100.25634799999989,53.0771479999994,83.7177729999994,-7.820557000000008,110.76904300000024
241,68.58984400000008,133.46142599999985,103.3334960000002,87.94873000000007,121.15380900000036,116.9228520000006,115.89746099999957,111.6665039999998,107.82031300000017,105.38476599999922,55.0,86.6665039999998,-6.666747999999643,110.0
242,66.15380900000036,128.0771479999994,102.69238299999961,88.7177729999994,120.51269500000035,117.56396500000028,115.12841800000024,113.3334960000002,110.0,101.41015599999992,54.48730499999965,88.46142599999985,-9.230713000000378,109.74365200000011
243,62.94873000000007,122.17968800000017,98.58984400000008,83.7177729999994,118.84619099999964,117.43603499999972,111.41015599999992,109.61523400000078,108.0771479999994,92.94873000000007,52.69238299999961,87.94873000000007,-13.333252000000357,110.51269500000035
244,59.48730499999965,116.9228520000006,92.82031300000017,76.53857400000015,116.2822270000006,116.53857400000015,107.94873000000007,103.58984400000008,103.7177729999994,86.6665039999998,50.51269500000035,85.38476599999922,-16.538574000000153,111.9228520000006
245,55.38476599999922,112.05126999999993,87.69238299999961,71.41015599999992,112.56396500000028,115.38476599999922,106.41015599999992,99.48730499999965,99.35888699999941,86.2822270000006,47.94873000000007,82.17968800000017,-18.333252000000357,112.69238299999961
246,50.51269500000035,106.6665039999998,84.10253900000043,70.25634799999989,107.94873000000007,114.74365200000011,106.53857400000015,99.10253900000043,97.17968800000017,89.48730499999965,44.48730499999965,79.74365200000011,-19.61547900000005,112.17968800000017
247,46.153809000000365,102.43603499999972,82.82031300000017,71.9228520000006,103.9741210000002,114.74365200000011,106.53857400000015,101.15380900000036,97.56396500000028,91.79492200000004,40.64111300000059,78.9741210000002,-20.769286999999622,110.89746099999957
248,44.102539000000434,101.9228520000006,83.46142599999985,74.10253900000043,103.0771479999994,114.87158199999976,105.0,102.82031300000017,99.35888699999941,90.25634799999989,38.0771479999994,79.87158199999976,-21.025634999999966,110.25634799999989
249,45.76904300000024,106.41015599999992,84.87158199999976,75.25634799999989,106.2822270000006,114.10253900000043,101.9228520000006,102.17968800000017,100.12841800000024,85.51269500000035,37.56396500000028,81.53857400000015,-19.358886999999868,111.0258789999998
250,50.12841800000024,113.0771479999994,85.38476599999922,74.61523400000078,111.9228520000006,113.3334960000002,99.61523400000078,100.12841800000024,99.23095699999976,80.38476599999922,38.333496000000196,82.82031300000017,-16.153809000000365,112.69238299999961
251,54.48730499999965,116.79492200000004,85.38476599999922,72.94873000000007,116.15380900000036,113.20507799999996,100.51269500000035,99.10253900000043,97.69238299999961,77.69238299999961,39.35888699999941,83.0771479999994,-12.948729999999614,114.10253900000043
252,56.153809000000365,115.25634799999989,86.15380900000036,70.64111300000059,116.15380900000036,113.7177729999994,105.38476599999922,101.53857400000015,97.82031300000017,79.23095699999976,41.025878999999804,82.69238299999961,-10.38452099999995,114.10253900000043
253,55.51269500000035,110.25634799999989,88.84619099999964,68.9741210000002,113.0771479999994,114.48730499999965,112.17968800000017,107.17968800000017,101.2822270000006,85.12841800000024,45.25634799999989,82.56396500000028,-7.179442999999992,112.69238299999961
254,54.35888699999941,106.41015599999992,92.82031300000017,68.9741210000002,111.41015599999992,115.0,117.30761700000039,113.46142599999985,107.56396500000028,93.9741210000002,53.0771479999994,83.84619099999964,-1.7949220000000423,110.76904300000024
255,54.35888699999941,106.9228520000006,95.89746099999957,70.89746099999957,114.74365200000011,115.0,118.3334960000002,116.41015599999992,113.7177729999994,102.30761700000039,62.56396500000028,86.0258789999998,5.3847659999992175,109.61523400000078
256,55.51269500000035,110.64111300000059,96.41015599999992,73.3334960000002,121.2822270000006,115.0,115.0,114.10253900000043,116.41015599999992,106.0258789999998,69.10253900000043,87.17968800000017,10.641113000000587,109.87158199999976
257,56.410155999999915,113.20507799999996,93.58984400000008,74.35888699999941,124.87158199999976,115.25634799999989,109.23095699999976,107.94873000000007,113.46142599999985,102.30761700000039,68.7177729999994,85.51269500000035,10.256347999999889,111.0258789999998
258,55.25634799999989,110.25634799999989,88.46142599999985,72.30761700000039,120.64111300000059,115.0,103.0771479999994,100.89746099999957,105.12841800000024,91.41015599999992,61.666503999999804,81.2822270000006,3.3334960000001956,111.53857400000015
259,52.17968800000017,102.56396500000028,82.94873000000007,67.94873000000007,110.51269500000035,113.58984400000008,98.84619099999964,95.89746099999957,94.74365200000011,78.20507799999996,52.82031300000017,76.9228520000006,-6.666747999999643,111.0258789999998
260,49.48730499999965,96.15380900000036,79.74365200000011,64.61523400000078,102.43603499999972,112.17968800000017,97.69238299999961,94.35888699999941,87.30761700000039,70.38476599999922,48.846190999999635,75.89746099999957,-13.076904000000013,110.0
261,50.64111300000059,97.94873000000007,81.2822270000006,65.12841800000024,102.69238299999961,112.30761700000039,99.74365200000011,96.2822270000006,87.17968800000017,73.58984400000008,53.20507799999996,79.10253900000043,-10.38452099999995,109.48730499999965
262,55.51269500000035,108.0771479999994,87.30761700000039,69.74365200000011,110.0,113.9741210000002,103.58984400000008,100.51269500000035,93.7177729999994,85.76904300000024,63.333496000000196,84.48730499999965,0.12841800000023795,109.48730499999965
263,60.38476599999922,118.7177729999994,94.48730499999965,74.87158199999976,116.41015599999992,115.12841800000024,106.41015599999992,103.84619099999964,102.05126999999993,97.56396500000028,72.17968800000017,88.58984400000008,10.897460999999566,109.74365200000011
264,61.2822270000006,120.64111300000059,98.46142599999985,75.76904300000024,115.25634799999989,114.35888699999941,106.79492200000004,103.9741210000002,106.0258789999998,99.74365200000011,73.9741210000002,88.84619099999964,13.717772999999397,110.0
265,57.82031300000017,111.41015599999992,97.94873000000007,70.76904300000024,107.43603499999972,112.17968800000017,105.64111300000059,100.51269500000035,103.84619099999964,91.2822270000006,68.84619099999964,86.15380900000036,6.794922000000042,109.87158199999976
266,54.35888699999941,98.9741210000002,95.25634799999989,63.589844000000085,100.25634799999989,109.74365200000011,103.9741210000002,96.2822270000006,99.10253900000043,79.87158199999976,62.56396500000028,83.3334960000002,-3.2050779999999577,109.23095699999976
267,55.897460999999566,93.7177729999994,94.10253900000043,60.38476599999922,100.76904300000024,108.58984400000008,103.0771479999994,95.0,97.69238299999961,75.76904300000024,61.2822270000006,82.69238299999961,-6.923095999999987,108.58984400000008
268,62.30761700000039,98.9741210000002,96.6665039999998,63.846190999999635,109.87158199999976,108.84619099999964,102.94873000000007,98.3334960000002,101.79492200000004,83.3334960000002,66.2822270000006,84.74365200000011,-1.4101559999999154,108.58984400000008
269,68.3334960000002,107.05126999999993,101.0258789999998,70.64111300000059,121.0258789999998,110.64111300000059,103.20507799999996,104.61523400000078,108.3334960000002,96.6665039999998,72.94873000000007,87.43603499999972,7.692382999999609,109.74365200000011
270,67.17968800000017,106.41015599999992,102.30761700000039,73.7177729999994,125.38476599999922,112.56396500000028,103.20507799999996,108.84619099999964,111.2822270000006,104.35888699999941,74.48730499999965,88.0771479999994,11.666503999999804,111.53857400000015
271,56.9228520000006,93.20507799999996,97.82031300000017,68.84619099999964,117.56396500000028,112.82031300000017,102.30761700000039,106.79492200000004,106.53857400000015,98.46142599999985,67.82031300000017,85.51269500000035,6.410155999999915,113.3334960000002
272,43.0771479999994,75.51269500000035,89.48730499999965,58.46142599999985,101.0258789999998,110.89746099999957,100.38476599999922,98.0771479999994,95.64111300000059,81.6665039999998,56.025878999999804,80.89746099999957,-4.358886999999868,114.61523400000078
273,35.25634799999989,66.6665039999998,82.56396500000028,49.102539000000434,86.53857400000015,108.46142599999985,98.3334960000002,87.17968800000017,85.25634799999989,65.38476599999922,45.897460999999566,77.82031300000017,-12.692382999999609,114.87158199999976
274,39.74365200000011,74.87158199999976,82.30761700000039,47.17968800000017,85.0,107.56396500000028,97.43603499999972,81.41015599999992,82.69238299999961,60.51269500000035,43.7177729999994,78.84619099999964,-12.692382999999609,114.10253900000043
275,54.74365200000011,96.9228520000006,89.23095699999976,54.23095699999976,99.10253900000043,108.9741210000002,98.58984400000008,84.74365200000011,89.23095699999976,68.9741210000002,49.48730499999965,82.94873000000007,-4.61547900000005,112.56396500000028
276,71.15380900000036,120.25634799999989,98.84619099999964,66.2822270000006,120.0,111.15380900000036,100.64111300000059,94.74365200000011,98.7177729999994,82.56396500000028,56.9228520000006,86.79492200000004,4.743652000000111,110.76904300000024
277,78.3334960000002,131.6665039999998,103.9741210000002,76.79492200000004,134.87158199999976,112.30761700000039,101.6665039999998,103.9741210000002,102.82031300000017,89.61523400000078,58.333496000000196,87.05126999999993,6.922852000000603,110.0
278,72.05126999999993,128.20507799999996,100.76904300000024,81.0258789999998,136.41015599999992,111.53857400000015,100.51269500000035,105.89746099999957,98.0771479999994,85.0,51.2822270000006,83.3334960000002,-1.5385740000001533,110.25634799999989
279,57.56396500000028,117.56396500000028,91.9228520000006,79.35888699999941,128.0771479999994,110.12841800000024,98.84619099999964,100.51269500000035,89.10253900000043,73.58984400000008,40.25634799999989,78.3334960000002,-16.666747999999643,111.0258789999998
280,45.12841800000024,111.15380900000036,84.10253900000043,75.12841800000024,118.84619099999964,110.12841800000024,98.58984400000008,93.0771479999994,84.23095699999976,64.87158199999976,32.05126999999993,75.38476599999922,-29.8718259999996,111.6665039999998
281,41.2822270000006,113.0771479999994,81.41015599999992,71.2822270000006,114.35888699999941,112.17968800000017,99.61523400000078,88.84619099999964,87.69238299999961,64.23095699999976,29.74365200000011,75.38476599999922,-35.1281740000004,111.79492200000004
282,44.61523400000078,118.20507799999996,83.0771479999994,68.3334960000002,114.61523400000078,114.35888699999941,99.74365200000011,88.58984400000008,96.0258789999998,68.7177729999994,31.025878999999804,76.41015599999992,-33.20507799999996,111.53857400000015
283,49.35888699999941,118.84619099999964,85.0,65.64111300000059,116.6665039999998,115.25634799999989,97.17968800000017,88.9741210000002,102.17968800000017,71.41015599999992,31.282227000000603,76.0258789999998,-29.230713000000378,110.89746099999957
284,51.9228520000006,114.10253900000043,85.0,63.974121000000196,118.58984400000008,114.87158199999976,93.3334960000002,88.46142599999985,102.30761700000039,69.61523400000078,29.230956999999762,73.9741210000002,-27.435790999999426,110.38476599999922
285,52.82031300000017,110.0,83.84619099999964,65.64111300000059,120.89746099999957,114.61523400000078,91.0258789999998,88.0771479999994,98.46142599999985,67.05126999999993,27.05126999999993,73.0771479999994,-26.923095999999987,110.38476599999922
286,54.102539000000434,113.20507799999996,83.84619099999964,71.41015599999992,124.10253900000043,114.61523400000078,91.6665039999998,90.25634799999989,95.25634799999989,68.58984400000008,28.205077999999958,76.2822270000006,-24.8718259999996,110.76904300000024
287,56.79492200000004,123.20507799999996,85.12841800000024,79.23095699999976,127.56396500000028,115.12841800000024,93.9741210000002,94.87158199999976,95.89746099999957,74.74365200000011,33.20507799999996,82.56396500000028,-19.8718259999996,111.0258789999998
288,59.35888699999941,133.0771479999994,86.79492200000004,84.87158199999976,129.7436520000001,115.89746099999957,95.38476599999922,98.7177729999994,99.48730499999965,81.2822270000006,39.23095699999976,87.17968800000017,-13.58984399999963,110.89746099999957
289,60.38476599999922,135.6411130000006,87.43603499999972,85.25634799999989,129.23095699999976,116.6665039999998,94.48730499999965,98.7177729999994,102.69238299999961,83.46142599999985,43.0771479999994,86.15380900000036,-9.358886999999868,110.25634799999989
290,59.48730499999965,130.0,86.79492200000004,80.64111300000059,126.9228520000006,116.9228520000006,92.56396500000028,94.74365200000011,103.3334960000002,80.25634799999989,43.46142599999985,80.0,-8.461425999999847,109.61523400000078
291,57.56396500000028,121.6665039999998,85.89746099999957,74.35888699999941,124.74365200000011,116.15380900000036,91.79492200000004,90.64111300000059,101.79492200000004,75.64111300000059,42.17968800000017,73.58984400000008,-9.743652000000111,109.48730499999965
292,56.153809000000365,116.15380900000036,85.89746099999957,70.0,124.74365200000011,115.51269500000035,93.7177729999994,90.51269500000035,99.61523400000078,74.23095699999976,41.2822270000006,71.2822270000006,-10.256347999999889,110.12841800000024
293,55.897460999999566,115.76904300000024,86.41015599999992,68.7177729999994,126.79492200000004,116.0258789999998,98.20507799999996,94.87158199999976,98.0771479999994,77.30761700000039,41.79492200000004,73.84619099999964,-8.461425999999847,111.15380900000036
294,56.2822270000006,117.94873000000007,86.79492200000004,69.74365200000011,127.82031300000017,116.9228520000006,102.56396500000028,100.64111300000059,96.6665039999998,81.0258789999998,43.20507799999996,78.46142599999985,-5.256347999999889,112.05126999999993
295,56.153809000000365,118.58984400000008,86.15380900000036,70.76904300000024,125.0,117.05126999999993,103.9741210000002,102.56396500000028,94.10253900000043,80.0,43.333496000000196,81.2822270000006,-4.487060999999812,112.05126999999993
296,54.35888699999941,115.89746099999957,84.74365200000011,70.0,118.84619099999964,115.89746099999957,101.41015599999992,98.46142599999985,90.0,72.94873000000007,40.897460999999566,80.0,-9.102538999999979,111.0258789999998
297,51.9228520000006,111.6665039999998,83.58984400000008,67.43603499999972,114.48730499999965,114.35888699999941,96.9228520000006,91.0258789999998,86.53857400000015,64.87158199999976,37.82031300000017,76.53857400000015,-17.564209000000574,109.35888699999941
298,51.410155999999915,109.87158199999976,84.10253900000043,65.38476599999922,116.79492200000004,113.84619099999964,94.10253900000043,85.51269500000035,86.15380900000036,63.20507799999996,37.43603499999972,74.61523400000078,-23.974365000000034,108.46142599999985
299,54.23095699999976,112.30761700000039,85.89746099999957,66.2822270000006,124.74365200000011,114.48730499999965,94.61523400000078,85.0,88.46142599999985,70.0,40.897460999999566,75.89746099999957,-23.58984399999963,109.10253900000043
300,58.846190999999635,116.15380900000036,87.56396500000028,69.23095699999976,131.0258789999998,115.12841800000024,96.0258789999998,87.69238299999961,90.38476599999922,80.12841800000024,45.76904300000024,78.7177729999994,-17.051270000000386,110.38476599999922
301,61.9228520000006,117.30761700000039,87.56396500000028,71.2822270000006,129.3588869999994,115.12841800000024,96.0258789999998,89.23095699999976,89.74365200000011,85.89746099999957,48.589844000000085,80.12841800000024,-10.0,111.53857400000015
302,61.53857400000015,114.35888699999941,86.0258789999998,70.25634799999989,121.0258789999998,114.74365200000011,94.48730499999965,87.94873000000007,87.94873000000007,83.84619099999964,48.20507799999996,79.10253900000043,-7.820557000000008,111.15380900000036
303,58.0771479999994,110.0,84.74365200000011,67.17968800000017,113.3334960000002,114.61523400000078,94.35888699999941,86.6665039999998,87.94873000000007,77.69238299999961,46.2822270000006,77.30761700000039,-11.153809000000365,109.35888699999941
304,54.23095699999976,107.56396500000028,84.74365200000011,65.0,113.20507799999996,114.74365200000011,96.9228520000006,89.35888699999941,91.41015599999992,73.84619099999964,44.87158199999976,76.41015599999992,-16.025634999999966,107.05126999999993
305,52.05126999999993,108.20507799999996,85.38476599999922,65.64111300000059,120.38476599999922,114.35888699999941,100.25634799999989,95.0,96.2822270000006,75.38476599999922,45.25634799999989,77.17968800000017,-17.69238299999961,105.76904300000024
306,52.05126999999993,109.74365200000011,86.0258789999998,68.7177729999994,129.10253900000043,113.46142599999985,101.0258789999998,99.23095699999976,99.23095699999976,80.0,47.43603499999972,78.46142599999985,-14.8718259999996,107.17968800000017
307,53.589844000000085,110.25634799999989,86.0258789999998,71.9228520000006,132.43603499999972,113.20507799999996,98.7177729999994,98.7177729999994,98.46142599999985,83.0771479999994,50.25634799999989,78.3334960000002,-9.358886999999868,111.2822270000006
308,55.0,108.58984400000008,85.51269500000035,72.94873000000007,127.69238299999961,113.84619099999964,95.38476599999922,93.9741210000002,94.48730499999965,81.41015599999992,52.17968800000017,75.76904300000024,-5.128174000000399,116.0258789999998
309,54.35888699999941,105.0,83.9741210000002,70.89746099999957,117.69238299999961,114.23095699999976,93.20507799999996,88.58984400000008,89.23095699999976,75.89746099999957,51.410155999999915,71.53857400000015,-4.871825999999601,118.46142599999985
310,51.2822270000006,101.0258789999998,81.2822270000006,67.17968800000017,108.84619099999964,113.3334960000002,92.82031300000017,86.15380900000036,84.87158199999976,69.48730499999965,48.0771479999994,67.56396500000028,-8.205077999999958,117.69238299999961
311,48.20507799999996,98.84619099999964,79.10253900000043,64.74365200000011,107.17968800000017,111.15380900000036,93.7177729999994,87.94873000000007,83.3334960000002,66.79492200000004,44.48730499999965,66.0258789999998,-11.538574000000153,114.48730499999965
312,49.74365200000011,101.53857400000015,79.74365200000011,66.79492200000004,114.74365200000011,109.10253900000043,95.89746099999957,93.58984400000008,86.41015599999992,70.89746099999957,44.87158199999976,67.94873000000007,-11.025634999999966,111.15380900000036
313,58.46142599999985,110.12841800000024,84.87158199999976,74.74365200000011,128.20507799999996,108.46142599999985,100.25634799999989,101.2822270000006,95.12841800000024,82.05126999999993,52.17968800000017,73.3334960000002,-4.358886999999868,108.9741210000002
314,72.05126999999993,121.9228520000006,93.7177729999994,86.15380900000036,141.15380900000036,109.35888699999941,106.6665039999998,108.84619099999964,107.30761700000039,95.89746099999957,65.0,81.0258789999998,7.051269999999931,108.84619099999964
315,83.7177729999994,131.0258789999998,102.05126999999993,94.74365200000011,147.17968800000017,111.0258789999998,112.94873000000007,113.58984400000008,117.17968800000017,105.76904300000024,76.9228520000006,88.0771479999994,17.94873000000007,110.12841800000024
316,87.05126999999993,131.9228520000006,105.12841800000024,94.87158199999976,143.84619099999964,112.43603499999972,116.15380900000036,113.9741210000002,118.9741210000002,106.6665039999998,80.76904300000024,91.15380900000036,22.30761700000039,111.6665039999998
317,80.51269500000035,123.58984400000008,100.64111300000059,86.41015599999992,132.94873000000007,112.56396500000028,114.48730499999965,109.87158199999976,111.6665039999998,98.7177729999994,73.84619099999964,89.10253900000043,17.17968800000017,112.05126999999993
318,68.20507799999996,110.38476599999922,90.76904300000024,74.61523400000078,120.12841800000024,111.2822270000006,109.10253900000043,103.46142599999985,100.0,87.56396500000028,59.87158199999976,84.10253900000043,5.0,111.2822270000006
319,57.69238299999961,99.23095699999976,81.6665039999998,66.9228520000006,110.64111300000059,110.64111300000059,103.3334960000002,98.20507799999996,90.64111300000059,79.74365200000011,46.2822270000006,79.87158199999976,-7.179442999999992,110.64111300000059
320,55.51269500000035,95.38476599999922,79.35888699999941,67.30761700000039,108.20507799999996,112.30761700000039,100.38476599999922,97.05126999999993,88.46142599999985,79.23095699999976,40.38476599999922,79.48730499999965,-11.923095999999987,110.89746099999957
321,62.17968800000017,98.9741210000002,84.87158199999976,74.10253900000043,112.17968800000017,115.64111300000059,101.2822270000006,99.74365200000011,92.56396500000028,84.35888699999941,44.87158199999976,82.43603499999972,-6.794922000000042,111.9228520000006
322,71.79492200000004,105.0,93.0771479999994,80.89746099999957,118.20507799999996,117.56396500000028,103.58984400000008,102.82031300000017,97.56396500000028,88.84619099999964,55.25634799999989,86.15380900000036,3.2050779999999577,112.94873000000007
323,76.41015599999992,107.43603499999972,97.17968800000017,81.6665039999998,120.64111300000059,116.0258789999998,104.48730499999965,102.17968800000017,97.43603499999972,86.9228520000006,62.56396500000028,87.05126999999993,9.358886999999413,113.58984400000008
324,72.69238299999961,104.48730499999965,94.87158199999976,75.51269500000035,117.82031300000017,111.53857400000015,103.0771479999994,97.17968800000017,91.2822270000006,78.46142599999985,60.38476599999922,84.35888699999941,7.051269999999931,113.7177729999994
325,64.48730499999965,99.61523400000078,90.0,67.56396500000028,113.58984400000008,107.17968800000017,101.0258789999998,91.0258789999998,83.46142599999985,69.61523400000078,50.38476599999922,80.38476599999922,-0.769043000000238,113.58984400000008
326,58.20507799999996,97.30761700000039,87.82031300000017,63.46142599999985,112.82031300000017,105.89746099999957,101.0258789999998,88.0771479999994,79.61523400000078,66.79492200000004,39.61523400000078,78.20507799999996,-6.923095999999987,113.3334960000002
327,57.30761700000039,98.20507799999996,90.64111300000059,64.48730499999965,116.0258789999998,107.82031300000017,103.7177729999994,90.25634799999989,81.15380900000036,71.79492200000004,34.48730499999965,78.9741210000002,-6.666747999999643,112.82031300000017
328,60.51269500000035,99.23095699999976,95.38476599999922,67.43603499999972,119.23095699999976,110.76904300000024,106.6665039999998,95.12841800000024,84.74365200000011,79.61523400000078,36.666503999999804,80.89746099999957,-1.4101559999999154,112.05126999999993
329,64.35888699999941,98.0771479999994,97.82031300000017,68.84619099999964,118.20507799999996,112.30761700000039,107.94873000000007,98.7177729999994,86.79492200000004,84.23095699999976,43.7177729999994,81.79492200000004,3.5898440000000846,110.76904300000024
330,66.2822270000006,95.38476599999922,96.41015599999992,68.3334960000002,112.56396500000028,112.05126999999993,107.30761700000039,99.61523400000078,86.6665039999998,83.0771479999994,51.153809000000365,81.0258789999998,4.871581999999762,109.35888699999941
331,66.53857400000015,93.3334960000002,93.46142599999985,67.56396500000028,105.76904300000024,111.2822270000006,106.9228520000006,98.9741210000002,86.41015599999992,78.9741210000002,55.897460999999566,79.87158199999976,3.846190999999635,109.23095699999976
332,66.15380900000036,93.84619099999964,92.30761700000039,67.43603499999972,102.94873000000007,111.79492200000004,108.46142599999985,98.9741210000002,88.20507799999996,77.17968800000017,57.05126999999993,80.12841800000024,4.102539000000434,111.0258789999998
333,66.2822270000006,96.6665039999998,94.48730499999965,67.43603499999972,107.30761700000039,114.23095699999976,111.6665039999998,100.25634799999989,92.69238299999961,81.15380900000036,56.153809000000365,82.30761700000039,8.589844000000085,114.48730499999965
334,67.05126999999993,100.25634799999989,98.58984400000008,66.53857400000015,118.46142599999985,116.9228520000006,114.23095699999976,102.05126999999993,98.46142599999985,89.61523400000078,55.76904300000024,85.25634799999989,16.538574000000153,117.17968800000017
335,68.46142599999985,103.20507799999996,101.6665039999998,64.61523400000078,131.15380900000036,118.20507799999996,115.12841800000024,103.84619099999964,103.46142599999985,98.58984400000008,57.30761700000039,87.30761700000039,24.48730499999965,117.56396500000028
336,70.12841800000024,105.0,102.17968800000017,63.333496000000196,137.82031300000017,117.17968800000017,114.61523400000078,105.25634799999989,106.6665039999998,104.10253900000043,61.025878999999804,87.43603499999972,28.846190999999635,115.38476599999922
337,71.6665039999998,105.51269500000035,100.38476599999922,63.7177729999994,134.3588869999994,114.87158199999976,113.20507799999996,106.2822270000006,107.56396500000028,105.0,65.38476599999922,85.89746099999957,28.461425999999847,112.30761700000039
338,71.79492200000004,104.23095699999976,97.94873000000007,65.25634799999989,123.3334960000002,112.43603499999972,111.41015599999992,106.79492200000004,106.15380900000036,102.43603499999972,68.46142599999985,83.9741210000002,25.51269500000035,109.61523400000078
339,69.87158199999976,100.76904300000024,96.79492200000004,65.51269500000035,112.30761700000039,110.89746099999957,109.10253900000043,106.6665039999998,103.3334960000002,98.9741210000002,68.84619099999964,83.0771479999994,22.69238299999961,108.3334960000002
340,66.6665039999998,96.15380900000036,96.9228520000006,62.56396500000028,107.94873000000007,110.51269500000035,106.53857400000015,105.51269500000035,100.38476599999922,96.9228520000006,67.30761700000039,83.58984400000008,21.538574000000153,108.46142599999985
341,64.10253900000043,93.3334960000002,97.82031300000017,57.56396500000028,111.9228520000006,110.89746099999957,104.61523400000078,103.9741210000002,99.61523400000078,97.30761700000039,65.89746099999957,84.87158199999976,22.05126999999993,109.87158199999976
342,63.974121000000196,95.0,98.7177729999994,53.974121000000196,119.87158199999976,111.41015599999992,104.74365200000011,103.3334960000002,102.82031300000017,100.0,66.79492200000004,85.64111300000059,23.974121000000196,111.2822270000006
343,66.41015599999992,100.89746099999957,99.74365200000011,53.846190999999635,124.74365200000011,111.41015599999992,107.30761700000039,104.74365200000011,108.58984400000008,103.46142599999985,70.76904300000024,86.15380900000036,27.05126999999993,111.79492200000004
344,69.48730499999965,106.41015599999992,100.51269500000035,56.025878999999804,121.6665039999998,111.15380900000036,110.25634799999989,106.9228520000006,113.3334960000002,105.38476599999922,76.0258789999998,86.41015599999992,30.51269500000035,111.15380900000036
345,69.23095699999976,106.15380900000036,99.61523400000078,56.666503999999804,111.2822270000006,110.76904300000024,110.38476599999922,106.79492200000004,112.56396500000028,102.94873000000007,78.46142599999985,85.89746099999957,31.538574000000153,110.0
346,63.974121000000196,98.0771479999994,95.76904300000024,53.20507799999996,98.20507799999996,110.0,105.76904300000024,102.56396500000028,105.0,95.25634799999989,75.12841800000024,83.84619099999964,27.94873000000007,108.9741210000002
347,55.897460999999566,86.6665039999998,90.0,46.53857400000015,89.87158199999976,109.23095699999976,98.7177729999994,96.0258789999998,93.9741210000002,85.12841800000024,67.56396500000028,80.76904300000024,20.51269500000035,108.3334960000002
348,50.76904300000024,80.25634799999989,85.76904300000024,41.53857400000015,91.0258789999998,108.9741210000002,93.84619099999964,91.6665039999998,85.89746099999957,78.0771479999994,61.53857400000015,78.9741210000002,14.743652000000111,107.94873000000007
349,52.56396500000028,83.46142599999985,86.53857400000015,42.30761700000039,101.2822270000006,109.74365200000011,95.0,92.43603499999972,85.51269500000035,78.58984400000008,62.43603499999972,80.12841800000024,16.153809000000365,108.20507799999996
350,60.12841800000024,93.46142599999985,92.17968800000017,48.7177729999994,114.48730499999965,111.53857400000015,101.53857400000015,96.79492200000004,92.30761700000039,85.89746099999957,70.12841800000024,83.20507799999996,24.871581999999762,108.9741210000002
351,68.46142599999985,102.17968800000017,98.20507799999996,56.2822270000006,122.43603499999972,112.82031300000017,108.9741210000002,100.76904300000024,101.2822270000006,95.25634799999989,78.58984400000008,85.76904300000024,35.0,109.87158199999976
352,72.69238299999961,102.82031300000017,100.51269500000035,59.87158199999976,121.53857400000015,113.0771479999994,112.82031300000017,101.15380900000036,106.53857400000015,101.2822270000006,81.53857400000015,86.0258789999998,39.35888699999941,110.76904300000024
353,71.9228520000006,96.15380900000036,98.58984400000008,58.46142599999985,114.23095699999976,112.82031300000017,112.17968800000017,98.9741210000002,105.76904300000024,102.05126999999993,77.69238299999961,84.35888699999941,35.51269500000035,111.6665039999998
354,68.84619099999964,88.0771479999994,95.25634799999989,54.61523400000078,106.6665039999998,113.20507799999996,109.48730499999965,97.05126999999993,101.53857400000015,100.12841800000024,71.15380900000036,82.69238299999961,28.205077999999958,112.69238299999961
355,66.79492200000004,84.61523400000078,93.84619099999964,51.666503999999804,102.30761700000039,114.35888699999941,108.0771479999994,97.94873000000007,98.0771479999994,98.3334960000002,67.43603499999972,82.43603499999972,24.48730499999965,113.20507799999996
356,67.05126999999993,86.2822270000006,94.61523400000078,50.897460999999566,100.76904300000024,115.0,108.46142599999985,101.0258789999998,97.43603499999972,97.05126999999993,68.9741210000002,83.46142599999985,27.56396500000028,113.20507799999996
357,67.82031300000017,88.9741210000002,95.38476599999922,51.410155999999915,99.61523400000078,114.10253900000043,108.3334960000002,103.7177729999994,98.58984400000008,94.74365200000011,73.3334960000002,84.48730499999965,34.87158199999976,113.0771479999994
358,67.43603499999972,88.9741210000002,94.23095699999976,51.79492200000004,97.82031300000017,111.6665039999998,106.53857400000015,103.84619099999964,99.10253900000043,90.76904300000024,76.2822270000006,85.0,40.64111300000059,113.3334960000002
359,65.76904300000024,86.79492200000004,91.53857400000015,51.53857400000015,97.17968800000017,109.23095699999976,103.7177729999994,101.41015599999992,98.58984400000008,87.43603499999972,75.76904300000024,84.87158199999976,41.9228520000006,113.9741210000002
360,64.48730499999965,86.15380900000036,90.0,51.153809000000365,100.89746099999957,108.84619099999964,102.69238299999961,98.84619099999964,98.20507799999996,87.94873000000007,73.58984400000008,84.87158199999976,40.897460999999566,114.48730499999965
361,65.51269500000035,89.61523400000078,91.79492200000004,51.79492200000004,109.35888699999941,110.51269500000035,105.25634799999989,98.3334960000002,99.35888699999941,92.43603499999972,73.46142599999985,85.25634799999989,41.53857400000015,114.48730499999965
362,69.23095699999976,95.25634799999989,97.05126999999993,53.974121000000196,119.10253900000043,112.30761700000039,110.51269500000035,100.25634799999989,101.41015599999992,97.69238299999961,77.94873000000007,86.6665039999998,46.025878999999804,113.3334960000002
363,73.58984400000008,99.23095699999976,102.94873000000007,56.9228520000006,124.10253900000043,112.56396500000028,115.12841800000024,102.69238299999961,101.9228520000006,99.35888699999941,84.48730499999965,88.20507799999996,52.17968800000017,111.2822270000006
364,75.51269500000035,98.7177729999994,105.51269500000035,58.589844000000085,121.0258789999998,111.53857400000015,114.87158199999976,103.3334960000002,98.9741210000002,95.76904300000024,88.3334960000002,88.46142599999985,55.38476599999922,109.10253900000043
365,72.82031300000017,93.9741210000002,102.82031300000017,57.30761700000039,112.05126999999993,111.15380900000036,108.84619099999964,101.53857400000015,93.0771479999994,89.10253900000043,85.89746099999957,86.41015599999992,52.30761700000039,108.20507799999996
366,67.17968800000017,88.84619099999964,96.6665039999998,53.846190999999635,104.10253900000043,112.69238299999961,100.89746099999957,98.3334960000002,87.69238299999961,84.10253900000043,79.48730499999965,82.94873000000007,44.35888699999941,108.9741210000002
367,63.0771479999994,87.56396500000028,91.6665039999998,51.2822270000006,102.69238299999961,115.25634799999989,96.6665039999998,95.89746099999957,87.05126999999993,85.25634799999989,74.87158199999976,80.64111300000059,37.82031300000017,110.51269500000035
368,64.10253900000043,91.9228520000006,92.05126999999993,52.94873000000007,107.94873000000007,117.43603499999972,99.87158199999976,96.0258789999998,93.3334960000002,93.20507799999996,77.56396500000028,82.05126999999993,38.846190999999635,111.79492200000004
369,70.25634799999989,100.0,97.82031300000017,59.35888699999941,115.89746099999957,118.20507799999996,108.3334960000002,99.48730499999965,104.61523400000078,104.74365200000011,87.43603499999972,87.05126999999993,48.20507799999996,112.69238299999961
370,78.20507799999996,107.82031300000017,105.64111300000059,67.30761700000039,121.41015599999992,117.82031300000017,116.53857400000015,105.76904300000024,115.51269500000035,114.74365200000011,99.74365200000011,93.0771479999994,61.153809000000365,113.7177729999994
371,83.46142599999985,111.6665039999998,111.2822270000006,71.79492200000004,123.0771479999994,117.05126999999993,120.64111300000059,112.43603499999972,120.89746099999957,119.61523400000078,107.94873000000007,96.9228520000006,70.89746099999957,114.74365200000011
372,83.3334960000002,110.76904300000024,112.05126999999993,70.0,122.82031300000017,116.6665039999998,120.38476599999922,117.05126999999993,119.35888699999941,118.9741210000002,108.7177729999994,96.6665039999998,73.58984400000008,115.12841800000024
373,78.3334960000002,106.41015599999992,108.20507799999996,63.20507799999996,123.20507799999996,116.6665039999998,118.20507799999996,117.17968800000017,113.3334960000002,114.48730499999965,102.94873000000007,92.56396500000028,69.23095699999976,114.35888699999941
374,70.64111300000059,100.64111300000059,101.2822270000006,54.87158199999976,123.46142599999985,116.2822270000006,115.89746099999957,112.82031300000017,106.9228520000006,107.56396500000028,94.35888699999941,86.79492200000004,60.51269500000035,113.20507799999996
375,63.20507799999996,95.0,93.9741210000002,48.333496000000196,121.15380900000036,115.12841800000024,113.20507799999996,106.15380900000036,102.56396500000028,98.7177729999994,86.79492200000004,82.05126999999993,49.87158199999976,112.17968800000017
376,58.20507799999996,90.64111300000059,88.84619099999964,45.38476599999922,114.74365200000011,113.20507799999996,109.48730499999965,100.38476599999922,100.0,89.61523400000078,82.94873000000007,80.25634799999989,40.25634799999989,111.53857400000015
377,55.64111300000059,87.43603499999972,87.30761700000039,44.87158199999976,106.2822270000006,111.41015599999992,105.25634799999989,97.69238299999961,97.82031300000017,83.20507799999996,82.56396500000028,80.89746099999957,34.35888699999941,110.89746099999957
378,55.0,85.0,88.84619099999964,44.48730499999965,99.48730499999965,110.51269500000035,102.30761700000039,97.69238299999961,95.51269500000035,82.17968800000017,83.9741210000002,81.79492200000004,34.102539000000434,110.51269500000035
379,55.38476599999922,83.3334960000002,92.05126999999993,42.94873000000007,97.94873000000007,110.38476599999922,102.43603499999972,98.46142599999985,94.10253900000043,86.2822270000006,85.64111300000059,81.53857400000015,39.74365200000011,111.0258789999998
380,57.94873000000007,84.48730499999965,95.89746099999957,42.30761700000039,102.43603499999972,109.87158199999976,106.2822270000006,99.10253900000043,95.51269500000035,93.84619099999964,87.94873000000007,80.76904300000024,49.35888699999941,112.17968800000017
381,63.846190999999635,90.51269500000035,99.87158199999976,45.897460999999566,111.41015599999992,108.9741210000002,113.20507799999996,100.64111300000059,100.89746099999957,102.82031300000017,92.17968800000017,81.9228520000006,60.0,113.20507799999996
382,73.58984400000008,101.41015599999992,104.74365200000011,54.87158199999976,122.05126999999993,109.23095699999976,121.2822270000006,104.74365200000011,110.12841800000024,112.43603499999972,99.61523400000078,86.6665039999998,69.10253900000043,113.20507799999996
383,84.61523400000078,113.9741210000002,109.74365200000011,66.0258789999998,131.0258789999998,112.05126999999993,127.56396500000028,111.41015599999992,119.87158199999976,120.76904300000024,108.20507799999996,93.9741210000002,75.12841800000024,111.9228520000006
