,EEG.AF3,EEG.F7,EEG.F3,EEG.FC5,EEG.T7,EEG.P7,EEG.O1,EEG.O2,EEG.P8,EEG.T8,EEG.FC6,EEG.F4,EEG.F8,EEG.AF4
0,27.17968800000017,33.20507799999996,83.7177729999994,117.94873000000007,119.35888699999941,112.05126999999993,120.64111300000059,127.56396500000028,122.05126999999993,106.2822270000006,60.64111300000059,78.84619099999964,-15.1281740000004,113.9741210000002
1,36.666503999999804,40.25634799999989,91.53857400000015,125.12841800000024,133.7177729999994,110.38476599999922,127.94873000000007,134.10253900000043,131.41015599999992,120.12841800000024,67.05126999999993,86.9228520000006,-7.179442999999992,111.0258789999998
2,38.0771479999994,38.846190999999635,94.35888699999941,124.74365200000011,140.51269500000035,109.23095699999976,131.9228520000006,134.48730499999965,135.0,127.56396500000028,68.46142599999985,91.53857400000015,-6.666747999999643,108.7177729999994
3,30.769043000000238,31.538574000000153,90.76904300000024,118.0771479999994,137.43603499999972,108.9741210000002,129.87158199999976,128.46142599999985,130.12841800000024,124.10253900000043,63.589844000000085,90.25634799999989,-13.461425999999847,109.61523400000078
4,18.974121000000196,23.461425999999847,82.56396500000028,108.7177729999994,126.6665039999998,109.48730499999965,122.05126999999993,119.23095699999976,118.58984400000008,111.2822270000006,54.48730499999965,84.48730499999965,-24.10253899999998,113.9741210000002
5,8.205077999999958,17.30761700000039,72.94873000000007,99.48730499999965,112.56396500000028,110.0,111.9228520000006,111.41015599999992,105.25634799999989,95.12841800000024,44.48730499999965,76.6665039999998,-34.23071300000038,119.23095699999976
6,2.4360349999997197,13.717772999999397,65.51269500000035,92.94873000000007,100.12841800000024,109.87158199999976,104.35888699999941,107.69238299999961,95.64111300000059,82.17968800000017,36.666503999999804,69.74365200000011,-40.38452099999995,122.05126999999993
7,3.077147999999397,13.974121000000196,63.589844000000085,91.6665039999998,94.74365200000011,109.23095699999976,102.94873000000007,108.58984400000008,93.84619099999964,77.82031300000017,33.333496000000196,66.6665039999998,-39.8718259999996,120.89746099999957
8,9.102539000000434,19.102539000000434,68.7177729999994,97.30761700000039,99.23095699999976,109.10253900000043,107.94873000000007,112.43603499999972,100.25634799999989,83.20507799999996,35.897460999999566,68.84619099999964,-31.794922000000042,116.79492200000004
9,17.56396500000028,27.94873000000007,78.46142599999985,107.30761700000039,110.76904300000024,110.0,115.12841800000024,116.79492200000004,110.89746099999957,94.61523400000078,42.94873000000007,74.87158199999976,-19.487060999999812,112.56396500000028
10,24.230956999999762,35.64111300000059,86.6665039999998,115.89746099999957,121.6665039999998,111.41015599999992,119.61523400000078,119.35888699999941,119.61523400000078,104.87158199999976,51.410155999999915,80.64111300000059,-9.358886999999868,110.25634799999989
11,26.282227000000603,37.56396500000028,88.20507799999996,118.46142599999985,124.61523400000078,112.05126999999993,119.61523400000078,118.9741210000002,121.6665039999998,107.30761700000039,57.43603499999972,82.05126999999993,-6.794922000000042,111.0258789999998
12,23.846190999999635,33.589844000000085,82.69238299999961,114.48730499999965,117.30761700000039,111.79492200000004,117.56396500000028,116.9228520000006,116.9228520000006,100.64111300000059,58.589844000000085,78.58984400000008,-12.307617000000391,113.84619099999964
13,19.358886999999413,27.69238299999961,75.0,107.69238299999961,105.0,111.2822270000006,117.82031300000017,115.25634799999989,110.0,90.0,55.76904300000024,73.7177729999994,-20.89746100000002,116.53857400000015
14,16.282227000000603,25.25634799999989,71.2822270000006,102.94873000000007,96.41015599999992,111.41015599999992,121.53857400000015,115.25634799999989,106.79492200000004,83.3334960000002,51.79492200000004,71.15380900000036,-25.769286999999622,117.17968800000017
15,16.666503999999804,28.461425999999847,74.35888699999941,102.69238299999961,98.20507799999996,112.82031300000017,126.0258789999998,116.79492200000004,109.74365200000011,85.76904300000024,50.0,72.43603499999972,-23.71801800000003,115.89746099999957
16,20.25634799999989,34.74365200000011,81.2822270000006,105.25634799999989,108.9741210000002,115.0,127.17968800000017,118.20507799999996,116.0258789999998,95.0,51.410155999999915,75.89746099999957,-17.179442999999992,114.35888699999941
17,24.358886999999413,38.20507799999996,86.6665039999998,107.17968800000017,121.15380900000036,116.6665039999998,124.23095699999976,118.3334960000002,120.12841800000024,103.9741210000002,54.74365200000011,78.20507799999996,-12.051270000000386,113.9741210000002
18,25.641113000000587,35.38476599999922,86.9228520000006,106.41015599999992,126.53857400000015,116.9228520000006,119.48730499999965,116.6665039999998,118.3334960000002,106.2822270000006,57.05126999999993,77.69238299999961,-12.692382999999609,114.35888699999941
19,23.205077999999958,28.205077999999958,83.20507799999996,103.58984400000008,122.69238299999961,115.89746099999957,116.2822270000006,114.48730499999965,111.9228520000006,100.89746099999957,56.666503999999804,75.0,-17.948729999999614,114.48730499999965
20,19.871581999999762,23.461425999999847,79.35888699999941,100.76904300000024,114.10253900000043,114.23095699999976,116.41015599999992,113.84619099999964,105.89746099999957,93.3334960000002,54.102539000000434,72.82031300000017,-23.205077999999958,113.7177729999994
21,18.717772999999397,25.769043000000238,78.84619099999964,99.10253900000043,107.30761700000039,112.30761700000039,119.23095699999976,115.38476599999922,105.0,89.87158199999976,51.79492200000004,72.82031300000017,-24.230713000000378,112.82031300000017
22,21.025878999999804,33.333496000000196,81.79492200000004,98.58984400000008,105.89746099999957,110.76904300000024,122.17968800000017,118.20507799999996,109.61523400000078,92.56396500000028,51.666503999999804,74.87158199999976,-21.666747999999643,112.56396500000028
23,25.51269500000035,39.61523400000078,85.64111300000059,98.58984400000008,108.58984400000008,110.51269500000035,123.0771479999994,120.25634799999989,116.0258789999998,98.46142599999985,53.7177729999994,77.69238299999961,-18.846190999999635,112.82031300000017
24,30.25634799999989,40.38476599999922,87.56396500000028,99.23095699999976,111.9228520000006,111.9228520000006,121.9228520000006,120.38476599999922,120.0,102.30761700000039,56.53857400000015,79.74365200000011,-17.948729999999614,113.20507799999996
25,35.12841800000024,37.43603499999972,87.30761700000039,101.9228520000006,113.58984400000008,114.87158199999976,120.64111300000059,118.84619099999964,120.0,102.30761700000039,59.87158199999976,81.15380900000036,-17.30761700000039,113.20507799999996
26,40.76904300000024,37.17968800000017,87.05126999999993,107.30761700000039,113.84619099999964,117.43603499999972,120.89746099999957,117.30761700000039,118.0771479999994,100.51269500000035,64.48730499999965,82.43603499999972,-12.948729999999614,113.0771479999994
27,47.43603499999972,43.0771479999994,88.7177729999994,113.58984400000008,113.9741210000002,118.0771479999994,122.30761700000039,117.43603499999972,117.17968800000017,100.38476599999922,70.12841800000024,84.35888699999941,-3.846190999999635,112.94873000000007
28,52.43603499999972,52.05126999999993,91.2822270000006,116.9228520000006,113.0771479999994,116.41015599999992,122.82031300000017,118.7177729999994,117.94873000000007,102.56396500000028,75.0,86.41015599999992,5.641113000000587,112.82031300000017
29,52.94873000000007,56.410155999999915,92.17968800000017,114.74365200000011,108.7177729999994,113.3334960000002,120.25634799999989,119.48730499999965,118.3334960000002,104.48730499999965,76.53857400000015,86.79492200000004,8.717772999999397,112.94873000000007
30,48.333496000000196,51.2822270000006,89.87158199999976,107.69238299999961,100.25634799999989,110.89746099999957,115.38476599999922,117.69238299999961,116.53857400000015,104.10253900000043,74.35888699999941,84.87158199999976,2.6923829999996087,113.3334960000002
31,41.9228520000006,40.12841800000024,85.76904300000024,100.25634799999989,91.2822270000006,109.74365200000011,110.51269500000035,113.7177729999994,112.94873000000007,102.30761700000039,71.2822270000006,82.05126999999993,-7.820557000000008,113.3334960000002
32,38.333496000000196,31.922852000000603,82.94873000000007,98.0771479999994,87.82031300000017,109.87158199999976,108.84619099999964,110.12841800000024,110.76904300000024,101.6665039999998,70.76904300000024,81.15380900000036,-14.61547900000005,112.69238299999961
33,40.25634799999989,34.23095699999976,83.9741210000002,103.9741210000002,92.82031300000017,110.51269500000035,111.53857400000015,110.12841800000024,112.56396500000028,104.23095699999976,74.35888699999941,82.69238299999961,-11.666747999999643,111.53857400000015
34,46.79492200000004,46.153809000000365,88.7177729999994,115.51269500000035,104.35888699999941,110.64111300000059,118.20507799999996,115.12841800000024,118.46142599999985,109.61523400000078,80.51269500000035,85.0,0.256347999999889,110.64111300000059
35,55.0,60.64111300000059,95.38476599999922,127.43603499999972,116.0258789999998,109.61523400000078,126.2822270000006,123.3334960000002,125.64111300000059,116.15380900000036,86.0258789999998,86.41015599999992,14.871581999999762,110.51269500000035
36,61.025878999999804,68.9741210000002,101.15380900000036,134.23095699999976,121.9228520000006,107.43603499999972,132.56396500000028,130.89746099999957,130.51269500000035,121.41015599999992,88.84619099999964,86.6665039999998,25.641113000000587,111.2822270000006
37,62.43603499999972,67.82031300000017,103.46142599999985,133.84619099999964,120.76904300000024,106.0258789999998,134.48730499999965,133.84619099999964,131.15380900000036,123.58984400000008,89.23095699999976,86.6665039999998,28.589844000000085,112.17968800000017
38,58.846190999999635,60.25634799999989,101.15380900000036,127.69238299999961,115.76904300000024,106.53857400000015,130.6411130000006,130.76904300000024,127.69238299999961,121.41015599999992,88.7177729999994,86.6665039999998,24.615234000000783,112.82031300000017
39,52.17968800000017,52.82031300000017,95.25634799999989,119.87158199999976,111.79492200000004,108.84619099999964,122.56396500000028,123.46142599999985,121.6665039999998,115.89746099999957,88.46142599999985,86.0258789999998,17.05126999999993,112.94873000000007
40,45.64111300000059,50.38476599999922,88.58984400000008,114.48730499999965,111.6665039999998,110.64111300000059,114.35888699999941,116.15380900000036,116.0258789999998,109.10253900000043,87.82031300000017,84.74365200000011,10.0,112.82031300000017
41,41.666503999999804,53.46142599999985,84.74365200000011,113.58984400000008,114.61523400000078,110.51269500000035,111.0258789999998,112.69238299999961,113.46142599999985,104.74365200000011,85.64111300000059,83.46142599999985,6.282227000000603,113.0771479999994
42,40.64111300000059,58.333496000000196,85.51269500000035,116.53857400000015,117.43603499999972,108.84619099999964,114.23095699999976,113.84619099999964,114.48730499999965,105.25634799999989,81.9228520000006,82.69238299999961,5.769043000000238,113.9741210000002
43,41.53857400000015,61.025878999999804,88.9741210000002,120.89746099999957,116.79492200000004,107.56396500000028,120.76904300000024,116.9228520000006,117.56396500000028,110.12841800000024,77.30761700000039,82.69238299999961,7.179688000000169,115.0
44,42.30761700000039,59.74365200000011,91.41015599999992,123.3334960000002,111.15380900000036,107.43603499999972,125.38476599999922,118.20507799999996,119.48730499999965,115.89746099999957,73.0771479999994,82.94873000000007,8.717772999999397,115.51269500000035
45,41.2822270000006,55.0,90.25634799999989,122.05126999999993,101.79492200000004,108.3334960000002,124.74365200000011,116.15380900000036,117.82031300000017,117.69238299999961,69.61523400000078,83.20507799999996,8.717772999999397,115.38476599999922
46,37.94873000000007,49.74365200000011,86.6665039999998,118.0771479999994,93.58984400000008,109.74365200000011,119.87158199999976,111.6665039999998,112.94873000000007,113.58984400000008,67.17968800000017,83.3334960000002,6.666503999999804,115.12841800000024
47,33.974121000000196,46.79492200000004,84.23095699999976,114.61523400000078,91.79492200000004,111.0258789999998,114.23095699999976,108.0771479999994,108.7177729999994,105.76904300000024,66.79492200000004,83.20507799999996,3.9741210000001956,115.0
48,32.43603499999972,47.82031300000017,86.15380900000036,115.0,97.94873000000007,112.30761700000039,111.9228520000006,108.20507799999996,108.58984400000008,99.35888699999941,69.74365200000011,83.3334960000002,2.9487300000000687,115.25634799999989
49,35.64111300000059,52.17968800000017,92.43603499999972,119.35888699999941,108.7177729999994,113.0771479999994,113.9741210000002,111.9228520000006,112.94873000000007,98.7177729999994,75.89746099999957,83.9741210000002,5.256347999999889,115.76904300000024
50,41.53857400000015,57.17968800000017,99.23095699999976,124.10253900000043,117.56396500000028,113.3334960000002,118.84619099999964,116.53857400000015,118.46142599999985,103.58984400000008,82.56396500000028,85.0,10.0,116.2822270000006
51,45.51269500000035,59.87158199999976,101.41015599999992,124.87158199999976,118.9741210000002,112.82031300000017,122.43603499999972,118.46142599999985,120.25634799999989,109.48730499999965,84.61523400000078,85.51269500000035,13.717772999999397,115.89746099999957
52,43.46142599999985,59.23095699999976,96.9228520000006,120.12841800000024,112.82031300000017,111.6665039999998,122.05126999999993,116.41015599999992,116.15380900000036,110.51269500000035,79.74365200000011,84.87158199999976,13.589844000000085,114.10253900000043
53,36.410155999999915,56.025878999999804,88.9741210000002,112.56396500000028,103.7177729999994,110.0,117.82031300000017,111.79492200000004,108.46142599999985,105.38476599999922,70.64111300000059,83.46142599999985,9.615234000000783,111.6665039999998
54,30.128418000000238,52.17968800000017,82.94873000000007,106.6665039999998,97.43603499999972,108.84619099999964,113.0771479999994,107.94873000000007,102.56396500000028,97.94873000000007,64.61523400000078,82.56396500000028,5.0,110.12841800000024
55,30.25634799999989,50.25634799999989,82.56396500000028,106.15380900000036,97.05126999999993,108.84619099999964,111.79492200000004,107.17968800000017,103.20507799999996,94.74365200000011,67.56396500000028,82.94873000000007,4.487304999999651,110.38476599999922
56,37.82031300000017,51.410155999999915,87.56396500000028,111.15380900000036,101.6665039999998,109.87158199999976,115.64111300000059,110.25634799999989,111.0258789999998,98.9741210000002,79.10253900000043,84.74365200000011,10.256347999999889,111.79492200000004
57,48.7177729999994,55.76904300000024,94.35888699999941,118.84619099999964,107.43603499999972,110.64111300000059,122.17968800000017,115.25634799999989,121.15380900000036,108.46142599999985,92.82031300000017,86.79492200000004,20.128418000000238,112.94873000000007
58,57.17968800000017,61.666503999999804,98.9741210000002,124.48730499999965,111.41015599999992,110.38476599999922,127.30761700000039,119.48730499999965,127.82031300000017,117.82031300000017,100.64111300000059,87.82031300000017,28.974121000000196,113.3334960000002
59,60.12841800000024,66.79492200000004,100.12841800000024,125.0,112.69238299999961,109.10253900000043,128.20507799999996,120.76904300000024,127.56396500000028,122.17968800000017,99.10253900000043,87.30761700000039,32.43603499999972,113.0771479999994
60,58.20507799999996,69.35888699999941,98.7177729999994,120.89746099999957,112.17968800000017,107.69238299999961,125.38476599999922,119.23095699999976,122.30761700000039,121.0258789999998,91.0258789999998,85.76904300000024,30.25634799999989,112.56396500000028
61,54.74365200000011,69.35888699999941,97.17968800000017,116.0258789999998,111.0258789999998,107.17968800000017,121.41015599999992,116.6665039999998,117.17968800000017,116.79492200000004,83.20507799999996,84.35888699999941,25.769043000000238,112.30761700000039
62,52.82031300000017,68.20507799999996,97.05126999999993,114.35888699999941,109.87158199999976,107.94873000000007,118.46142599999985,114.87158199999976,115.89746099999957,113.46142599999985,80.51269500000035,83.9741210000002,22.56396500000028,112.56396500000028
63,53.589844000000085,66.79492200000004,98.3334960000002,117.17968800000017,107.94873000000007,109.35888699999941,117.17968800000017,114.74365200000011,117.56396500000028,112.94873000000007,82.56396500000028,84.87158199999976,22.05126999999993,113.3334960000002
64,55.897460999999566,65.12841800000024,99.23095699999976,121.9228520000006,105.0,110.51269500000035,116.9228520000006,115.51269500000035,119.23095699999976,114.10253900000043,85.38476599999922,86.53857400000015,22.82031300000017,114.10253900000043
65,57.94873000000007,63.589844000000085,99.23095699999976,125.51269500000035,102.05126999999993,110.38476599999922,117.17968800000017,116.0258789999998,118.7177729999994,114.61523400000078,86.41015599999992,87.69238299999961,23.717772999999397,114.23095699999976
66,58.846190999999635,63.7177729999994,99.10253900000043,127.17968800000017,101.79492200000004,109.35888699999941,118.46142599999985,116.2822270000006,116.9228520000006,113.84619099999964,86.6665039999998,87.69238299999961,25.25634799999989,113.9741210000002
67,60.25634799999989,67.05126999999993,100.0,128.46142599999985,105.89746099999957,108.84619099999964,121.53857400000015,117.17968800000017,116.79492200000004,113.3334960000002,89.61523400000078,87.17968800000017,29.230956999999762,114.35888699999941
68,64.48730499999965,73.58984400000008,101.9228520000006,130.6411130000006,114.23095699999976,109.61523400000078,126.0258789999998,119.23095699999976,120.25634799999989,114.87158199999976,96.41015599999992,87.56396500000028,35.897460999999566,115.64111300000059
69,71.0258789999998,80.25634799999989,103.9741210000002,132.94873000000007,123.3334960000002,110.64111300000059,129.87158199999976,121.9228520000006,126.0258789999998,117.82031300000017,104.35888699999941,88.84619099999964,42.94873000000007,116.6665039999998
70,76.41015599999992,83.58984400000008,104.87158199999976,133.0771479999994,128.7177729999994,110.89746099999957,130.51269500000035,122.94873000000007,129.7436520000001,119.10253900000043,107.94873000000007,90.12841800000024,46.666503999999804,116.15380900000036
71,76.41015599999992,81.53857400000015,103.9741210000002,129.3588869999994,127.30761700000039,109.87158199999976,126.79492200000004,121.0258789999998,127.69238299999961,116.15380900000036,104.35888699999941,89.87158199999976,44.61523400000078,114.23095699999976
72,70.12841800000024,75.51269500000035,102.17968800000017,122.94873000000007,120.25634799999989,108.20507799999996,120.0,116.79492200000004,119.61523400000078,108.84619099999964,95.0,87.69238299999961,38.0771479999994,112.17968800000017
73,60.897460999999566,69.23095699999976,100.25634799999989,116.41015599999992,111.6665039999998,106.41015599999992,113.9741210000002,112.43603499999972,110.0,100.89746099999957,85.12841800000024,85.0,31.153809000000365,111.0258789999998
74,54.48730499999965,67.17968800000017,98.58984400000008,112.17968800000017,106.2822270000006,105.76904300000024,112.30761700000039,110.38476599999922,104.74365200000011,96.9228520000006,80.12841800000024,83.9741210000002,27.82031300000017,111.2822270000006
75,55.51269500000035,70.89746099999957,97.94873000000007,112.05126999999993,106.41015599999992,106.6665039999998,115.12841800000024,111.2822270000006,107.05126999999993,99.48730499999965,82.30761700000039,86.41015599999992,30.641113000000587,112.43603499999972
76,64.23095699999976,79.48730499999965,99.48730499999965,116.53857400000015,111.6665039999998,108.3334960000002,119.87158199999976,113.9741210000002,115.51269500000035,107.05126999999993,89.61523400000078,92.43603499999972,38.7177729999994,113.3334960000002
77,76.2822270000006,88.84619099999964,103.7177729999994,123.7177729999994,118.3334960000002,109.74365200000011,123.0771479999994,116.41015599999992,124.74365200000011,115.64111300000059,97.82031300000017,98.84619099999964,48.589844000000085,112.94873000000007
78,86.2822270000006,94.87158199999976,109.74365200000011,130.38476599999922,122.17968800000017,110.38476599999922,122.94873000000007,116.9228520000006,129.3588869999994,121.53857400000015,103.0771479999994,102.30761700000039,55.51269500000035,111.2822270000006
79,90.51269500000035,95.25634799999989,115.0,133.7177729999994,121.53857400000015,110.25634799999989,120.51269500000035,115.76904300000024,127.30761700000039,122.82031300000017,104.10253900000043,101.41015599999992,57.17968800000017,109.61523400000078
80,88.84619099999964,91.15380900000036,117.43603499999972,133.58984400000008,118.3334960000002,109.35888699999941,117.69238299999961,114.10253900000043,121.2822270000006,119.35888699999941,102.17968800000017,98.20507799999996,54.61523400000078,109.48730499999965
81,84.10253900000043,86.15380900000036,116.15380900000036,131.9228520000006,116.2822270000006,107.69238299999961,115.76904300000024,113.3334960000002,115.64111300000059,113.3334960000002,99.48730499999965,95.51269500000035,50.51269500000035,111.0258789999998
82,79.74365200000011,83.46142599999985,112.05126999999993,131.0258789999998,117.43603499999972,106.41015599999992,115.0,113.84619099999964,113.7177729999994,107.69238299999961,97.69238299999961,95.0,47.94873000000007,113.20507799999996
83,77.30761700000039,84.10253900000043,107.43603499999972,131.9228520000006,119.87158199999976,107.43603499999972,115.64111300000059,115.0,115.76904300000024,104.87158199999976,96.2822270000006,96.0258789999998,48.0771479999994,114.35888699999941
84,75.76904300000024,86.2822270000006,104.35888699999941,134.10253900000043,120.38476599999922,111.41015599999992,116.9228520000006,115.76904300000024,119.61523400000078,104.87158199999976,93.84619099999964,96.15380900000036,49.74365200000011,114.23095699999976
85,73.58984400000008,87.56396500000028,102.94873000000007,135.6411130000006,117.56396500000028,116.41015599999992,117.82031300000017,115.89746099999957,122.17968800000017,106.0258789999998,89.87158199999976,93.7177729999994,50.0,113.58984400000008
86,70.64111300000059,86.41015599999992,102.17968800000017,134.48730499999965,112.82031300000017,119.10253900000043,117.30761700000039,115.38476599999922,121.41015599999992,106.41015599999992,85.76904300000024,88.84619099999964,47.05126999999993,112.82031300000017
87,68.7177729999994,82.43603499999972,101.15380900000036,130.38476599999922,108.58984400000008,117.69238299999961,115.25634799999989,114.61523400000078,117.43603499999972,105.12841800000024,83.7177729999994,84.10253900000043,41.2822270000006,112.43603499999972
88,69.61523400000078,77.17968800000017,100.25634799999989,125.89746099999957,106.53857400000015,112.82031300000017,113.7177729999994,113.7177729999994,113.0771479999994,103.3334960000002,85.12841800000024,82.56396500000028,35.76904300000024,112.30761700000039
89,73.3334960000002,73.84619099999964,101.53857400000015,125.12841800000024,107.43603499999972,107.82031300000017,115.12841800000024,113.7177729999994,111.6665039999998,103.46142599999985,89.48730499999965,85.64111300000059,34.61523400000078,112.17968800000017
90,78.58984400000008,74.87158199999976,105.64111300000059,130.12841800000024,111.0258789999998,105.38476599999922,119.87158199999976,115.25634799999989,114.74365200000011,107.30761700000039,95.51269500000035,91.41015599999992,39.35888699999941,111.9228520000006
91,83.7177729999994,80.38476599999922,111.0258789999998,138.46142599999985,116.53857400000015,106.53857400000015,125.89746099999957,118.9741210000002,121.2822270000006,114.48730499999965,101.6665039999998,97.05126999999993,48.46142599999985,111.41015599999992
92,88.20507799999996,88.0771479999994,115.51269500000035,145.0,123.20507799999996,109.61523400000078,130.51269500000035,124.48730499999965,129.23095699999976,122.69238299999961,107.05126999999993,100.51269500000035,58.20507799999996,111.15380900000036
93,93.0771479999994,94.48730499999965,118.46142599999985,145.89746099999957,129.23095699999976,112.05126999999993,131.79492200000004,130.12841800000024,136.15380900000036,129.3588869999994,111.41015599999992,102.17968800000017,65.89746099999957,111.2822270000006
94,98.46142599999985,97.82031300000017,120.12841800000024,141.15380900000036,131.9228520000006,111.53857400000015,129.48730499999965,133.20507799999996,139.61523400000078,132.17968800000017,114.74365200000011,102.82031300000017,70.76904300000024,111.53857400000015
95,102.94873000000007,98.20507799999996,120.76904300000024,133.9741210000002,129.23095699999976,108.58984400000008,124.74365200000011,132.17968800000017,138.0771479999994,130.0,115.76904300000024,102.43603499999972,72.17968800000017,111.41015599999992
96,104.10253900000043,96.2822270000006,120.0,128.58984400000008,122.17968800000017,105.89746099999957,119.74365200000011,127.05126999999993,131.9228520000006,122.69238299999961,113.0771479999994,100.64111300000059,70.51269500000035,110.76904300000024
97,100.25634799999989,93.46142599999985,116.6665039999998,127.17968800000017,114.74365200000011,105.25634799999989,116.2822270000006,120.0,123.58984400000008,112.82031300000017,106.2822270000006,97.69238299999961,66.41015599999992,110.38476599999922
98,92.43603499999972,90.89746099999957,111.53857400000015,129.3588869999994,110.89746099999957,106.6665039999998,115.38476599999922,113.9741210000002,116.41015599999992,104.23095699999976,97.82031300000017,93.9741210000002,61.2822270000006,110.89746099999957
99,84.48730499999965,89.61523400000078,106.41015599999992,132.56396500000028,111.41015599999992,108.46142599999985,116.0258789999998,111.2822270000006,113.20507799999996,100.0,91.79492200000004,90.64111300000059,56.9228520000006,112.17968800000017
100,80.0,89.48730499999965,103.9741210000002,134.48730499999965,113.0771479999994,109.23095699999976,116.79492200000004,112.17968800000017,114.74365200000011,101.79492200000004,91.15380900000036,88.58984400000008,54.48730499999965,113.46142599999985
101,80.25634799999989,89.23095699999976,104.87158199999976,134.23095699999976,112.43603499999972,109.35888699999941,117.05126999999993,114.35888699999941,119.10253900000043,108.0771479999994,94.48730499999965,88.3334960000002,53.7177729999994,113.7177729999994
102,83.7177729999994,87.94873000000007,106.9228520000006,132.17968800000017,108.20507799999996,109.23095699999976,116.6665039999998,115.76904300000024,122.82031300000017,115.38476599999922,97.94873000000007,89.23095699999976,53.7177729999994,112.69238299999961
103,87.56396500000028,86.0258789999998,107.30761700000039,130.2563479999999,102.69238299999961,109.74365200000011,116.15380900000036,115.25634799999989,123.46142599999985,119.48730499999965,97.43603499999972,90.38476599999922,53.974121000000196,110.64111300000059
104,89.23095699999976,84.23095699999976,104.74365200000011,129.61523400000078,100.51269500000035,110.51269500000035,115.25634799999989,113.46142599999985,120.76904300000024,118.3334960000002,92.94873000000007,91.15380900000036,54.61523400000078,109.35888699999941
105,88.46142599999985,84.87158199999976,100.89746099999957,131.2822270000006,104.10253900000043,111.53857400000015,113.58984400000008,111.79492200000004,117.05126999999993,114.10253900000043,87.94873000000007,91.2822270000006,56.2822270000006,109.87158199999976
106,87.94873000000007,89.23095699999976,99.23095699999976,135.89746099999957,111.9228520000006,112.30761700000039,111.41015599999992,111.41015599999992,115.12841800000024,110.89746099999957,86.6665039999998,91.2822270000006,58.846190999999635,111.53857400000015
107,90.12841800000024,96.53857400000015,102.17968800000017,142.82031300000017,120.12841800000024,112.69238299999961,110.76904300000024,112.56396500000028,117.05126999999993,111.2822270000006,90.51269500000035,91.79492200000004,62.30761700000039,112.43603499999972
108,95.89746099999957,103.58984400000008,109.10253900000043,149.48730499999965,126.0258789999998,112.69238299999961,113.84619099999964,115.0,122.82031300000017,114.48730499999965,97.30761700000039,93.20507799999996,66.0258789999998,111.79492200000004
109,102.05126999999993,105.76904300000024,116.9228520000006,151.9228520000006,128.84619099999964,112.05126999999993,120.89746099999957,117.94873000000007,130.12841800000024,117.56396500000028,104.23095699999976,96.15380900000036,69.23095699999976,110.25634799999989
110,104.61523400000078,100.51269500000035,121.41015599999992,147.43603499999972,128.58984400000008,110.64111300000059,129.10253900000043,120.64111300000059,135.89746099999957,118.84619099999964,108.3334960000002,99.61523400000078,70.76904300000024,109.35888699999941
111,101.0258789999998,89.35888699999941,120.89746099999957,136.9228520000006,124.61523400000078,109.23095699999976,134.23095699999976,122.05126999999993,137.82031300000017,118.46142599999985,108.3334960000002,101.9228520000006,69.74365200000011,110.12841800000024
112,92.82031300000017,78.58984400000008,116.41015599999992,125.38476599999922,117.56396500000028,108.9741210000002,133.0771479999994,121.2822270000006,134.87158199999976,116.9228520000006,104.10253900000043,101.41015599999992,65.64111300000059,112.30761700000039
113,85.38476599999922,74.87158199999976,111.9228520000006,118.3334960000002,109.74365200000011,110.89746099999957,126.15380900000036,118.3334960000002,127.69238299999961,113.9741210000002,96.6665039999998,97.94873000000007,59.23095699999976,114.61523400000078
114,84.10253900000043,81.0258789999998,110.12841800000024,118.9741210000002,105.12841800000024,113.9741210000002,116.9228520000006,114.23095699999976,118.9741210000002,109.10253900000043,88.9741210000002,93.0771479999994,52.56396500000028,115.64111300000059
115,91.0258789999998,94.61523400000078,111.53857400000015,126.41015599999992,106.79492200000004,117.05126999999993,110.64111300000059,111.2822270000006,112.30761700000039,103.58984400000008,84.48730499999965,90.12841800000024,49.61523400000078,114.48730499999965
116,103.58984400000008,110.25634799999989,114.87158199999976,136.79492200000004,114.23095699999976,118.58984400000008,110.89746099999957,111.2822270000006,110.89746099999957,100.89746099999957,86.2822270000006,91.2822270000006,53.46142599999985,111.9228520000006
117,115.89746099999957,122.17968800000017,118.46142599999985,145.12841800000024,122.43603499999972,117.82031300000017,116.2822270000006,113.9741210000002,114.35888699999941,102.94873000000007,94.23095699999976,96.0258789999998,63.0771479999994,110.25634799999989
118,122.17968800000017,126.6665039999998,120.25634799999989,147.82031300000017,125.12841800000024,114.35888699999941,121.79492200000004,116.79492200000004,118.84619099999964,107.56396500000028,104.35888699999941,101.15380900000036,73.58984400000008,110.76904300000024
119,121.79492200000004,125.0,119.74365200000011,144.87158199999976,119.87158199999976,109.23095699999976,122.69238299999961,117.56396500000028,120.51269500000035,110.76904300000024,112.17968800000017,103.46142599999985,80.38476599999922,112.69238299999961
120,119.10253900000043,123.0771479999994,118.7177729999994,141.53857400000015,111.6665039999998,105.51269500000035,119.10253900000043,116.41015599999992,118.84619099999964,112.17968800000017,115.38476599999922,102.94873000000007,83.3334960000002,114.35888699999941
121,120.51269500000035,126.2822270000006,120.25634799999989,143.84619099999964,109.61523400000078,106.15380900000036,115.89746099999957,115.76904300000024,117.69238299999961,114.74365200000011,116.0258789999998,102.82031300000017,86.6665039999998,114.61523400000078
122,128.7177729999994,135.6411130000006,126.15380900000036,153.58984400000008,118.3334960000002,111.41015599999992,118.0771479999994,118.46142599999985,120.89746099999957,121.15380900000036,117.82031300000017,106.15380900000036,93.7177729999994,113.58984400000008
123,140.51269500000035,145.6411130000006,134.61523400000078,165.0,133.0771479999994,118.0771479999994,125.64111300000059,124.61523400000078,128.46142599999985,129.10253900000043,122.30761700000039,112.43603499999972,102.30761700000039,112.17968800000017
124,147.82031300000017,149.23095699999976,140.38476599999922,169.48730499999965,142.3076170000004,121.15380900000036,132.94873000000007,130.12841800000024,135.6411130000006,132.82031300000017,126.2822270000006,117.56396500000028,106.0258789999998,111.15380900000036
125,144.10253900000043,142.6923829999996,138.84619099999964,162.43603499999972,137.56396500000028,118.20507799999996,133.9741210000002,130.2563479999999,135.6411130000006,127.43603499999972,124.61523400000078,117.05126999999993,99.61523400000078,111.0258789999998
126,129.7436520000001,129.10253900000043,129.48730499999965,147.17968800000017,120.64111300000059,110.64111300000059,126.41015599999992,123.3334960000002,125.25634799999989,113.9741210000002,115.51269500000035,110.0,84.23095699999976,111.79492200000004
127,112.17968800000017,115.38476599999922,117.43603499999972,132.43603499999972,102.82031300000017,103.3334960000002,115.0,112.43603499999972,108.58984400000008,99.10253900000043,102.82031300000017,100.38476599999922,67.82031300000017,113.0771479999994
128,100.64111300000059,107.69238299999961,109.23095699999976,126.0258789999998,95.25634799999989,100.38476599999922,106.0258789999998,103.20507799999996,94.48730499999965,90.38476599999922,93.46142599999985,93.3334960000002,58.974121000000196,113.84619099999964
129,99.23095699999976,107.69238299999961,108.20507799999996,129.3588869999994,100.0,103.20507799999996,103.46142599999985,99.74365200000011,90.38476599999922,91.41015599999992,91.2822270000006,91.15380900000036,60.0,113.7177729999994
130,105.25634799999989,112.69238299999961,112.17968800000017,137.17968800000017,109.23095699999976,109.23095699999976,106.6665039999998,102.05126999999993,96.53857400000015,98.7177729999994,95.0,92.82031300000017,66.79492200000004,112.94873000000007
131,112.43603499999972,118.0771479999994,117.17968800000017,142.05126999999993,114.35888699999941,114.48730499999965,112.05126999999993,107.17968800000017,107.17968800000017,105.51269500000035,99.61523400000078,95.12841800000024,72.43603499999972,112.17968800000017
132,116.0258789999998,120.51269500000035,119.61523400000078,140.38476599999922,112.82031300000017,115.89746099999957,116.2822270000006,112.05126999999993,115.12841800000024,107.56396500000028,101.9228520000006,96.2822270000006,73.3334960000002,111.9228520000006
133,114.87158199999976,119.87158199999976,118.84619099999964,134.3588869999994,108.20507799999996,113.58984400000008,117.43603499999972,113.9741210000002,116.2822270000006,105.38476599999922,102.05126999999993,96.0258789999998,70.51269500000035,111.79492200000004
134,110.76904300000024,117.56396500000028,115.51269500000035,129.10253900000043,105.25634799999989,110.38476599999922,115.25634799999989,112.17968800000017,111.2822270000006,102.43603499999972,101.41015599999992,95.51269500000035,66.9228520000006,111.79492200000004
135,106.15380900000036,116.0258789999998,111.53857400000015,127.94873000000007,105.0,108.7177729999994,111.15380900000036,108.0771479999994,103.84619099999964,100.76904300000024,100.64111300000059,95.12841800000024,64.74365200000011,111.79492200000004
136,103.3334960000002,116.79492200000004,109.35888699999941,131.0258789999998,105.76904300000024,109.10253900000043,106.9228520000006,104.61523400000078,98.9741210000002,99.74365200000011,99.87158199999976,95.12841800000024,63.974121000000196,111.9228520000006
137,104.61523400000078,120.38476599999922,110.64111300000059,136.9228520000006,107.82031300000017,110.51269500000035,105.25634799999989,104.35888699999941,100.64111300000059,98.84619099999964,99.74365200000011,95.64111300000059,65.12841800000024,112.30761700000039
138,111.79492200000004,126.6665039999998,115.38476599999922,144.48730499999965,113.20507799999996,112.05126999999993,107.94873000000007,108.84619099999964,109.23095699999976,100.25634799999989,102.17968800000017,97.43603499999972,69.10253900000043,112.82031300000017
139,122.94873000000007,134.23095699999976,121.79492200000004,152.6923829999996,122.69238299999961,113.84619099999964,114.35888699999941,116.6665039999998,121.6665039999998,106.79492200000004,107.82031300000017,100.64111300000059,76.2822270000006,113.0771479999994
140,132.6923829999996,139.61523400000078,126.6665039999998,159.23095699999976,132.43603499999972,115.64111300000059,121.2822270000006,123.9741210000002,131.53857400000015,117.82031300000017,114.87158199999976,103.9741210000002,83.84619099999964,112.82031300000017
141,135.12841800000024,138.7177729999994,128.0771479999994,160.38476599999922,135.89746099999957,116.41015599999992,124.23095699999976,126.2822270000006,134.10253900000043,127.43603499999972,118.84619099999964,105.51269500000035,86.53857400000015,111.9228520000006
142,128.0771479999994,130.89746099999957,125.25634799999989,154.3588869999994,129.61523400000078,115.38476599999922,121.9228520000006,122.94873000000007,128.58984400000008,129.23095699999976,116.53857400000015,104.61523400000078,80.76904300000024,111.15380900000036
143,115.25634799999989,119.87158199999976,120.38476599999922,143.0771479999994,116.0258789999998,113.3334960000002,116.41015599999992,117.17968800000017,119.35888699999941,121.2822270000006,108.7177729999994,101.9228520000006,68.58984400000008,111.41015599999992
144,103.0771479999994,111.15380900000036,115.76904300000024,132.82031300000017,102.82031300000017,112.05126999999993,111.6665039999998,113.20507799999996,112.17968800000017,108.46142599999985,99.87158199999976,98.9741210000002,56.9228520000006,112.56396500000028
145,97.17968800000017,108.20507799999996,113.7177729999994,128.3334960000002,97.82031300000017,112.43603499999972,110.64111300000059,112.82031300000017,110.0,97.69238299999961,94.74365200000011,97.43603499999972,52.82031300000017,113.84619099999964
146,99.61523400000078,111.0258789999998,114.35888699999941,130.38476599999922,102.56396500000028,114.10253900000043,113.58984400000008,114.87158199999976,111.79492200000004,93.3334960000002,95.76904300000024,98.3334960000002,57.94873000000007,114.48730499999965
147,107.69238299999961,116.9228520000006,116.53857400000015,135.12841800000024,111.0258789999998,114.74365200000011,117.43603499999972,116.2822270000006,114.35888699999941,95.38476599999922,100.76904300000024,100.76904300000024,67.82031300000017,114.74365200000011
148,115.38476599999922,121.53857400000015,118.20507799999996,137.3076170000004,114.74365200000011,112.82031300000017,118.9741210000002,115.12841800000024,115.12841800000024,100.38476599999922,105.0,102.30761700000039,75.25634799999989,115.12841800000024
149,116.9228520000006,121.0258789999998,117.69238299999961,134.10253900000043,109.48730499999965,109.23095699999976,116.79492200000004,111.53857400000015,113.20507799999996,103.46142599999985,103.9741210000002,100.64111300000059,75.0,115.64111300000059
150,111.9228520000006,114.61523400000078,115.0,127.43603499999972,99.74365200000011,106.2822270000006,112.56396500000028,108.20507799999996,110.0,102.17968800000017,97.82031300000017,96.6665039999998,68.7177729999994,115.64111300000059
151,104.87158199999976,106.2822270000006,112.17968800000017,122.30761700000039,94.10253900000043,106.15380900000036,109.61523400000078,107.56396500000028,108.46142599999985,98.46142599999985,91.9228520000006,93.58984400000008,62.69238299999961,114.74365200000011
152,102.05126999999993,103.0771479999994,112.05126999999993,122.69238299999961,98.58984400000008,109.23095699999976,110.25634799999989,110.51269500000035,110.64111300000059,96.6665039999998,92.17968800000017,94.48730499999965,62.94873000000007,113.0771479999994
153,105.64111300000059,108.84619099999964,115.76904300000024,128.84619099999964,110.38476599999922,114.10253900000043,114.10253900000043,115.64111300000059,116.53857400000015,99.74365200000011,100.12841800000024,98.84619099999964,69.87158199999976,111.2822270000006
154,112.82031300000017,120.51269500000035,121.15380900000036,136.6665039999998,121.53857400000015,118.0771479999994,118.3334960000002,120.12841800000024,123.3334960000002,106.15380900000036,110.76904300000024,103.58984400000008,78.3334960000002,110.25634799999989
155,118.20507799999996,129.48730499999965,124.74365200000011,141.2822270000006,125.0,119.48730499999965,120.25634799999989,121.79492200000004,126.9228520000006,111.53857400000015,116.9228520000006,104.87158199999976,82.30761700000039,111.0258789999998
156,118.0771479999994,128.7177729999994,124.10253900000043,140.2563479999999,120.25634799999989,117.69238299999961,118.0771479999994,119.61523400000078,124.74365200000011,112.69238299999961,115.0,101.15380900000036,79.61523400000078,113.20507799999996
157,112.43603499999972,117.56396500000028,118.84619099999964,134.61523400000078,110.89746099999957,113.9741210000002,112.05126999999993,113.58984400000008,116.79492200000004,109.48730499999965,106.53857400000015,94.23095699999976,72.94873000000007,115.0
158,104.10253900000043,102.69238299999961,110.76904300000024,127.30761700000039,101.79492200000004,110.64111300000059,104.10253900000043,105.64111300000059,105.89746099999957,103.46142599999985,96.2822270000006,87.82031300000017,66.79492200000004,115.12841800000024
159,97.17968800000017,92.94873000000007,103.58984400000008,123.0771479999994,95.51269500000035,109.48730499999965,97.05126999999993,98.46142599999985,96.53857400000015,97.30761700000039,88.84619099999964,85.76904300000024,64.35888699999941,113.84619099999964
160,95.38476599999922,94.35888699999941,101.6665039999998,125.0,93.84619099999964,110.76904300000024,94.35888699999941,95.64111300000059,93.0771479999994,93.84619099999964,87.82031300000017,89.23095699999976,66.53857400000015,113.20507799999996
161,100.25634799999989,106.15380900000036,107.05126999999993,133.3334960000002,98.0771479999994,113.20507799999996,97.69238299999961,98.84619099999964,98.0771479999994,96.0258789999998,93.58984400000008,96.41015599999992,72.56396500000028,113.9741210000002
162,109.48730499999965,121.0258789999998,117.05126999999993,143.20507799999996,107.05126999999993,115.38476599999922,105.25634799999989,106.15380900000036,109.10253900000043,103.84619099999964,103.0771479999994,103.20507799999996,79.74365200000011,115.38476599999922
163,118.20507799999996,129.87158199999976,126.15380900000036,148.7177729999994,116.15380900000036,116.2822270000006,112.69238299999961,112.69238299999961,119.61523400000078,113.20507799999996,111.41015599999992,105.89746099999957,84.48730499999965,115.64111300000059
164,121.79492200000004,128.0771479999994,129.87158199999976,146.53857400000015,120.51269500000035,115.51269500000035,116.0258789999998,113.7177729999994,123.46142599999985,118.20507799999996,115.0,103.46142599999985,84.35888699999941,114.61523400000078
165,119.61523400000078,118.3334960000002,127.30761700000039,138.9741210000002,118.20507799999996,113.58984400000008,114.87158199999976,108.46142599999985,118.84619099999964,115.76904300000024,112.94873000000007,98.3334960000002,80.12841800000024,112.82031300000017
166,115.25634799999989,109.35888699999941,121.53857400000015,132.05126999999993,111.6665039999998,111.6665039999998,112.05126999999993,100.89746099999957,109.87158199999976,108.46142599999985,107.82031300000017,94.23095699999976,75.12841800000024,111.2822270000006
167,112.17968800000017,108.20507799999996,117.17968800000017,131.79492200000004,105.12841800000024,111.9228520000006,111.0258789999998,96.79492200000004,103.3334960000002,102.17968800000017,102.56396500000028,93.7177729999994,72.69238299999961,110.38476599999922
168,112.56396500000028,115.89746099999957,117.17968800000017,139.23095699999976,102.94873000000007,114.48730499999965,112.94873000000007,99.35888699999941,103.58984400000008,101.41015599999992,99.48730499999965,96.2822270000006,74.10253900000043,110.38476599999922
169,115.25634799999989,127.43603499999972,121.2822270000006,149.3588869999994,106.2822270000006,117.69238299999961,116.41015599999992,106.9228520000006,109.35888699999941,105.51269500000035,98.84619099999964,99.61523400000078,78.0771479999994,111.15380900000036
170,118.0771479999994,136.15380900000036,126.6665039999998,155.2563479999999,112.94873000000007,119.23095699999976,119.48730499999965,114.48730499999965,116.15380900000036,110.51269500000035,99.61523400000078,101.9228520000006,81.6665039999998,112.17968800000017
171,118.9741210000002,137.94873000000007,130.38476599999922,154.3588869999994,118.84619099999964,118.3334960000002,120.89746099999957,117.43603499999972,119.10253900000043,112.30761700000039,100.38476599999922,102.43603499999972,83.7177729999994,113.3334960000002
172,117.82031300000017,132.82031300000017,131.2822270000006,149.61523400000078,120.76904300000024,116.41015599999992,120.76904300000024,115.0,116.15380900000036,109.10253900000043,100.38476599999922,101.79492200000004,83.9741210000002,114.48730499999965
173,115.89746099999957,123.84619099999964,130.38476599999922,146.53857400000015,118.84619099999964,115.0,119.74365200000011,110.0,108.9741210000002,102.43603499999972,99.23095699999976,100.51269500000035,83.58984400000008,115.38476599999922
174,114.74365200000011,116.6665039999998,129.10253900000043,148.46142599999985,116.41015599999992,114.87158199999976,118.7177729999994,106.41015599999992,101.41015599999992,96.2822270000006,97.69238299999961,99.23095699999976,83.3334960000002,115.64111300000059
175,114.87158199999976,115.89746099999957,127.94873000000007,153.46142599999985,116.41015599999992,115.64111300000059,117.69238299999961,106.53857400000015,97.56396500000028,94.48730499999965,96.79492200000004,98.84619099999964,83.3334960000002,115.12841800000024
176,115.12841800000024,121.79492200000004,126.15380900000036,156.9228520000006,118.7177729999994,116.6665039999998,116.9228520000006,110.0,98.20507799999996,97.05126999999993,96.41015599999992,99.23095699999976,82.82031300000017,113.9741210000002
177,113.7177729999994,129.61523400000078,123.20507799999996,154.23095699999976,119.74365200000011,117.05126999999993,116.0258789999998,113.58984400000008,100.64111300000059,98.9741210000002,95.38476599999922,99.61523400000078,80.38476599999922,113.20507799999996
178,110.51269500000035,133.0771479999994,119.61523400000078,146.15380900000036,116.79492200000004,116.41015599999992,114.87158199999976,114.35888699999941,101.53857400000015,95.0,92.56396500000028,99.48730499999965,76.15380900000036,112.82031300000017
179,107.69238299999961,130.2563479999999,117.56396500000028,138.0771479999994,111.6665039999998,115.0,114.23095699999976,112.05126999999993,99.61523400000078,86.2822270000006,90.0,98.84619099999964,73.20507799999996,112.94873000000007
180,108.20507799999996,125.51269500000035,119.10253900000043,136.2822270000006,109.35888699999941,114.23095699999976,114.61523400000078,109.35888699999941,97.82031300000017,80.38476599999922,90.89746099999957,98.7177729999994,75.38476599999922,113.0771479999994
181,113.0771479999994,124.10253900000043,123.46142599999985,142.05126999999993,112.56396500000028,115.0,115.76904300000024,109.10253900000043,99.48730499999965,83.84619099999964,96.41015599999992,99.74365200000011,83.58984400000008,113.20507799999996
182,119.23095699999976,127.17968800000017,126.6665039999998,151.41015599999992,117.94873000000007,116.53857400000015,116.6665039999998,111.41015599999992,104.61523400000078,95.12841800000024,102.30761700000039,100.89746099999957,92.69238299999961,113.58984400000008
183,122.43603499999972,131.6665039999998,125.51269500000035,158.46142599999985,120.12841800000024,117.82031300000017,116.15380900000036,113.3334960000002,109.74365200000011,106.41015599999992,104.35888699999941,101.15380900000036,96.15380900000036,113.84619099999964
184,120.51269500000035,133.7177729999994,121.2822270000006,160.51269500000035,117.82031300000017,118.20507799999996,115.0,112.82031300000017,112.43603499999972,110.89746099999957,101.9228520000006,100.64111300000059,92.17968800000017,113.7177729999994
185,116.0258789999998,132.94873000000007,118.7177729999994,159.48730499999965,114.87158199999976,117.82031300000017,115.0,111.15380900000036,112.82031300000017,108.7177729999994,99.10253900000043,100.38476599999922,85.64111300000059,113.0771479999994
186,113.46142599999985,131.53857400000015,121.53857400000015,159.23095699999976,115.76904300000024,117.17968800000017,117.43603499999972,111.0258789999998,113.3334960000002,105.38476599999922,100.25634799999989,101.2822270000006,83.0771479999994,112.05126999999993
187,114.61523400000078,131.6665039999998,128.7177729999994,161.41015599999992,121.53857400000015,116.79492200000004,121.15380900000036,113.46142599999985,115.25634799999989,105.64111300000059,105.64111300000059,102.56396500000028,87.05126999999993,111.6665039999998
188,117.43603499999972,134.10253900000043,135.0,164.3588869999994,128.3334960000002,116.6665039999998,123.46142599999985,116.53857400000015,117.56396500000028,110.25634799999989,111.9228520000006,103.3334960000002,94.87158199999976,112.30761700000039
189,117.94873000000007,136.41015599999992,135.38476599999922,164.48730499999965,131.0258789999998,116.6665039999998,122.05126999999993,117.05126999999993,118.3334960000002,115.76904300000024,113.84619099999964,102.69238299999961,100.76904300000024,113.9741210000002
190,114.10253900000043,135.38476599999922,129.10253900000043,159.23095699999976,126.79492200000004,116.9228520000006,116.9228520000006,113.84619099999964,116.41015599999992,118.46142599999985,109.35888699999941,101.15380900000036,99.74365200000011,115.64111300000059
191,107.94873000000007,130.6411130000006,120.0,150.51269500000035,117.94873000000007,116.9228520000006,110.0,108.46142599999985,112.56396500000028,117.17968800000017,100.64111300000059,99.61523400000078,92.30761700000039,116.0258789999998
192,103.58984400000008,125.25634799999989,114.35888699999941,143.0771479999994,110.64111300000059,116.0258789999998,104.74365200000011,104.74365200000011,109.48730499999965,113.84619099999964,93.58984400000008,98.7177729999994,83.84619099999964,114.61523400000078
193,104.87158199999976,123.9741210000002,116.15380900000036,140.76904300000024,110.0,114.87158199999976,104.23095699999976,105.64111300000059,109.61523400000078,111.53857400000015,93.46142599999985,98.84619099999964,80.89746099999957,112.56396500000028
194,111.0258789999998,129.3588869999994,124.23095699999976,144.48730499999965,115.51269500000035,115.0,109.23095699999976,110.76904300000024,113.20507799999996,112.56396500000028,100.51269500000035,100.25634799999989,85.51269500000035,111.41015599999992
195,118.3334960000002,138.9741210000002,133.3334960000002,151.15380900000036,121.41015599999992,116.41015599999992,116.79492200000004,117.05126999999993,117.94873000000007,116.41015599999992,110.76904300000024,102.43603499999972,94.35888699999941,111.6665039999998
196,122.43603499999972,147.17968800000017,137.82031300000017,156.79492200000004,121.6665039999998,117.30761700000039,121.9228520000006,120.12841800000024,120.51269500000035,120.25634799999989,118.46142599999985,104.35888699999941,101.15380900000036,112.56396500000028
197,121.15380900000036,147.94873000000007,134.87158199999976,157.82031300000017,115.0,115.64111300000059,120.25634799999989,117.56396500000028,118.7177729999994,121.15380900000036,119.23095699999976,105.0,101.6665039999998,113.0771479999994
198,115.64111300000059,141.0258789999998,126.6665039999998,153.9741210000002,105.51269500000035,111.53857400000015,112.17968800000017,110.25634799999989,112.94873000000007,118.0771479999994,113.3334960000002,103.84619099999964,96.9228520000006,113.46142599999985
199,110.12841800000024,131.41015599999992,118.0771479999994,148.58984400000008,100.12841800000024,107.17968800000017,102.05126999999993,102.05126999999993,106.53857400000015,113.20507799999996,105.12841800000024,101.41015599999992,91.79492200000004,113.7177729999994
200,108.9741210000002,125.64111300000059,113.58984400000008,145.38476599999922,102.43603499999972,105.0,95.89746099999957,97.43603499999972,102.94873000000007,109.74365200000011,100.51269500000035,99.35888699999941,91.41015599999992,113.84619099999964
201,112.82031300000017,126.15380900000036,114.74365200000011,146.2822270000006,111.0258789999998,105.89746099999957,96.2822270000006,97.82031300000017,103.20507799999996,108.84619099999964,101.53857400000015,98.84619099999964,96.0258789999998,113.3334960000002
202,118.3334960000002,130.51269500000035,119.35888699999941,150.0,121.0258789999998,108.7177729999994,101.79492200000004,100.64111300000059,105.12841800000024,108.7177729999994,106.15380900000036,99.61523400000078,101.79492200000004,112.56396500000028
203,121.0258789999998,134.10253900000043,124.23095699999976,153.58984400000008,127.30761700000039,111.9228520000006,108.3334960000002,102.69238299999961,105.38476599999922,107.05126999999993,110.0,100.38476599999922,104.48730499999965,111.9228520000006
204,119.61523400000078,134.48730499999965,126.79492200000004,154.48730499999965,126.9228520000006,113.3334960000002,112.17968800000017,102.94873000000007,103.46142599999985,103.46142599999985,110.51269500000035,100.25634799999989,103.20507799999996,111.6665039999998
205,115.89746099999957,132.6923829999996,126.41015599999992,151.9228520000006,120.0,112.43603499999972,113.0771479999994,102.94873000000007,101.2822270000006,99.87158199999976,107.82031300000017,99.10253900000043,100.25634799999989,111.79492200000004
206,113.7177729999994,131.53857400000015,124.61523400000078,147.82031300000017,109.10253900000043,110.51269500000035,112.94873000000007,104.35888699999941,101.6665039999998,98.46142599999985,104.61523400000078,98.0771479999994,99.23095699999976,112.43603499999972
207,116.0258789999998,133.9741210000002,124.10253900000043,145.38476599999922,99.35888699999941,110.25634799999989,113.9741210000002,107.30761700000039,105.89746099999957,100.38476599999922,104.48730499999965,98.0771479999994,102.56396500000028,113.46142599999985
208,123.58984400000008,140.76904300000024,126.9228520000006,147.17968800000017,96.41015599999992,112.69238299999961,116.2822270000006,110.76904300000024,112.82031300000017,105.25634799999989,109.48730499999965,99.74365200000011,110.12841800000024,114.23095699999976
209,133.7177729999994,149.3588869999994,132.56396500000028,153.20507799999996,102.69238299999961,115.76904300000024,118.9741210000002,112.94873000000007,118.9741210000002,111.15380900000036,118.0771479999994,102.30761700000039,119.35888699999941,113.84619099999964
210,140.6411130000006,155.51269500000035,137.05126999999993,159.61523400000078,114.23095699999976,116.53857400000015,119.74365200000011,112.43603499999972,120.0,114.48730499999965,124.61523400000078,104.35888699999941,125.89746099999957,112.43603499999972
211,139.61523400000078,155.38476599999922,136.53857400000015,160.89746099999957,123.0771479999994,113.84619099999964,116.41015599999992,108.84619099999964,113.84619099999964,111.9228520000006,124.23095699999976,104.48730499999965,126.2822270000006,110.64111300000059
212,130.89746099999957,149.61523400000078,130.38476599999922,155.6411130000006,123.3334960000002,109.35888699999941,109.35888699999941,103.3334960000002,102.94873000000007,103.7177729999994,116.6665039999998,102.30761700000039,120.38476599999922,109.35888699999941
213,119.48730499999965,142.6923829999996,121.9228520000006,147.05126999999993,114.87158199999976,106.41015599999992,101.6665039999998,98.20507799999996,93.46142599999985,95.12841800000024,107.05126999999993,99.10253900000043,112.56396500000028,109.10253900000043
214,112.82031300000017,140.12841800000024,116.53857400000015,141.9228520000006,103.9741210000002,107.17968800000017,97.56396500000028,96.15380900000036,90.76904300000024,92.43603499999972,102.43603499999972,96.53857400000015,108.9741210000002,109.74365200000011
215,114.74365200000011,144.87158199999976,118.0771479999994,144.3588869999994,98.9741210000002,111.15380900000036,98.84619099999964,98.3334960000002,96.41015599999992,98.7177729999994,106.41015599999992,96.41015599999992,114.23095699999976,111.0258789999998
216,124.10253900000043,154.10253900000043,125.89746099999957,152.3076170000004,103.7177729999994,115.64111300000059,103.9741210000002,103.84619099999964,106.9228520000006,110.38476599999922,116.6665039999998,98.7177729999994,127.69238299999961,112.17968800000017
217,134.61523400000078,161.79492200000004,134.7436520000001,158.84619099999964,113.9741210000002,118.0771479999994,109.10253900000043,109.48730499999965,115.76904300000024,120.38476599999922,127.05126999999993,101.41015599999992,142.94873000000007,112.56396500000028
218,139.7436520000001,162.56396500000028,139.10253900000043,158.46142599999985,120.38476599999922,117.94873000000007,111.15380900000036,112.43603499999972,117.82031300000017,122.69238299999961,131.0258789999998,102.69238299999961,151.2822270000006,112.17968800000017
219,137.17968800000017,155.38476599999922,136.9228520000006,151.9228520000006,116.79492200000004,116.41015599999992,109.23095699999976,111.53857400000015,112.17968800000017,116.41015599999992,126.6665039999998,101.9228520000006,148.20507799999996,111.9228520000006
220,130.51269500000035,145.2563479999999,131.41015599999992,146.0258789999998,106.0258789999998,115.51269500000035,105.0,108.3334960000002,102.69238299999961,105.64111300000059,117.94873000000007,100.51269500000035,137.3076170000004,112.17968800000017
221,126.53857400000015,139.48730499999965,127.69238299999961,147.6923829999996,96.6665039999998,116.0258789999998,101.15380900000036,105.25634799999989,95.25634799999989,96.79492200000004,111.41015599999992,100.38476599999922,127.94873000000007,113.3334960000002
222,128.9741210000002,142.94873000000007,129.87158199999976,157.6923829999996,96.41015599999992,116.79492200000004,100.0,104.23095699999976,94.10253900000043,94.35888699999941,111.6665039999998,102.30761700000039,128.0771479999994,114.48730499999965
223,136.6665039999998,155.12841800000024,136.53857400000015,169.7436520000001,105.76904300000024,116.53857400000015,101.53857400000015,105.12841800000024,98.9741210000002,98.3334960000002,117.17968800000017,105.51269500000035,137.6923829999996,114.87158199999976
224,144.48730499999965,169.23095699999976,142.82031300000017,175.38476599999922,118.46142599999985,114.48730499999965,103.46142599999985,106.6665039999998,105.51269500000035,104.48730499999965,122.94873000000007,107.94873000000007,149.23095699999976,113.84619099999964
225,147.94873000000007,177.82031300000017,143.84619099999964,171.53857400000015,126.79492200000004,111.53857400000015,103.7177729999994,107.17968800000017,108.58984400000008,108.0771479999994,124.48730499999965,108.0771479999994,154.10253900000043,111.79492200000004
226,147.3076170000004,178.7177729999994,139.61523400000078,162.82031300000017,126.6665039999998,108.7177729999994,102.43603499999972,106.15380900000036,105.76904300000024,106.15380900000036,121.79492200000004,105.64111300000059,150.12841800000024,110.0
227,145.89746099999957,175.76904300000024,134.23095699999976,157.43603499999972,118.9741210000002,107.43603499999972,101.53857400000015,103.9741210000002,98.58984400000008,99.74365200000011,117.94873000000007,102.43603499999972,142.05126999999993,109.74365200000011
228,146.0258789999998,173.9741210000002,131.9228520000006,159.10253900000043,107.56396500000028,107.82031300000017,101.79492200000004,100.89746099999957,90.51269500000035,91.41015599999992,115.25634799999989,100.38476599999922,136.0258789999998,111.15380900000036
229,146.0258789999998,174.61523400000078,132.82031300000017,165.2563479999999,97.05126999999993,108.58984400000008,101.6665039999998,97.30761700000039,84.74365200000011,84.23095699999976,112.94873000000007,100.12841800000024,133.7177729999994,112.82031300000017
230,143.3334960000002,175.6411130000006,134.3588869999994,170.0,90.51269500000035,108.20507799999996,99.48730499999965,93.46142599999985,82.30761700000039,80.0,109.35888699999941,101.0258789999998,132.17968800000017,113.3334960000002
231,138.3334960000002,175.51269500000035,134.23095699999976,169.48730499999965,89.74365200000011,106.15380900000036,95.12841800000024,90.12841800000024,83.0771479999994,79.48730499999965,105.0,101.6665039999998,128.20507799999996,112.82031300000017
232,134.87158199999976,175.6411130000006,132.94873000000007,166.2822270000006,95.0,104.35888699999941,91.53857400000015,89.23095699999976,86.41015599999992,83.0771479999994,102.56396500000028,101.79492200000004,122.69238299999961,112.17968800000017
233,136.0258789999998,177.94873000000007,132.05126999999993,165.76904300000024,104.35888699999941,105.0,91.79492200000004,91.9228520000006,91.53857400000015,90.64111300000059,104.10253900000043,102.17968800000017,120.12841800000024,112.56396500000028
234,141.41015599999992,182.6923829999996,132.56396500000028,170.89746099999957,114.23095699999976,108.0771479999994,96.2822270000006,97.17968800000017,96.9228520000006,99.35888699999941,109.48730499999965,102.82031300000017,123.46142599999985,113.7177729999994
235,146.53857400000015,186.9228520000006,134.10253900000043,179.48730499999965,120.0,111.41015599999992,101.9228520000006,102.05126999999993,100.51269500000035,105.0,115.25634799999989,103.20507799999996,131.15380900000036,114.74365200000011
236,146.79492200000004,187.56396500000028,134.61523400000078,186.2822270000006,118.84619099999964,113.0771479999994,105.0,103.58984400000008,101.0258789999998,104.23095699999976,117.69238299999961,102.43603499999972,137.3076170000004,115.0
237,140.89746099999957,184.10253900000043,133.20507799999996,187.05126999999993,111.9228520000006,112.56396500000028,104.35888699999941,101.41015599999992,98.7177729999994,97.56396500000028,115.64111300000059,100.76904300000024,136.6665039999998,114.48730499999965
238,132.17968800000017,179.87158199999976,130.12841800000024,182.43603499999972,104.35888699999941,111.0258789999998,101.53857400000015,98.46142599999985,95.25634799999989,89.10253900000043,111.0258789999998,98.7177729999994,128.3334960000002,113.3334960000002
239,126.41015599999992,179.61523400000078,127.43603499999972,177.05126999999993,102.30761700000039,109.48730499999965,99.35888699999941,97.56396500000028,92.82031300000017,83.7177729999994,107.82031300000017,97.69238299999961,117.17968800000017,112.05126999999993
240,127.17968800000017,185.51269500000035,126.9228520000006,175.2563479999999,108.20507799999996,108.3334960000002,99.35888699999941,98.7177729999994,92.17968800000017,83.58984400000008,108.58984400000008,98.0771479999994,110.12841800000024,111.41015599999992
241,131.9228520000006,195.0,127.94873000000007,177.56396500000028,118.0771479999994,107.05126999999993,101.2822270000006,99.61523400000078,92.43603499999972,86.6665039999998,111.53857400000015,99.10253900000043,110.12841800000024,111.53857400000015
242,134.7436520000001,201.41015599999992,128.0771479999994,180.2563479999999,124.10253900000043,106.0258789999998,102.56396500000028,97.56396500000028,91.2822270000006,89.23095699999976,111.79492200000004,99.10253900000043,113.84619099999964,112.05126999999993
243,130.89746099999957,199.10253900000043,125.12841800000024,178.84619099999964,120.89746099999957,106.15380900000036,101.0258789999998,92.17968800000017,87.43603499999972,87.94873000000007,105.51269500000035,96.6665039999998,113.9741210000002,112.56396500000028
244,120.89746099999957,187.94873000000007,119.10253900000043,171.9228520000006,109.61523400000078,108.3334960000002,96.79492200000004,86.41015599999992,81.9228520000006,82.69238299999961,94.35888699999941,91.6665039999998,106.15380900000036,112.17968800000017
245,111.0258789999998,174.87158199999976,113.3334960000002,163.7177729999994,98.3334960000002,111.79492200000004,93.3334960000002,84.10253900000043,78.7177729999994,77.82031300000017,85.25634799999989,87.43603499999972,93.20507799999996,111.0258789999998
246,108.20507799999996,169.3588869999994,112.30761700000039,160.89746099999957,95.89746099999957,115.0,94.74365200000011,88.0771479999994,82.05126999999993,79.10253900000043,85.25634799999989,87.05126999999993,83.84619099999964,109.23095699999976
247,115.0,176.41015599999992,118.0771479999994,167.82031300000017,105.89746099999957,117.05126999999993,102.17968800000017,97.30761700000039,92.43603499999972,88.7177729999994,95.64111300000059,91.6665039999998,85.12841800000024,108.0771479999994
248,127.30761700000039,191.41015599999992,128.20507799999996,181.6665039999998,122.94873000000007,117.69238299999961,112.05126999999993,107.43603499999972,105.64111300000059,102.69238299999961,110.76904300000024,98.58984400000008,96.0258789999998,109.23095699999976
249,137.56396500000028,203.7177729999994,137.05126999999993,193.46142599999985,135.2563479999999,116.9228520000006,118.9741210000002,113.7177729999994,114.10253900000043,112.43603499999972,121.15380900000036,103.84619099999964,107.30761700000039,113.0771479999994
250,139.61523400000078,205.0,139.10253900000043,195.6411130000006,133.9741210000002,115.12841800000024,118.84619099999964,113.58984400000008,112.82031300000017,111.79492200000004,119.74365200000011,104.23095699999976,108.7177729999994,117.94873000000007
251,132.82031300000017,195.38476599999922,133.3334960000002,186.9228520000006,120.12841800000024,113.46142599999985,112.17968800000017,108.3334960000002,103.20507799999996,101.2822270000006,107.05126999999993,99.48730499999965,97.30761700000039,121.15380900000036
252,121.15380900000036,182.05126999999993,123.3334960000002,173.46142599999985,103.20507799999996,113.3334960000002,103.0771479999994,101.9228520000006,91.41015599999992,87.69238299999961,90.51269500000035,92.17968800000017,79.74365200000011,120.76904300000024
253,111.15380900000036,172.82031300000017,115.0,164.23095699999976,94.35888699999941,114.10253900000043,96.6665039999998,98.3334960000002,84.61523400000078,79.48730499999965,79.61523400000078,87.05126999999993,66.6665039999998,117.17968800000017
254,108.0771479999994,171.6665039999998,113.0771479999994,163.84619099999964,97.30761700000039,114.23095699999976,96.0258789999998,99.35888699999941,86.2822270000006,81.15380900000036,80.12841800000024,87.05126999999993,65.0,112.69238299999961
255,112.43603499999972,176.53857400000015,117.43603499999972,170.2563479999999,107.82031300000017,113.46142599999985,100.51269500000035,103.3334960000002,95.0,91.15380900000036,89.74365200000011,91.9228520000006,73.20507799999996,109.61523400000078
256,119.61523400000078,180.76904300000024,123.20507799999996,176.53857400000015,116.41015599999992,113.20507799999996,106.0258789999998,106.79492200000004,105.12841800000024,103.20507799999996,100.89746099999957,97.56396500000028,83.58984400000008,109.35888699999941
257,122.94873000000007,177.82031300000017,125.0,176.2822270000006,115.89746099999957,114.23095699999976,108.58984400000008,106.2822270000006,109.61523400000078,109.74365200000011,106.15380900000036,99.87158199999976,87.82031300000017,111.6665039999998
258,118.84619099999964,167.17968800000017,121.0258789999998,168.58984400000008,106.6665039999998,115.51269500000035,106.79492200000004,101.79492200000004,106.0258789999998,107.17968800000017,103.46142599999985,97.43603499999972,83.3334960000002,114.74365200000011
259,110.51269500000035,155.0,115.12841800000024,159.48730499999965,95.38476599999922,115.76904300000024,102.94873000000007,97.05126999999993,98.46142599999985,98.9741210000002,97.05126999999993,92.69238299999961,75.12841800000024,116.2822270000006
260,104.61523400000078,149.7436520000001,113.20507799999996,156.41015599999992,90.76904300000024,115.38476599999922,100.76904300000024,96.79492200000004,93.9741210000002,92.56396500000028,93.20507799999996,90.0,71.2822270000006,115.25634799999989
261,106.0258789999998,155.12841800000024,118.0771479999994,162.43603499999972,96.2822270000006,115.51269500000035,102.17968800000017,102.82031300000017,96.79492200000004,93.46142599999985,95.64111300000059,92.17968800000017,75.64111300000059,112.82031300000017
262,113.58984400000008,166.9228520000006,126.79492200000004,173.0771479999994,108.58984400000008,116.6665039999998,105.25634799999989,112.05126999999993,104.87158199999976,101.15380900000036,102.30761700000039,97.30761700000039,84.48730499999965,110.38476599999922
263,121.0258789999998,177.05126999999993,132.82031300000017,180.6411130000006,120.51269500000035,118.20507799999996,106.79492200000004,118.3334960000002,112.17968800000017,109.61523400000078,107.82031300000017,101.0258789999998,89.74365200000011,109.10253900000043
264,121.79492200000004,179.61523400000078,131.79492200000004,180.0,125.89746099999957,118.46142599999985,105.12841800000024,117.17968800000017,113.58984400000008,112.69238299999961,107.30761700000039,99.48730499999965,86.2822270000006,108.9741210000002
265,113.9741210000002,173.9741210000002,124.48730499999965,171.53857400000015,123.20507799999996,117.17968800000017,101.2822270000006,108.84619099999964,108.20507799999996,107.94873000000007,100.64111300000059,93.46142599999985,75.76904300000024,109.74365200000011
266,102.30761700000039,164.7436520000001,115.64111300000059,161.0258789999998,115.76904300000024,115.64111300000059,97.56396500000028,98.7177729999994,99.10253900000043,98.46142599999985,92.17968800000017,86.9228520000006,65.25634799999989,110.89746099999957
267,94.61523400000078,158.20507799999996,110.64111300000059,154.87158199999976,109.10253900000043,115.38476599999922,96.41015599999992,93.46142599999985,92.05126999999993,90.12841800000024,87.56396500000028,84.48730499999965,61.2822270000006,112.17968800000017
268,96.0258789999998,157.56396500000028,111.9228520000006,156.53857400000015,107.05126999999993,116.2822270000006,98.46142599999985,96.53857400000015,91.2822270000006,88.20507799999996,89.61523400000078,87.17968800000017,65.51269500000035,112.56396500000028
269,105.51269500000035,161.79492200000004,117.43603499999972,164.3588869999994,109.35888699999941,117.17968800000017,102.82031300000017,105.89746099999957,97.56396500000028,93.9741210000002,96.9228520000006,93.0771479999994,74.10253900000043,111.79492200000004
270,116.41015599999992,166.53857400000015,122.82031300000017,172.56396500000028,113.0771479999994,117.05126999999993,106.79492200000004,115.76904300000024,107.69238299999961,104.48730499999965,105.38476599999922,98.3334960000002,81.15380900000036,110.38476599999922
271,120.76904300000024,167.56396500000028,123.7177729999994,175.0,114.87158199999976,115.64111300000059,107.69238299999961,119.87158199999976,116.0258789999998,113.58984400000008,110.76904300000024,100.0,82.56396500000028,109.35888699999941
272,115.38476599999922,162.56396500000028,119.23095699999976,169.23095699999976,113.20507799999996,113.46142599999985,104.48730499999965,115.89746099999957,117.69238299999961,116.15380900000036,111.0258789999998,97.56396500000028,78.20507799999996,108.9741210000002
273,103.9741210000002,153.3334960000002,112.56396500000028,158.84619099999964,108.9741210000002,111.15380900000036,99.10253900000043,107.05126999999993,112.69238299999961,111.53857400000015,107.69238299999961,93.58984400000008,71.2822270000006,109.61523400000078
274,94.48730499999965,144.87158199999976,108.84619099999964,150.6411130000006,105.0,110.0,95.64111300000059,99.87158199999976,105.51269500000035,103.7177729999994,103.84619099999964,91.0258789999998,66.9228520000006,111.41015599999992
275,92.30761700000039,142.43603499999972,110.38476599999922,149.48730499999965,103.3334960000002,110.38476599999922,96.53857400000015,98.84619099999964,101.41015599999992,98.20507799999996,102.05126999999993,90.89746099999957,68.20507799999996,113.46142599999985
276,96.2822270000006,146.15380900000036,114.61523400000078,154.48730499999965,103.3334960000002,111.2822270000006,100.64111300000059,102.94873000000007,101.6665039999998,97.30761700000039,101.79492200000004,91.41015599999992,72.94873000000007,114.61523400000078
277,100.25634799999989,151.2822270000006,116.2822270000006,159.87158199999976,102.94873000000007,111.15380900000036,103.46142599999985,106.53857400000015,102.94873000000007,99.23095699999976,100.12841800000024,90.51269500000035,75.12841800000024,113.9741210000002
278,99.23095699999976,151.6665039999998,112.69238299999961,160.6411130000006,101.41015599999992,110.12841800000024,101.79492200000004,105.12841800000024,101.41015599999992,100.64111300000059,95.38476599999922,87.30761700000039,70.51269500000035,112.43603499999972
279,92.94873000000007,145.6411130000006,106.15380900000036,156.2822270000006,100.0,109.87158199999976,96.53857400000015,99.10253900000043,96.2822270000006,100.0,88.7177729999994,83.58984400000008,60.76904300000024,111.41015599999992
280,85.12841800000024,136.0258789999998,101.15380900000036,149.87158199999976,100.25634799999989,111.2822270000006,91.9228520000006,92.17968800000017,89.74365200000011,97.30761700000039,83.7177729999994,81.15380900000036,51.410155999999915,111.6665039999998
281,80.12841800000024,128.20507799999996,100.64111300000059,145.12841800000024,100.64111300000059,113.20507799999996,91.41015599999992,88.9741210000002,84.48730499999965,93.7177729999994,82.17968800000017,80.76904300000024,46.9228520000006,112.94873000000007
282,79.87158199999976,126.53857400000015,104.74365200000011,144.3588869999994,99.35888699999941,113.7177729999994,95.12841800000024,90.76904300000024,82.05126999999993,89.74365200000011,83.58984400000008,82.17968800000017,47.69238299999961,114.23095699999976
283,83.58984400000008,132.56396500000028,110.76904300000024,147.17968800000017,96.9228520000006,112.43603499999972,99.10253900000043,95.0,82.69238299999961,86.41015599999992,85.89746099999957,84.10253900000043,50.897460999999566,114.61523400000078
284,88.58984400000008,143.0771479999994,115.0,150.6411130000006,96.15380900000036,110.25634799999989,99.61523400000078,97.05126999999993,85.12841800000024,84.23095699999976,87.94873000000007,85.25634799999989,53.46142599999985,113.7177729999994
285,91.6665039999998,151.41015599999992,115.25634799999989,152.17968800000017,98.58984400000008,108.58984400000008,95.25634799999989,93.9741210000002,86.6665039999998,83.20507799999996,89.10253900000043,85.0,54.35888699999941,112.05126999999993
286,91.53857400000015,152.3076170000004,112.05126999999993,150.12841800000024,102.69238299999961,108.7177729999994,89.23095699999976,87.43603499999972,85.76904300000024,83.20507799999996,88.9741210000002,83.9741210000002,53.974121000000196,110.76904300000024
287,88.9741210000002,145.89746099999957,108.20507799999996,146.15380900000036,105.51269500000035,110.38476599999922,86.53857400000015,82.56396500000028,83.7177729999994,85.12841800000024,88.20507799999996,82.94873000000007,53.333496000000196,111.0258789999998
288,85.89746099999957,136.79492200000004,106.53857400000015,142.6923829999996,105.76904300000024,112.30761700000039,89.74365200000011,83.20507799999996,83.3334960000002,89.48730499999965,87.56396500000028,82.05126999999993,53.46142599999985,112.30761700000039
289,84.61523400000078,131.2822270000006,107.56396500000028,141.79492200000004,104.87158199999976,113.3334960000002,96.79492200000004,89.10253900000043,86.2822270000006,95.38476599999922,88.46142599999985,81.9228520000006,55.0,113.3334960000002
290,85.51269500000035,132.17968800000017,110.12841800000024,143.3334960000002,105.76904300000024,113.7177729999994,103.0771479999994,96.79492200000004,91.15380900000036,100.0,91.41015599999992,82.69238299999961,56.79492200000004,113.0771479999994
291,88.46142599999985,137.82031300000017,112.69238299999961,145.51269500000035,109.87158199999976,114.10253900000043,105.38476599999922,101.9228520000006,95.64111300000059,101.41015599999992,95.64111300000059,84.10253900000043,57.30761700000039,112.17968800000017
292,92.17968800000017,143.84619099999964,114.61523400000078,147.05126999999993,115.0,114.87158199999976,104.35888699999941,102.94873000000007,98.46142599999985,99.61523400000078,99.74365200000011,85.38476599999922,55.64111300000059,111.41015599999992
293,95.64111300000059,146.53857400000015,115.89746099999957,147.6923829999996,117.69238299999961,115.64111300000059,103.58984400000008,101.0258789999998,100.51269500000035,96.9228520000006,101.79492200000004,85.76904300000024,53.7177729999994,111.0258789999998
294,98.46142599999985,145.12841800000024,116.6665039999998,147.43603499999972,115.64111300000059,116.53857400000015,105.12841800000024,99.10253900000043,102.30761700000039,96.0258789999998,101.0258789999998,85.38476599999922,53.974121000000196,111.0258789999998
295,100.38476599999922,141.41015599999992,116.41015599999992,146.53857400000015,109.61523400000078,117.05126999999993,108.58984400000008,98.46142599999985,102.82031300000017,97.94873000000007,97.56396500000028,84.61523400000078,57.56396500000028,111.15380900000036
296,101.2822270000006,137.56396500000028,115.12841800000024,145.0,103.58984400000008,117.05126999999993,110.89746099999957,98.7177729999994,100.38476599999922,100.76904300000024,92.82031300000017,84.48730499999965,63.0771479999994,111.2822270000006
297,101.15380900000036,134.7436520000001,113.84619099999964,143.58984400000008,101.6665039999998,116.41015599999992,109.87158199999976,98.58984400000008,95.25634799999989,101.79492200000004,88.7177729999994,85.25634799999989,66.79492200000004,111.41015599999992
298,100.0,132.6923829999996,113.7177729999994,142.94873000000007,104.87158199999976,116.2822270000006,105.89746099999957,98.3334960000002,90.0,98.84619099999964,86.6665039999998,86.2822270000006,66.0258789999998,111.53857400000015
299,98.0771479999994,131.6665039999998,115.0,142.3076170000004,110.51269500000035,116.9228520000006,102.05126999999993,98.46142599999985,87.30761700000039,92.69238299999961,86.2822270000006,86.79492200000004,61.153809000000365,111.9228520000006
300,95.89746099999957,131.53857400000015,116.53857400000015,140.76904300000024,113.9741210000002,117.56396500000028,100.89746099999957,99.10253900000043,87.94873000000007,86.41015599999992,86.79492200000004,86.6665039999998,55.12841800000024,112.30761700000039
301,94.23095699999976,132.3076170000004,116.9228520000006,138.20507799999996,113.20507799999996,117.43603499999972,102.17968800000017,99.35888699999941,90.89746099999957,83.58984400000008,87.69238299999961,86.2822270000006,51.79492200000004,112.82031300000017
302,94.35888699999941,134.23095699999976,115.89746099999957,135.2563479999999,110.12841800000024,116.79492200000004,103.7177729999994,98.9741210000002,94.74365200000011,85.76904300000024,89.61523400000078,86.15380900000036,53.7177729999994,113.20507799999996
303,96.79492200000004,138.20507799999996,114.74365200000011,133.46142599999985,108.84619099999964,116.53857400000015,104.87158199999976,98.9741210000002,99.35888699999941,92.30761700000039,93.0771479999994,86.9228520000006,60.38476599999922,113.84619099999964
304,100.51269500000035,143.7177729999994,114.48730499999965,132.94873000000007,111.2822270000006,116.79492200000004,106.0258789999998,101.2822270000006,104.74365200000011,100.38476599999922,97.69238299999961,89.23095699999976,68.3334960000002,114.74365200000011
305,103.7177729999994,148.7177729999994,115.38476599999922,133.0771479999994,115.76904300000024,116.6665039999998,107.56396500000028,106.2822270000006,110.64111300000059,107.43603499999972,101.9228520000006,92.82031300000017,73.84619099999964,115.51269500000035
306,105.0,150.6411130000006,116.9228520000006,133.3334960000002,118.84619099999964,116.15380900000036,109.35888699999941,112.05126999999993,115.12841800000024,111.6665039999998,104.48730499999965,96.41015599999992,75.38476599999922,115.38476599999922
307,104.48730499999965,148.20507799999996,118.58984400000008,133.84619099999964,118.3334960000002,115.64111300000059,110.25634799999989,115.25634799999989,116.41015599999992,112.17968800000017,105.12841800000024,98.20507799999996,73.9741210000002,114.10253900000043
308,103.0771479999994,142.82031300000017,119.74365200000011,135.12841800000024,114.23095699999976,116.0258789999998,109.61523400000078,113.46142599999985,113.7177729999994,108.7177729999994,104.10253900000043,97.30761700000039,71.6665039999998,112.69238299999961
309,101.41015599999992,137.05126999999993,119.35888699999941,137.56396500000028,109.23095699999976,117.17968800000017,107.56396500000028,107.82031300000017,108.0771479999994,101.9228520000006,101.79492200000004,93.9741210000002,69.61523400000078,111.79492200000004
310,100.12841800000024,134.3588869999994,117.43603499999972,141.2822270000006,107.05126999999993,118.20507799999996,105.38476599999922,102.30761700000039,102.43603499999972,95.0,99.10253900000043,90.12841800000024,68.46142599999985,111.9228520000006
311,99.61523400000078,136.6665039999998,115.0,146.15380900000036,110.38476599999922,118.0771479999994,105.76904300000024,101.53857400000015,100.76904300000024,92.82031300000017,97.43603499999972,88.7177729999994,68.58984400000008,112.82031300000017
312,100.64111300000059,142.82031300000017,114.35888699999941,151.41015599999992,119.23095699999976,117.43603499999972,110.0,107.56396500000028,105.38476599999922,98.58984400000008,98.46142599999985,91.0258789999998,71.41015599999992,113.84619099999964
313,103.0771479999994,148.58984400000008,117.17968800000017,155.0,130.0,117.30761700000039,117.30761700000039,117.43603499999972,114.23095699999976,110.64111300000059,101.9228520000006,95.89746099999957,76.53857400000015,114.10253900000043
314,105.51269500000035,149.3588869999994,122.05126999999993,155.12841800000024,137.05126999999993,117.43603499999972,123.84619099999964,124.61523400000078,121.9228520000006,121.79492200000004,105.38476599999922,100.25634799999989,81.15380900000036,113.3334960000002
315,105.12841800000024,142.82031300000017,125.0,150.6411130000006,135.51269500000035,116.41015599999992,124.87158199999976,123.3334960000002,121.9228520000006,123.3334960000002,105.64111300000059,101.0258789999998,80.51269500000035,111.79492200000004
316,99.74365200000011,131.41015599999992,122.94873000000007,142.43603499999972,125.25634799999989,113.84619099999964,118.46142599999985,112.94873000000007,112.30761700000039,111.6665039999998,100.25634799999989,96.79492200000004,72.17968800000017,110.76904300000024
317,90.76904300000024,121.0258789999998,116.79492200000004,133.3334960000002,111.2822270000006,111.0258789999998,107.69238299999961,99.23095699999976,97.56396500000028,91.9228520000006,90.89746099999957,89.74365200000011,58.846190999999635,111.0258789999998
318,82.82031300000017,117.17968800000017,110.25634799999989,126.9228520000006,100.51269500000035,109.23095699999976,98.3334960000002,89.48730499999965,85.38476599999922,74.48730499999965,81.9228520000006,83.58984400000008,48.20507799999996,112.17968800000017
319,79.74365200000011,120.89746099999957,107.30761700000039,125.12841800000024,97.43603499999972,108.58984400000008,95.38476599999922,88.3334960000002,81.0258789999998,68.20507799999996,77.94873000000007,81.0258789999998,46.410155999999915,112.94873000000007
320,82.56396500000028,128.58984400000008,108.84619099999964,126.79492200000004,101.53857400000015,108.58984400000008,98.7177729999994,93.9741210000002,84.61523400000078,74.10253900000043,79.48730499999965,82.43603499999972,52.94873000000007,112.56396500000028
321,89.10253900000043,134.48730499999965,113.0771479999994,129.61523400000078,108.84619099999964,109.23095699999976,103.9741210000002,100.89746099999957,92.17968800000017,86.2822270000006,83.84619099999964,85.38476599999922,61.9228520000006,111.53857400000015
322,96.15380900000036,135.76904300000024,117.17968800000017,131.79492200000004,115.38476599999922,110.64111300000059,107.43603499999972,104.74365200000011,99.10253900000043,97.17968800000017,87.43603499999972,86.79492200000004,67.56396500000028,110.76904300000024
323,101.0258789999998,134.10253900000043,118.84619099999964,133.3334960000002,119.35888699999941,112.05126999999993,108.3334960000002,104.87158199999976,103.0771479999994,102.56396500000028,88.46142599999985,86.0258789999998,68.20507799999996,110.38476599999922
324,102.30761700000039,132.17968800000017,118.0771479999994,134.3588869999994,120.64111300000059,112.69238299999961,108.0771479999994,103.3334960000002,103.58984400000008,101.79492200000004,87.43603499999972,84.35888699999941,65.89746099999957,110.51269500000035
325,100.25634799999989,130.76904300000024,116.0258789999998,134.61523400000078,119.61523400000078,112.17968800000017,108.20507799999996,101.9228520000006,101.79492200000004,96.9228520000006,85.76904300000024,83.84619099999964,62.69238299999961,110.89746099999957
326,97.17968800000017,129.10253900000043,114.35888699999941,133.20507799999996,117.05126999999993,111.6665039999998,108.9741210000002,100.64111300000059,98.9741210000002,90.76904300000024,84.61523400000078,84.35888699999941,60.25634799999989,111.41015599999992
327,95.76904300000024,127.05126999999993,114.61523400000078,130.38476599999922,114.10253900000043,111.41015599999992,110.12841800000024,98.84619099999964,96.53857400000015,86.41015599999992,84.10253900000043,84.74365200000011,59.23095699999976,111.41015599999992
328,98.20507799999996,126.0258789999998,117.17968800000017,127.94873000000007,112.43603499999972,111.41015599999992,111.0258789999998,96.9228520000006,95.76904300000024,86.0258789999998,84.74365200000011,84.48730499999965,60.897460999999566,111.0258789999998
329,104.61523400000078,129.3588869999994,121.9228520000006,129.48730499999965,114.35888699999941,112.17968800000017,112.05126999999993,96.6665039999998,97.56396500000028,91.15380900000036,87.30761700000039,84.48730499999965,66.6665039999998,110.76904300000024
330,113.3334960000002,138.20507799999996,127.69238299999961,136.2822270000006,120.64111300000059,113.9741210000002,113.7177729999994,99.48730499999965,102.94873000000007,101.6665039999998,92.56396500000028,86.0258789999998,77.05126999999993,110.89746099999957
331,121.0258789999998,150.12841800000024,132.82031300000017,145.89746099999957,129.23095699999976,116.0258789999998,116.79492200000004,105.12841800000024,110.76904300000024,114.35888699999941,99.74365200000011,89.48730499999965,89.10253900000043,110.89746099999957
332,124.35888699999941,158.9741210000002,135.38476599999922,154.10253900000043,135.76904300000024,116.9228520000006,120.0,111.53857400000015,117.94873000000007,123.3334960000002,105.64111300000059,93.20507799999996,97.17968800000017,110.51269500000035
333,122.30761700000039,160.0,134.61523400000078,157.6923829999996,137.43603499999972,115.38476599999922,121.41015599999992,115.51269500000035,120.76904300000024,123.9741210000002,107.56396500000028,95.89746099999957,97.17968800000017,110.25634799999989
334,117.30761700000039,153.9741210000002,131.79492200000004,157.43603499999972,135.12841800000024,112.05126999999993,119.87158199999976,115.89746099999957,118.46142599999985,117.30761700000039,105.76904300000024,96.53857400000015,90.38476599999922,110.64111300000059
335,113.9741210000002,147.05126999999993,129.87158199999976,156.41015599999992,132.6923829999996,109.23095699999976,116.9228520000006,114.23095699999976,114.10253900000043,109.48730499999965,103.0771479999994,95.64111300000059,83.0771479999994,111.79492200000004
336,115.12841800000024,145.12841800000024,130.6411130000006,156.53857400000015,133.0771479999994,108.58984400000008,114.87158199999976,113.3334960000002,112.30761700000039,107.43603499999972,102.82031300000017,93.84619099999964,81.6665039999998,113.3334960000002
337,119.10253900000043,148.20507799999996,132.94873000000007,157.94873000000007,135.0,109.35888699999941,114.74365200000011,114.23095699999976,114.35888699999941,112.69238299999961,104.23095699999976,92.17968800000017,86.6665039999998,114.48730499999965
338,120.38476599999922,150.51269500000035,133.20507799999996,157.94873000000007,133.0771479999994,109.48730499999965,114.48730499999965,114.74365200000011,116.9228520000006,119.61523400000078,103.84619099999964,91.0258789999998,92.30761700000039,114.87158199999976
339,115.76904300000024,145.51269500000035,128.58984400000008,154.48730499999965,123.7177729999994,107.94873000000007,111.53857400000015,111.9228520000006,115.38476599999922,120.76904300000024,98.0771479999994,89.87158199999976,90.89746099999957,114.23095699999976
340,107.05126999999993,132.94873000000007,121.0258789999998,148.7177729999994,110.12841800000024,106.2822270000006,105.76904300000024,105.12841800000024,109.23095699999976,113.9741210000002,88.0771479999994,87.82031300000017,80.51269500000035,112.69238299999961
341,100.25634799999989,119.35888699999941,115.25634799999989,143.9741210000002,99.87158199999976,107.56396500000028,100.64111300000059,97.94873000000007,102.05126999999993,103.3334960000002,79.61523400000078,85.0,66.9228520000006,111.15380900000036
342,99.35888699999941,112.69238299999961,115.38476599999922,143.20507799999996,99.48730499999965,112.05126999999993,99.87158199999976,94.74365200000011,98.84619099999964,96.2822270000006,77.69238299999961,82.43603499999972,58.846190999999635,110.25634799999989
343,103.58984400000008,116.2822270000006,120.89746099999957,146.0258789999998,108.84619099999964,117.17968800000017,103.7177729999994,97.82031300000017,101.79492200000004,97.17968800000017,83.3334960000002,82.05126999999993,60.64111300000059,110.51269500000035
344,109.61523400000078,127.56396500000028,128.20507799999996,150.2563479999999,123.0771479999994,120.25634799999989,109.87158199999976,105.89746099999957,109.35888699999941,105.25634799999989,92.82031300000017,85.25634799999989,70.38476599999922,111.53857400000015
345,116.15380900000036,140.89746099999957,134.3588869999994,153.84619099999964,135.51269500000035,120.0,115.64111300000059,114.74365200000011,117.69238299999961,116.41015599999992,101.79492200000004,91.2822270000006,82.56396500000028,112.56396500000028
346,123.0771479999994,150.76904300000024,138.20507799999996,156.0258789999998,140.38476599999922,117.69238299999961,119.35888699999941,120.0,122.56396500000028,125.25634799999989,107.17968800000017,97.69238299999961,92.30761700000039,113.0771479999994
347,129.23095699999976,153.7177729999994,139.23095699999976,156.0258789999998,135.6411130000006,115.64111300000059,120.25634799999989,118.7177729999994,121.15380900000036,126.9228520000006,107.17968800000017,101.0258789999998,96.15380900000036,113.0771479999994
348,131.41015599999992,148.7177729999994,136.53857400000015,152.05126999999993,123.3334960000002,114.74365200000011,118.20507799999996,111.41015599999992,113.9741210000002,119.48730499999965,102.17968800000017,99.23095699999976,92.56396500000028,112.69238299999961
349,127.56396500000028,138.20507799999996,130.2563479999999,143.84619099999964,110.12841800000024,114.74365200000011,113.3334960000002,101.41015599999992,103.7177729999994,105.89746099999957,94.10253900000043,93.58984400000008,82.94873000000007,112.82031300000017
350,118.7177729999994,126.53857400000015,122.82031300000017,133.7177729999994,102.69238299999961,115.25634799999989,107.05126999999993,93.3334960000002,94.48730499999965,92.94873000000007,86.53857400000015,87.05126999999993,72.43603499999972,113.46142599999985
351,108.9741210000002,118.3334960000002,117.43603499999972,127.30761700000039,103.3334960000002,115.12841800000024,102.05126999999993,90.38476599999922,89.48730499999965,87.56396500000028,82.94873000000007,83.0771479999994,66.6665039999998,113.9741210000002
352,103.58984400000008,116.15380900000036,116.53857400000015,128.58984400000008,109.74365200000011,113.84619099999964,100.89746099999957,92.69238299999961,90.12841800000024,92.05126999999993,85.0,82.82031300000017,68.20507799999996,113.84619099999964
353,104.87158199999976,120.25634799999989,120.38476599999922,137.05126999999993,117.30761700000039,111.9228520000006,104.48730499999965,98.20507799999996,95.38476599999922,103.3334960000002,91.15380900000036,85.38476599999922,75.38476599999922,113.0771479999994
354,111.6665039999998,128.0771479999994,126.79492200000004,147.05126999999993,123.3334960000002,110.76904300000024,111.2822270000006,103.9741210000002,102.94873000000007,114.74365200000011,98.3334960000002,88.3334960000002,83.84619099999964,112.82031300000017
355,119.10253900000043,136.41015599999992,132.3076170000004,152.6923829999996,126.79492200000004,110.25634799999989,117.17968800000017,108.0771479999994,109.48730499999965,120.64111300000059,102.82031300000017,89.35888699999941,89.23095699999976,113.46142599999985
356,122.82031300000017,141.9228520000006,134.48730499999965,151.9228520000006,127.30761700000039,110.12841800000024,119.23095699999976,110.0,112.94873000000007,120.0,103.0771479999994,88.20507799999996,90.0,114.35888699999941
357,121.6665039999998,143.7177729999994,133.20507799999996,147.56396500000028,124.10253900000043,110.25634799999989,117.43603499999972,110.76904300000024,113.46142599999985,116.15380900000036,100.25634799999989,86.9228520000006,87.56396500000028,114.61523400000078
358,117.82031300000017,143.0771479999994,130.6411130000006,143.9741210000002,118.7177729999994,111.41015599999992,114.48730499999965,110.76904300000024,112.56396500000028,113.9741210000002,97.43603499999972,87.05126999999993,85.12841800000024,113.9741210000002
359,115.25634799999989,142.17968800000017,129.87158199999976,143.58984400000008,114.74365200000011,113.9741210000002,113.46142599999985,110.0,112.82031300000017,116.15380900000036,97.69238299999961,88.9741210000002,85.0,112.94873000000007
360,115.76904300000024,142.56396500000028,131.79492200000004,145.76904300000024,115.38476599999922,116.9228520000006,114.87158199999976,108.46142599999985,114.61523400000078,120.76904300000024,100.76904300000024,91.15380900000036,87.05126999999993,112.05126999999993
361,117.56396500000028,142.6923829999996,134.48730499999965,147.05126999999993,120.25634799999989,117.94873000000007,115.76904300000024,106.41015599999992,116.2822270000006,122.94873000000007,103.9741210000002,91.41015599999992,88.84619099999964,111.9228520000006
362,117.56396500000028,139.61523400000078,135.0,144.61523400000078,125.51269500000035,116.0258789999998,113.20507799999996,104.87158199999976,115.64111300000059,119.61523400000078,104.23095699999976,89.10253900000043,87.82031300000017,112.94873000000007
363,115.12841800000024,133.3334960000002,132.43603499999972,138.20507799999996,127.17968800000017,112.17968800000017,106.53857400000015,104.35888699999941,112.69238299999961,112.17968800000017,101.15380900000036,85.25634799999989,84.61523400000078,115.0
364,112.43603499999972,127.82031300000017,129.3588869999994,130.89746099999957,125.0,109.23095699999976,99.35888699999941,104.61523400000078,108.84619099999964,106.41015599999992,97.56396500000028,82.56396500000028,81.79492200000004,117.05126999999993
365,111.6665039999998,127.43603499999972,128.84619099999964,126.9228520000006,122.05126999999993,109.23095699999976,96.0258789999998,104.87158199999976,106.0258789999998,107.17968800000017,97.05126999999993,83.46142599999985,81.6665039999998,117.43603499999972
366,112.69238299999961,132.3076170000004,131.9228520000006,128.0771479999994,121.15380900000036,112.17968800000017,98.9741210000002,104.10253900000043,105.0,114.10253900000043,100.38476599999922,87.43603499999972,84.35888699999941,116.0258789999998
367,113.84619099999964,138.7177729999994,137.05126999999993,132.43603499999972,122.56396500000028,115.89746099999957,106.53857400000015,102.82031300000017,105.51269500000035,121.6665039999998,105.38476599999922,92.43603499999972,87.94873000000007,113.9741210000002
368,114.61523400000078,142.17968800000017,140.89746099999957,136.79492200000004,124.23095699999976,117.69238299999961,114.10253900000043,102.43603499999972,106.0258789999998,123.7177729999994,108.58984400000008,95.51269500000035,90.38476599999922,112.69238299999961
369,114.74365200000011,140.89746099999957,141.15380900000036,138.0771479999994,123.20507799999996,116.79492200000004,117.43603499999972,102.94873000000007,104.74365200000011,117.82031300000017,107.82031300000017,94.74365200000011,90.25634799999989,112.30761700000039
370,114.10253900000043,135.38476599999922,137.17968800000017,135.51269500000035,117.30761700000039,114.35888699999941,115.25634799999989,102.82031300000017,101.0258789999998,106.79492200000004,103.3334960000002,91.15380900000036,87.17968800000017,112.43603499999972
371,112.82031300000017,128.7177729999994,131.41015599999992,130.6411130000006,108.0771479999994,112.82031300000017,110.25634799999989,100.89746099999957,97.56396500000028,97.17968800000017,98.84619099999964,88.20507799999996,82.69238299999961,112.94873000000007
372,112.43603499999972,125.25634799999989,128.84619099999964,126.79492200000004,101.79492200000004,112.94873000000007,107.17968800000017,99.10253900000043,98.3334960000002,95.38476599999922,98.9741210000002,89.74365200000011,80.38476599999922,113.46142599999985
373,114.35888699999941,127.69238299999961,132.17968800000017,126.9228520000006,103.58984400000008,114.87158199999976,109.10253900000043,100.51269500000035,104.48730499999965,103.0771479999994,105.38476599999922,95.64111300000059,83.0771479999994,113.58984400000008
374,118.46142599999985,133.9741210000002,139.3588869999994,131.15380900000036,112.94873000000007,117.43603499999972,114.48730499999965,105.76904300000024,112.30761700000039,116.0258789999998,114.61523400000078,101.79492200000004,89.74365200000011,113.0771479999994
375,121.9228520000006,138.46142599999985,144.7436520000001,136.0258789999998,122.56396500000028,119.10253900000043,118.58984400000008,111.9228520000006,115.89746099999957,125.38476599999922,119.61523400000078,103.0771479999994,95.64111300000059,112.17968800000017
376,122.17968800000017,136.41015599999992,144.3588869999994,137.17968800000017,124.87158199999976,118.7177729999994,117.82031300000017,114.74365200000011,112.17968800000017,124.87158199999976,116.0258789999998,98.84619099999964,96.15380900000036,111.9228520000006
377,119.23095699999976,128.46142599999985,139.3588869999994,133.0771479999994,118.9741210000002,116.79492200000004,113.3334960000002,113.3334960000002,104.48730499999965,115.64111300000059,106.6665039999998,92.56396500000028,91.2822270000006,112.43603499999972
378,115.76904300000024,120.51269500000035,135.0,126.79492200000004,110.89746099999957,114.87158199999976,109.23095699999976,110.38476599999922,99.48730499999965,105.38476599999922,99.10253900000043,88.9741210000002,85.89746099999957,113.20507799999996
379,114.74365200000011,118.46142599999985,135.38476599999922,123.46142599999985,107.82031300000017,114.61523400000078,109.10253900000043,108.9741210000002,101.79492200000004,102.30761700000039,99.61523400000078,90.38476599999922,85.64111300000059,113.7177729999994
380,116.9228520000006,123.58984400000008,139.7436520000001,126.0258789999998,111.79492200000004,115.89746099999957,112.94873000000007,110.25634799999989,110.12841800000024,107.94873000000007,107.94873000000007,95.0,91.41015599999992,113.7177729999994
381,120.38476599999922,131.2822270000006,143.84619099999964,131.2822270000006,118.20507799999996,117.30761700000039,116.6665039999998,112.82031300000017,118.0771479999994,116.53857400000015,117.30761700000039,99.23095699999976,99.48730499999965,113.20507799999996
382,122.56396500000028,135.51269500000035,143.46142599999985,133.84619099999964,120.76904300000024,117.30761700000039,115.76904300000024,113.58984400000008,119.10253900000043,120.64111300000059,121.15380900000036,100.12841800000024,104.23095699999976,112.43603499999972
383,121.53857400000015,133.7177729999994,138.46142599999985,130.89746099999957,117.30761700000039,116.0258789999998,109.74365200000011,110.64111300000059,112.17968800000017,117.82031300000017,117.56396500000028,97.82031300000017,102.94873000000007,111.53857400000015
