,EEG.AF3,EEG.F7,EEG.F3,EEG.FC5,EEG.T7,EEG.P7,EEG.O1,EEG.O2,EEG.P8,EEG.T8,EEG.FC6,EEG.F4,EEG.F8,EEG.AF4
0,85.12841800000024,79.10253900000043,126.53857400000015,152.3076170000004,79.61523400000078,101.2822270000006,129.3588869999994,118.0771479999994,116.41015599999992,105.25634799999989,98.9741210000002,109.23095699999976,119.61523400000078,465.0
1,60.38476599999922,72.43603499999972,120.38476599999922,150.51269500000035,71.53857400000015,100.51269500000035,130.12841800000024,118.46142599999985,117.30761700000039,103.7177729999994,94.10253900000043,107.43603499999972,112.94873000000007,440.76904300000024
2,24.48730499999965,62.69238299999961,110.38476599999922,141.41015599999992,66.0258789999998,99.48730499999965,127.69238299999961,112.69238299999961,112.17968800000017,96.2822270000006,83.7177729999994,102.17968800000017,99.87158199999976,396.4101559999999
3,-3.9741210000001956,55.76904300000024,103.20507799999996,130.76904300000024,68.84619099999964,98.7177729999994,124.61523400000078,106.9228520000006,106.2822270000006,90.0,75.0,97.30761700000039,89.48730499999965,356.6665039999998
4,-10.256347999999889,55.897460999999566,103.7177729999994,125.89746099999957,80.64111300000059,98.84619099999964,123.3334960000002,107.82031300000017,106.15380900000036,91.53857400000015,75.64111300000059,96.15380900000036,89.10253900000043,342.94873000000007
5,7.179688000000169,63.0771479999994,111.53857400000015,130.89746099999957,96.53857400000015,99.61523400000078,124.48730499999965,116.41015599999992,113.20507799999996,101.53857400000015,86.41015599999992,99.10253900000043,98.84619099999964,359.7436520000001
6,35.76904300000024,73.46142599999985,121.2822270000006,142.82031300000017,107.94873000000007,100.25634799999989,125.76904300000024,127.05126999999993,122.17968800000017,113.46142599999985,99.48730499999965,103.20507799999996,109.48730499999965,391.9228520000006
7,56.025878999999804,82.05126999999993,125.64111300000059,153.46142599999985,108.7177729999994,99.87158199999976,124.35888699999941,131.15380900000036,125.51269500000035,118.46142599999985,104.23095699999976,105.12841800000024,110.51269500000035,414.87158199999976
8,54.61523400000078,85.89746099999957,121.2822270000006,156.0258789999998,100.0,99.23095699999976,119.61523400000078,124.87158199999976,120.38476599999922,113.20507799999996,96.79492200000004,103.46142599999985,99.23095699999976,411.53857400000015
9,33.7177729999994,86.15380900000036,111.6665039999998,151.0258789999998,91.15380900000036,99.35888699999941,115.0,113.46142599999985,112.05126999999993,104.10253900000043,84.35888699999941,98.9741210000002,84.61523400000078,384.48730499999965
10,10.641113000000587,86.2822270000006,105.64111300000059,145.51269500000035,91.2822270000006,100.89746099999957,115.64111300000059,107.69238299999961,110.0,102.56396500000028,79.48730499999965,95.12841800000024,80.38476599999922,354.87158199999976
11,3.5898440000000846,87.56396500000028,109.35888699999941,145.76904300000024,100.51269500000035,102.69238299999961,122.94873000000007,113.58984400000008,119.23095699999976,114.35888699999941,89.48730499999965,95.38476599999922,93.58984400000008,345.51269500000035
12,16.410155999999915,87.82031300000017,120.89746099999957,150.51269500000035,108.0771479999994,102.82031300000017,132.82031300000017,127.43603499999972,134.23095699999976,132.43603499999972,109.35888699999941,100.0,117.94873000000007,361.79492200000004
13,35.38476599999922,83.20507799999996,130.6411130000006,152.43603499999972,103.58984400000008,100.51269500000035,138.20507799999996,138.20507799999996,143.9741210000002,142.56396500000028,125.76904300000024,105.51269500000035,138.3334960000002,387.94873000000007
14,43.0771479999994,74.10253900000043,130.51269500000035,146.6665039999998,86.9228520000006,97.05126999999993,135.38476599999922,137.82031300000017,141.0258789999998,135.6411130000006,127.56396500000028,107.82031300000017,142.82031300000017,401.53857400000015
15,32.82031300000017,65.51269500000035,121.2822270000006,135.89746099999957,70.25634799999989,94.74365200000011,126.9228520000006,127.43603499999972,128.0771479999994,116.6665039999998,115.12841800000024,105.51269500000035,131.79492200000004,392.5639650000003
16,12.43603499999972,62.69238299999961,110.64111300000059,128.0771479999994,66.15380900000036,95.25634799999989,119.35888699999941,115.38476599999922,114.87158199999976,100.38476599999922,99.23095699999976,101.0258789999998,116.0258789999998,367.94873000000007
17,-4.61547900000005,65.38476599999922,105.89746099999957,127.30761700000039,77.56396500000028,97.94873000000007,117.30761700000039,109.10253900000043,108.84619099999964,98.7177729999994,91.0258789999998,98.0771479999994,106.41015599999992,342.82031300000017
18,-10.38452099999995,69.35888699999941,107.94873000000007,131.41015599999992,96.0258789999998,100.76904300000024,120.64111300000059,110.0,110.64111300000059,111.53857400000015,93.7177729999994,98.3334960000002,106.9228520000006,328.7177729999994
19,-5.38452099999995,71.6665039999998,113.46142599999985,135.51269500000035,110.38476599999922,101.9228520000006,126.15380900000036,115.12841800000024,116.0258789999998,128.3334960000002,102.05126999999993,100.51269500000035,114.74365200000011,328.9741210000002
20,3.717772999999397,73.58984400000008,118.3334960000002,137.43603499999972,115.0,101.2822270000006,130.6411130000006,121.15380900000036,121.6665039999998,138.84619099999964,109.10253900000043,102.56396500000028,124.35888699999941,338.7177729999994
21,10.256347999999889,77.82031300000017,121.53857400000015,137.82031300000017,112.17968800000017,100.12841800000024,133.20507799999996,126.15380900000036,126.53857400000015,139.7436520000001,112.69238299999961,103.20507799999996,131.41015599999992,348.84619099999964
22,11.922852000000603,84.35888699999941,123.7177729999994,138.46142599999985,108.58984400000008,99.87158199999976,133.7177729999994,129.3588869999994,130.12841800000024,134.7436520000001,115.12841800000024,103.58984400000008,134.3588869999994,350.51269500000035
23,10.897460999999566,89.48730499999965,126.0258789999998,139.48730499999965,109.23095699999976,100.38476599999922,133.0771479999994,129.87158199999976,131.79492200000004,130.0,119.74365200000011,104.87158199999976,133.46142599999985,340.12841800000024
24,10.512695000000349,90.12841800000024,128.46142599999985,140.0,113.9741210000002,101.0258789999998,132.6923829999996,127.82031300000017,131.41015599999992,128.20507799999996,125.76904300000024,107.17968800000017,130.12841800000024,319.48730499999965
25,11.922852000000603,87.17968800000017,129.87158199999976,138.20507799999996,118.7177729999994,101.15380900000036,133.46142599999985,124.48730499999965,129.3588869999994,128.3334960000002,129.48730499999965,109.10253900000043,125.89746099999957,293.7177729999994
26,15.384765999999217,84.87158199999976,128.46142599999985,133.3334960000002,118.9741210000002,101.15380900000036,135.12841800000024,121.53857400000015,127.43603499999972,128.0771479999994,127.69238299999961,109.74365200000011,122.69238299999961,266.4101559999999
27,20.897460999999566,87.30761700000039,123.58984400000008,125.25634799999989,114.87158199999976,102.43603499999972,136.9228520000006,120.25634799999989,126.79492200000004,126.2822270000006,121.41015599999992,108.46142599999985,121.9228520000006,236.0258789999998
28,27.94873000000007,93.46142599999985,116.53857400000015,114.48730499999965,109.10253900000043,106.15380900000036,137.43603499999972,119.87158199999976,127.17968800000017,123.7177729999994,114.48730499999965,105.25634799999989,122.69238299999961,196.41015599999992
29,36.2822270000006,97.69238299999961,109.87158199999976,101.9228520000006,104.10253900000043,111.41015599999992,135.76904300000024,119.23095699999976,126.41015599999992,122.05126999999993,110.25634799999989,101.15380900000036,121.2822270000006,142.17968800000017
30,46.79492200000004,95.38476599999922,105.51269500000035,89.61523400000078,100.0,116.0258789999998,132.43603499999972,117.43603499999972,123.20507799999996,122.43603499999972,110.0,98.0771479999994,115.12841800000024,75.76904300000024
31,64.48730499999965,88.46142599999985,104.23095699999976,80.12841800000024,97.30761700000039,118.3334960000002,130.0,115.12841800000024,118.20507799999996,124.87158199999976,113.3334960000002,98.0771479999994,106.2822270000006,9.615234000000783
32,95.38476599999922,84.87158199999976,105.89746099999957,75.64111300000059,99.74365200000011,118.0771479999994,130.76904300000024,114.35888699999941,115.0,128.84619099999964,120.38476599999922,101.41015599999992,100.64111300000059,-40.1281740000004
33,142.17968800000017,91.41015599999992,110.25634799999989,76.0258789999998,111.15380900000036,117.17968800000017,135.51269500000035,116.41015599999992,116.2822270000006,133.58984400000008,129.61523400000078,106.9228520000006,103.0771479999994,-63.846190999999635
34,200.51269500000035,107.82031300000017,116.2822270000006,77.82031300000017,129.87158199999976,117.43603499999972,142.3076170000004,120.76904300000024,121.53857400000015,138.9741210000002,138.46142599999985,112.43603499999972,112.56396500000028,-64.74365200000011
35,259.23095699999976,125.51269500000035,121.41015599999992,76.2822270000006,147.05126999999993,118.9741210000002,146.79492200000004,124.23095699999976,126.41015599999992,143.46142599999985,143.58984400000008,115.64111300000059,122.30761700000039,-55.1281740000004
36,306.79492200000004,134.10253900000043,122.69238299999961,68.0771479999994,153.0771479999994,120.38476599999922,146.15380900000036,124.35888699999941,126.6665039999998,144.7436520000001,143.20507799999996,114.87158199999976,125.64111300000059,-47.948729999999614
37,338.9741210000002,130.51269500000035,118.7177729999994,54.61523400000078,144.7436520000001,120.38476599999922,140.51269500000035,120.89746099999957,121.53857400000015,141.2822270000006,138.3334960000002,110.25634799999989,120.89746099999957,-46.92309599999999
38,362.05126999999993,120.25634799999989,110.64111300000059,40.38476599999922,128.20507799999996,119.10253900000043,133.46142599999985,116.41015599999992,114.48730499999965,133.7177729999994,132.43603499999972,103.9741210000002,112.56396500000028,-46.92309599999999
39,386.0258789999998,112.56396500000028,102.56396500000028,31.282227000000603,112.94873000000007,118.46142599999985,129.7436520000001,113.84619099999964,110.0,125.0,128.9741210000002,99.61523400000078,106.79492200000004,-39.8718259999996
40,416.6665039999998,112.30761700000039,97.94873000000007,29.74365200000011,105.38476599999922,120.25634799999989,131.41015599999992,114.61523400000078,110.38476599999922,119.23095699999976,129.61523400000078,99.74365200000011,107.17968800000017,-23.71801800000003
41,450.12841800000024,118.0771479999994,98.7177729999994,34.48730499999965,106.15380900000036,124.23095699999976,136.53857400000015,117.82031300000017,114.48730499999965,119.23095699999976,133.20507799999996,103.9741210000002,112.69238299999961,-3.846190999999635
42,477.6923829999996,125.89746099999957,103.84619099999964,41.2822270000006,112.43603499999972,128.58984400000008,142.17968800000017,121.9228520000006,120.12841800000024,125.76904300000024,137.05126999999993,109.87158199999976,119.74365200000011,13.077147999999397
43,492.5639650000003,133.0771479999994,110.64111300000059,47.30761700000039,121.2822270000006,130.6411130000006,146.6665039999998,126.0258789999998,125.64111300000059,137.05126999999993,139.87158199999976,114.87158199999976,126.6665039999998,26.153809000000365
44,495.12841800000024,139.87158199999976,116.15380900000036,50.76904300000024,130.38476599999922,129.7436520000001,149.87158199999976,129.3588869999994,130.6411130000006,148.58984400000008,142.6923829999996,118.20507799999996,132.6923829999996,39.35888699999941
45,490.0,145.2563479999999,117.82031300000017,51.410155999999915,137.3076170000004,127.05126999999993,152.05126999999993,130.76904300000024,133.58984400000008,153.9741210000002,146.15380900000036,119.48730499999965,136.6665039999998,55.64111300000059
46,482.05126999999993,146.2822270000006,114.23095699999976,48.974121000000196,138.7177729999994,125.25634799999989,152.05126999999993,128.84619099999964,131.79492200000004,148.7177729999994,148.0771479999994,118.46142599999985,136.41015599999992,72.56396500000028
47,473.20507799999996,139.7436520000001,106.79492200000004,44.102539000000434,133.20507799999996,126.0258789999998,148.58984400000008,123.0771479999994,124.10253900000043,134.10253900000043,145.0,114.74365200000011,130.12841800000024,84.74365200000011
48,464.10253900000043,127.17968800000017,99.23095699999976,38.20507799999996,122.94873000000007,128.9741210000002,142.17968800000017,116.0258789999998,113.84619099999964,117.94873000000007,136.53857400000015,109.48730499999965,120.64111300000059,89.87158199999976
49,456.15380900000036,115.51269500000035,95.64111300000059,34.35888699999941,114.10253900000043,132.05126999999993,136.15380900000036,111.6665039999998,107.30761700000039,109.35888699999941,126.6665039999998,104.87158199999976,113.84619099999964,90.51269500000035
50,451.15380900000036,111.79492200000004,97.05126999999993,34.48730499999965,111.9228520000006,133.3334960000002,133.9741210000002,112.69238299999961,108.46142599999985,112.94873000000007,120.64111300000059,103.0771479999994,114.23095699999976,91.0258789999998
51,448.46142599999985,117.82031300000017,100.64111300000059,37.43603499999972,115.25634799999989,132.43603499999972,136.6665039999998,117.05126999999993,114.48730499999965,123.9741210000002,121.15380900000036,104.61523400000078,121.2822270000006,92.82031300000017
52,445.12841800000024,128.20507799999996,102.69238299999961,39.87158199999976,117.94873000000007,130.51269500000035,141.41015599999992,120.51269500000035,119.23095699999976,132.94873000000007,126.0258789999998,107.56396500000028,129.7436520000001,93.3334960000002
53,437.94873000000007,136.0258789999998,101.53857400000015,39.87158199999976,115.25634799999989,129.23095699999976,144.61523400000078,120.12841800000024,118.7177729999994,133.0771479999994,131.41015599999992,109.23095699999976,134.48730499999965,90.12841800000024
54,426.53857400000015,137.82031300000017,98.58984400000008,38.0771479999994,108.9741210000002,129.3588869999994,145.12841800000024,116.6665039999998,113.84619099999964,125.64111300000059,134.23095699999976,108.20507799999996,134.10253900000043,83.0771479999994
55,413.0771479999994,134.48730499999965,96.15380900000036,36.79492200000004,106.0258789999998,130.38476599999922,143.9741210000002,113.46142599999985,108.58984400000008,116.79492200000004,133.46142599999985,105.12841800000024,130.12841800000024,74.87158199999976
56,400.6411130000006,129.7436520000001,95.51269500000035,37.82031300000017,111.53857400000015,131.15380900000036,143.58984400000008,112.30761700000039,106.41015599999992,113.0771479999994,130.2563479999999,102.43603499999972,126.41015599999992,69.23095699999976
57,392.3076170000004,127.43603499999972,96.6665039999998,41.79492200000004,124.48730499999965,131.2822270000006,145.0,113.58984400000008,107.94873000000007,116.6665039999998,126.79492200000004,102.17968800000017,125.51269500000035,67.94873000000007
58,389.3588869999994,129.48730499999965,99.23095699999976,48.20507799999996,137.94873000000007,131.53857400000015,147.82031300000017,116.15380900000036,112.30761700000039,125.38476599999922,126.2822270000006,104.87158199999976,128.20507799999996,70.0
59,390.12841800000024,135.2563479999999,102.69238299999961,54.87158199999976,144.87158199999976,132.82031300000017,150.38476599999922,118.9741210000002,117.30761700000039,134.48730499999965,130.12841800000024,109.10253900000043,132.82031300000017,72.30761700000039
60,390.12841800000024,141.6665039999998,105.76904300000024,58.20507799999996,142.3076170000004,134.3588869999994,151.2822270000006,120.64111300000059,120.76904300000024,138.7177729999994,135.89746099999957,112.30761700000039,136.0258789999998,70.89746099999957
61,385.3847659999992,145.0,106.6665039999998,55.51269500000035,133.7177729999994,134.87158199999976,150.12841800000024,119.74365200000011,120.64111300000059,135.51269500000035,138.3334960000002,112.94873000000007,135.2563479999999,63.333496000000196
62,375.2563479999999,142.3076170000004,104.35888699999941,48.46142599999985,125.12841800000024,133.7177729999994,147.82031300000017,116.41015599999992,116.41015599999992,127.17968800000017,134.10253900000043,111.53857400000015,130.0,51.2822270000006
63,362.82031300000017,134.10253900000043,100.64111300000059,42.43603499999972,120.76904300000024,131.6665039999998,146.41015599999992,112.94873000000007,110.0,119.10253900000043,125.12841800000024,109.48730499999965,122.69238299999961,38.974121000000196
64,352.3076170000004,123.84619099999964,98.46142599999985,42.30761700000039,119.74365200000011,129.61523400000078,146.53857400000015,111.9228520000006,104.10253900000043,115.89746099999957,117.43603499999972,107.82031300000017,117.05126999999993,30.641113000000587
65,345.12841800000024,116.2822270000006,98.7177729999994,47.17968800000017,117.69238299999961,128.9741210000002,147.43603499999972,113.58984400000008,101.15380900000036,117.17968800000017,115.89746099999957,106.2822270000006,115.38476599999922,26.538574000000153
66,339.23095699999976,114.48730499999965,100.0,51.2822270000006,111.79492200000004,129.7436520000001,147.94873000000007,115.25634799999989,101.15380900000036,118.58984400000008,119.35888699999941,104.61523400000078,117.17968800000017,23.205077999999958
67,331.79492200000004,117.94873000000007,98.9741210000002,48.46142599999985,103.7177729999994,130.89746099999957,147.3076170000004,113.58984400000008,102.17968800000017,115.12841800000024,122.56396500000028,103.0771479999994,119.74365200000011,16.410155999999915
68,322.05126999999993,123.46142599999985,94.35888699999941,38.20507799999996,98.20507799999996,131.2822270000006,146.2822270000006,107.82031300000017,102.17968800000017,107.05126999999993,120.64111300000059,102.05126999999993,120.38476599999922,5.3847659999992175
69,312.5639650000003,127.94873000000007,88.20507799999996,25.769043000000238,99.48730499999965,130.76904300000024,145.6411130000006,101.15380900000036,100.76904300000024,100.12841800000024,113.20507799999996,101.41015599999992,117.94873000000007,-6.666747999999643
70,305.6411130000006,130.0,84.48730499999965,17.94873000000007,108.20507799999996,130.12841800000024,146.41015599999992,98.3334960000002,98.9741210000002,100.38476599999922,104.23095699999976,101.0258789999998,113.46142599999985,-15.769286999999622
71,301.9228520000006,130.38476599999922,85.89746099999957,16.922852000000603,120.25634799999989,130.2563479999999,148.20507799999996,101.79492200000004,98.46142599999985,108.46142599999985,98.58984400000008,100.76904300000024,108.46142599999985,-20.641113000000132
72,299.10253900000043,130.38476599999922,91.41015599999992,19.230956999999762,130.89746099999957,131.41015599999992,149.87158199999976,109.10253900000043,99.61523400000078,117.94873000000007,97.94873000000007,101.0258789999998,104.35888699999941,-23.461425999999847
73,294.3588869999994,130.2563479999999,97.17968800000017,19.74365200000011,136.53857400000015,132.82031300000017,150.6411130000006,115.38476599999922,101.6665039999998,120.76904300000024,100.25634799999989,100.89746099999957,101.0258789999998,-28.333252000000357
74,287.5639650000003,130.12841800000024,99.74365200000011,15.769043000000238,136.2822270000006,133.7177729999994,150.38476599999922,117.30761700000039,102.69238299999961,115.12841800000024,101.41015599999992,100.12841800000024,98.9741210000002,-36.79492200000004
75,281.4101559999999,130.12841800000024,99.35888699999941,9.743652000000111,131.41015599999992,133.58984400000008,150.0,115.76904300000024,102.82031300000017,106.53857400000015,99.74365200000011,99.35888699999941,98.7177729999994,-45.51293900000019
76,278.7177729999994,131.41015599999992,98.7177729999994,5.769043000000238,125.38476599999922,132.6923829999996,150.0,113.84619099999964,103.20507799999996,102.69238299999961,97.82031300000017,99.87158199999976,100.64111300000059,-49.23071300000038
77,279.23095699999976,133.58984400000008,99.35888699999941,5.897460999999566,121.0258789999998,130.76904300000024,150.38476599999922,113.58984400000008,104.48730499999965,105.89746099999957,98.7177729999994,101.9228520000006,103.3334960000002,-45.25634799999989
78,278.9741210000002,135.12841800000024,100.12841800000024,7.051269999999931,118.46142599999985,127.69238299999961,150.76904300000024,114.10253900000043,104.61523400000078,110.76904300000024,102.43603499999972,103.58984400000008,103.7177729999994,-36.28198199999997
79,274.48730499999965,133.84619099999964,98.7177729999994,4.743652000000111,115.64111300000059,123.20507799999996,150.6411130000006,113.0771479999994,101.41015599999992,109.48730499999965,105.25634799999989,103.0771479999994,100.0,-28.461425999999847
80,266.0258789999998,129.7436520000001,95.64111300000059,-1.7949220000000423,112.17968800000017,118.7177729999994,150.89746099999957,109.87158199999976,95.51269500000035,100.12841800000024,103.84619099999964,101.15380900000036,94.48730499999965,-26.28198199999997
81,258.3334960000002,125.76904300000024,94.35888699999941,-7.564209000000574,110.76904300000024,116.6665039999998,152.94873000000007,106.79492200000004,91.41015599999992,89.74365200000011,99.74365200000011,99.74365200000011,92.05126999999993,-28.461425999999847
82,256.4101559999999,126.41015599999992,98.0771479999994,-6.923095999999987,114.61523400000078,118.46142599999985,157.43603499999972,106.9228520000006,93.9741210000002,88.0771479999994,98.0771479999994,101.15380900000036,96.6665039999998,-30.38452099999995
83,260.3847659999992,132.94873000000007,106.2822270000006,1.0258789999998044,123.7177729999994,122.56396500000028,163.58984400000008,111.2822270000006,103.3334960000002,99.10253900000043,102.05126999999993,105.12841800000024,107.17968800000017,-28.333252000000357
84,265.51269500000035,142.43603499999972,113.9741210000002,9.871581999999762,133.46142599999985,126.6665039999998,168.58984400000008,117.56396500000028,113.9741210000002,115.89746099999957,109.61523400000078,109.61523400000078,117.69238299999961,-22.820557000000008
85,265.89746099999957,149.3588869999994,115.64111300000059,12.17968800000017,138.58984400000008,129.23095699999976,170.12841800000024,121.6665039999998,118.58984400000008,126.53857400000015,115.25634799999989,112.17968800000017,122.43603499999972,-18.461425999999847
86,258.7177729999994,149.7436520000001,109.48730499999965,5.3847659999992175,136.15380900000036,130.12841800000024,167.82031300000017,120.76904300000024,114.23095699999976,123.7177729999994,114.87158199999976,111.0258789999998,119.61523400000078,-19.10253899999998
87,246.2822270000006,143.58984400000008,99.87158199999976,-6.025634999999966,128.46142599999985,129.48730499999965,163.9741210000002,115.89746099999957,104.23095699999976,110.64111300000059,109.48730499999965,107.05126999999993,112.69238299999961,-24.74365200000011
88,234.10253900000043,134.48730499999965,92.94873000000007,-14.61547900000005,120.51269500000035,128.58984400000008,161.53857400000015,110.51269500000035,95.51269500000035,96.79492200000004,104.61523400000078,102.56396500000028,106.9228520000006,-31.666747999999643
89,225.6411130000006,126.79492200000004,93.20507799999996,-15.897461000000021,116.9228520000006,127.69238299999961,161.79492200000004,107.82031300000017,93.3334960000002,90.51269500000035,104.61523400000078,100.38476599999922,105.51269500000035,-36.025634999999966
90,220.89746099999957,122.94873000000007,99.10253900000043,-11.28198199999997,118.46142599999985,127.05126999999993,163.58984400000008,108.20507799999996,97.43603499999972,93.7177729999994,109.87158199999976,101.2822270000006,106.79492200000004,-36.66674799999964
91,217.3076170000004,122.94873000000007,105.25634799999989,-6.41015600000037,121.6665039999998,125.38476599999922,165.0,109.48730499999965,103.3334960000002,102.17968800000017,116.53857400000015,103.3334960000002,107.69238299999961,-35.89746100000002
92,213.0771479999994,124.61523400000078,106.79492200000004,-5.38452099999995,121.53857400000015,122.30761700000039,165.0,109.61523400000078,106.15380900000036,110.12841800000024,119.61523400000078,104.61523400000078,106.0258789999998,-36.41015600000037
93,208.7177729999994,125.64111300000059,103.58984400000008,-8.71801800000003,116.41015599999992,119.87158199999976,164.3588869999994,108.20507799999996,104.74365200000011,114.10253900000043,117.05126999999993,104.87158199999976,102.94873000000007,-38.71801800000003
94,206.53857400000015,125.76904300000024,100.38476599999922,-11.923095999999987,110.51269500000035,120.38476599999922,164.87158199999976,107.56396500000028,102.17968800000017,114.35888699999941,111.41015599999992,105.51269500000035,101.79492200000004,-40.1281740000004
95,208.7177729999994,126.9228520000006,102.69238299999961,-10.256347999999889,110.51269500000035,124.10253900000043,167.43603499999972,110.12841800000024,103.58984400000008,113.58984400000008,107.56396500000028,108.20507799999996,105.76904300000024,-37.435790999999426
96,215.0,131.6665039999998,111.79492200000004,-2.5639650000002803,120.0,128.46142599999985,171.6665039999998,116.9228520000006,111.15380900000036,114.48730499999965,110.38476599999922,112.43603499999972,115.12841800000024,-28.974365000000034
97,222.56396500000028,140.2563479999999,123.7177729999994,7.051269999999931,135.76904300000024,130.6411130000006,177.17968800000017,126.0258789999998,122.82031300000017,118.7177729999994,119.87158199999976,116.6665039999998,127.30761700000039,-17.30761700000039
98,227.94873000000007,149.7436520000001,132.82031300000017,12.948730000000069,150.12841800000024,129.87158199999976,183.0771479999994,133.84619099999964,133.20507799999996,125.76904300000024,132.05126999999993,119.23095699999976,137.82031300000017,-7.179442999999992
99,227.6923829999996,154.7436520000001,134.7436520000001,11.922852000000603,155.38476599999922,126.9228520000006,187.6923829999996,137.05126999999993,137.56396500000028,132.82031300000017,140.6411130000006,120.25634799999989,142.6923829999996,-3.5898440000000846
100,219.7436520000001,151.0258789999998,129.10253900000043,5.256347999999889,148.0771479999994,124.35888699999941,189.23095699999976,133.3334960000002,133.7177729999994,134.87158199999976,140.76904300000024,120.0,139.7436520000001,-8.974365000000034
101,205.38476599999922,138.7177729999994,118.46142599999985,-3.4614259999998467,131.15380900000036,123.58984400000008,187.05126999999993,123.84619099999964,123.0771479999994,128.20507799999996,131.6665039999998,118.58984400000008,129.48730499999965,-21.538574000000153
102,189.3588869999994,123.20507799999996,107.56396500000028,-11.025634999999966,112.82031300000017,124.23095699999976,181.6665039999998,113.20507799999996,110.51269500000035,114.48730499999965,118.46142599999985,115.64111300000059,116.9228520000006,-35.38452099999995
103,178.20507799999996,111.9228520000006,100.64111300000059,-15.512939000000188,101.79492200000004,124.74365200000011,174.87158199999976,107.17968800000017,101.53857400000015,100.0,109.10253900000043,111.53857400000015,108.84619099999964,-44.10253899999998
104,175.51269500000035,109.87158199999976,99.35888699999941,-17.051270000000386,101.41015599999992,123.84619099999964,169.23095699999976,108.46142599999985,99.35888699999941,91.9228520000006,108.58984400000008,107.43603499999972,108.9741210000002,-44.8718259999996
105,179.23095699999976,116.0258789999998,101.6665039999998,-16.28198199999997,108.46142599999985,121.6665039999998,166.2822270000006,114.35888699999941,102.82031300000017,93.3334960000002,115.12841800000024,105.25634799999989,115.25634799999989,-40.38452099999995
106,182.94873000000007,124.23095699999976,103.7177729999994,-14.61547900000005,115.38476599999922,118.84619099999964,165.89746099999957,118.84619099999964,106.53857400000015,100.25634799999989,120.89746099999957,105.38476599999922,121.0258789999998,-36.41015600000037
107,181.15380900000036,128.3334960000002,103.0771479999994,-12.692382999999609,117.30761700000039,116.41015599999992,166.41015599999992,117.56396500000028,106.2822270000006,105.89746099999957,118.46142599999985,105.89746099999957,120.12841800000024,-37.69238299999961
108,173.20507799999996,127.43603499999972,100.38476599999922,-10.38452099999995,114.87158199999976,115.38476599999922,165.76904300000024,111.2822270000006,102.17968800000017,106.2822270000006,108.20507799999996,105.0,112.17968800000017,-43.974365000000034
109,163.7177729999994,125.64111300000059,98.46142599999985,-7.692382999999609,113.46142599999985,116.15380900000036,163.58984400000008,105.25634799999989,97.82031300000017,103.7177729999994,97.69238299999961,102.56396500000028,102.69238299999961,-51.153809000000365
110,158.3334960000002,127.82031300000017,99.87158199999976,-4.487060999999812,117.82031300000017,117.82031300000017,161.79492200000004,103.84619099999964,97.43603499999972,103.58984400000008,95.25634799999989,100.76904300000024,98.9741210000002,-54.61547900000005
111,160.0,135.0,105.12841800000024,-0.38476599999921746,128.3334960000002,119.10253900000043,163.46142599999985,108.20507799999996,102.30761700000039,108.7177729999994,102.94873000000007,101.79492200000004,104.61523400000078,-52.948729999999614
112,165.89746099999957,143.3334960000002,111.2822270000006,4.743652000000111,139.3588869999994,119.23095699999976,168.0771479999994,115.38476599999922,109.61523400000078,115.64111300000059,115.0,105.64111300000059,116.2822270000006,-47.82055700000001
113,169.3588869999994,147.05126999999993,113.7177729999994,9.358886999999413,142.82031300000017,118.84619099999964,171.2822270000006,120.38476599999922,114.61523400000078,117.82031300000017,122.17968800000017,110.12841800000024,125.89746099999957,-43.46142599999985
114,165.38476599999922,142.56396500000028,109.48730499999965,10.256347999999889,133.7177729999994,118.46142599999985,168.46142599999985,118.84619099999964,113.58984400000008,111.6665039999998,118.9741210000002,111.6665039999998,126.0258789999998,-42.82055700000001
115,154.23095699999976,131.6665039999998,99.87158199999976,5.3847659999992175,115.25634799999989,117.82031300000017,159.23095699999976,110.38476599999922,106.53857400000015,100.38476599999922,107.56396500000028,108.84619099999964,116.0258789999998,-47.051270000000386
116,141.41015599999992,119.61523400000078,90.25634799999989,-3.5898440000000846,97.30761700000039,116.6665039999998,147.43603499999972,99.10253900000043,97.30761700000039,91.6665039999998,95.76904300000024,102.94873000000007,101.79492200000004,-55.76928699999962
117,133.7177729999994,112.17968800000017,86.15380900000036,-12.435790999999426,89.23095699999976,115.89746099999957,138.46142599999985,90.64111300000059,90.64111300000059,90.64111300000059,90.64111300000059,97.30761700000039,91.6665039999998,-66.53857400000015
118,134.23095699999976,111.9228520000006,89.23095699999976,-15.38452099999995,94.87158199999976,116.0258789999998,134.61523400000078,88.20507799999996,88.9741210000002,96.2822270000006,93.58984400000008,95.0,90.51269500000035,-73.97436500000003
119,140.89746099999957,117.82031300000017,96.79492200000004,-9.743652000000111,110.12841800000024,116.41015599999992,135.2563479999999,91.2822270000006,91.53857400000015,102.94873000000007,101.0258789999998,97.43603499999972,97.69238299999961,-68.58984399999963
120,148.3334960000002,125.89746099999957,103.9741210000002,2.8203130000001693,126.41015599999992,116.2822270000006,137.6923829999996,96.79492200000004,95.64111300000059,105.64111300000059,107.43603499999972,103.20507799999996,108.0771479999994,-41.92309599999999
121,152.17968800000017,131.53857400000015,107.69238299999961,16.025878999999804,135.76904300000024,115.76904300000024,139.61523400000078,101.0258789999998,98.84619099999964,103.9741210000002,110.25634799999989,108.84619099999964,116.0258789999998,6.922852000000603
122,151.41015599999992,132.56396500000028,108.0771479999994,23.461425999999847,135.38476599999922,115.64111300000059,140.6411130000006,102.69238299999961,100.51269500000035,101.53857400000015,110.89746099999957,111.41015599999992,118.7177729999994,67.82031300000017
123,147.94873000000007,130.51269500000035,107.94873000000007,23.461425999999847,127.82031300000017,116.6665039999998,141.2822270000006,102.30761700000039,100.89746099999957,103.0771479999994,111.79492200000004,110.12841800000024,117.17968800000017,123.9741210000002
124,145.12841800000024,129.48730499999965,109.48730499999965,19.74365200000011,119.87158199999976,118.3334960000002,141.9228520000006,101.79492200000004,101.2822270000006,109.61523400000078,114.23095699999976,106.79492200000004,114.61523400000078,161.0258789999998
125,145.2563479999999,132.43603499999972,112.69238299999961,17.43603499999972,116.6665039999998,119.61523400000078,142.05126999999993,102.56396500000028,102.69238299999961,118.20507799999996,117.56396500000028,104.61523400000078,113.84619099999964,174.61523400000078
126,147.6923829999996,138.20507799999996,115.64111300000059,19.871581999999762,118.58984400000008,119.10253900000043,140.6411130000006,104.61523400000078,104.48730499999965,123.58984400000008,119.74365200000011,105.76904300000024,115.51269500000035,171.79492200000004
127,150.12841800000024,143.58984400000008,116.9228520000006,26.538574000000153,121.15380900000036,117.05126999999993,137.56396500000028,106.0258789999998,105.12841800000024,122.69238299999961,119.87158199999976,110.12841800000024,117.82031300000017,164.87158199999976
128,150.6411130000006,145.38476599999922,116.53857400000015,34.48730499999965,118.9741210000002,114.61523400000078,134.23095699999976,105.12841800000024,103.7177729999994,117.43603499999972,117.94873000000007,115.38476599999922,118.7177729999994,162.6923829999996
129,149.48730499999965,142.82031300000017,115.89746099999957,41.2822270000006,112.05126999999993,113.46142599999985,132.6923829999996,102.43603499999972,101.15380900000036,112.69238299999961,115.0,118.46142599999985,117.56396500000028,166.15380900000036
130,147.82031300000017,137.82031300000017,116.2822270000006,46.2822270000006,106.2822270000006,113.7177729999994,133.84619099999964,100.38476599999922,99.61523400000078,111.79492200000004,112.94873000000007,117.82031300000017,115.89746099999957,170.89746099999957
131,146.79492200000004,133.7177729999994,117.43603499999972,49.61523400000078,108.0771479999994,114.74365200000011,136.53857400000015,101.53857400000015,100.89746099999957,113.84619099999964,113.46142599999985,115.12841800000024,115.38476599999922,172.56396500000028
132,146.6665039999998,132.56396500000028,118.7177729999994,51.666503999999804,118.58984400000008,115.76904300000024,139.48730499999965,106.15380900000036,105.25634799999989,115.38476599999922,116.41015599999992,113.7177729999994,116.53857400000015,170.12841800000024
133,147.17968800000017,133.9741210000002,120.12841800000024,53.589844000000085,132.3076170000004,116.41015599999992,142.05126999999993,111.15380900000036,110.12841800000024,115.12841800000024,119.87158199999976,115.38476599999922,118.0771479999994,166.2822270000006
134,147.3076170000004,135.2563479999999,121.6665039999998,56.410155999999915,140.76904300000024,117.17968800000017,145.12841800000024,112.56396500000028,112.43603499999972,113.58984400000008,120.76904300000024,118.20507799999996,118.20507799999996,163.84619099999964
135,146.0258789999998,134.23095699999976,122.82031300000017,60.51269500000035,139.61523400000078,118.0771479999994,148.84619099999964,109.35888699999941,110.38476599999922,112.30761700000039,116.9228520000006,119.10253900000043,115.89746099999957,162.82031300000017
136,141.79492200000004,130.12841800000024,122.17968800000017,63.846190999999635,130.38476599999922,118.58984400000008,151.15380900000036,103.58984400000008,104.87158199999976,111.6665039999998,108.58984400000008,116.15380900000036,111.53857400000015,160.6411130000006
137,133.9741210000002,124.35888699999941,118.46142599999985,63.46142599999985,118.84619099999964,118.0771479999994,149.10253900000043,99.10253900000043,99.23095699999976,110.64111300000059,98.3334960000002,110.89746099999957,106.15380900000036,154.87158199999976
138,124.10253900000043,119.23095699999976,112.82031300000017,57.69238299999961,111.0258789999998,116.0258789999998,142.56396500000028,98.3334960000002,96.6665039999998,108.7177729999994,90.0,106.6665039999998,101.6665039999998,146.79492200000004
139,115.38476599999922,116.2822270000006,108.20507799999996,49.23095699999976,110.12841800000024,113.3334960000002,134.7436520000001,100.64111300000059,98.84619099999964,106.2822270000006,86.53857400000015,106.15380900000036,99.35888699999941,139.61523400000078
140,111.0258789999998,115.76904300000024,106.9228520000006,43.0771479999994,114.87158199999976,111.41015599999992,129.87158199999976,102.69238299999961,103.46142599999985,104.48730499999965,88.46142599999985,108.9741210000002,100.0,136.2822270000006
141,111.53857400000015,116.53857400000015,108.46142599999985,42.82031300000017,120.12841800000024,111.2822270000006,129.61523400000078,101.6665039999998,105.76904300000024,103.58984400000008,93.0771479999994,112.05126999999993,102.82031300000017,136.2822270000006
142,114.74365200000011,117.17968800000017,110.51269500000035,47.69238299999961,121.79492200000004,112.69238299999961,132.82031300000017,97.94873000000007,103.3334960000002,102.94873000000007,97.17968800000017,112.69238299999961,106.6665039999998,138.3334960000002
143,117.17968800000017,117.69238299999961,112.17968800000017,53.846190999999635,119.35888699999941,115.0,137.05126999999993,96.2822270000006,98.58984400000008,102.43603499999972,99.48730499999965,111.2822270000006,110.38476599999922,141.53857400000015
144,116.53857400000015,118.20507799999996,113.84619099999964,56.9228520000006,115.64111300000059,117.43603499999972,140.76904300000024,100.51269500000035,96.9228520000006,102.69238299999961,100.76904300000024,110.38476599999922,112.82031300000017,145.76904300000024
145,112.43603499999972,118.7177729999994,115.89746099999957,54.23095699999976,113.46142599999985,119.10253900000043,143.20507799999996,109.87158199999976,101.2822270000006,104.61523400000078,101.6665039999998,111.79492200000004,113.0771479999994,149.23095699999976
146,106.2822270000006,119.10253900000043,117.05126999999993,47.17968800000017,114.10253900000043,119.74365200000011,144.61523400000078,118.7177729999994,109.35888699999941,108.7177729999994,102.05126999999993,114.35888699999941,111.0258789999998,149.61523400000078
147,100.76904300000024,119.35888699999941,115.38476599999922,40.51269500000035,117.30761700000039,119.48730499999965,144.87158199999976,120.89746099999957,115.25634799999989,114.48730499999965,101.15380900000036,115.12841800000024,107.56396500000028,145.6411130000006
148,98.0771479999994,119.61523400000078,111.15380900000036,38.974121000000196,121.15380900000036,118.9741210000002,145.0,115.38476599999922,114.87158199999976,119.35888699999941,99.35888699999941,112.43603499999972,103.9741210000002,138.58984400000008
149,98.58984400000008,119.10253900000043,107.05126999999993,42.69238299999961,122.17968800000017,118.58984400000008,145.6411130000006,106.15380900000036,108.7177729999994,119.87158199999976,97.82031300000017,107.82031300000017,101.2822270000006,131.79492200000004
150,100.38476599999922,117.82031300000017,105.51269500000035,46.9228520000006,117.94873000000007,118.46142599999985,147.17968800000017,98.3334960000002,100.64111300000059,113.84619099999964,97.82031300000017,103.9741210000002,99.61523400000078,127.94873000000007
151,100.76904300000024,116.6665039999998,107.82031300000017,46.666503999999804,109.61523400000078,118.3334960000002,149.10253900000043,95.12841800000024,95.25634799999989,103.3334960000002,99.35888699999941,103.46142599999985,99.35888699999941,128.46142599999985
152,98.3334960000002,116.79492200000004,112.43603499999972,40.51269500000035,102.94873000000007,118.20507799999996,150.6411130000006,96.6665039999998,94.61523400000078,94.74365200000011,100.89746099999957,107.17968800000017,100.76904300000024,131.41015599999992
153,94.10253900000043,118.9741210000002,115.64111300000059,31.025878999999804,104.87158199999976,118.7177729999994,151.0258789999998,101.41015599999992,98.0771479999994,94.35888699999941,101.2822270000006,112.94873000000007,104.61523400000078,134.10253900000043
154,90.12841800000024,122.94873000000007,114.61523400000078,20.641113000000587,116.9228520000006,120.25634799999989,149.7436520000001,107.05126999999993,102.17968800000017,102.56396500000028,101.15380900000036,117.69238299999961,110.89746099999957,134.7436520000001
155,87.69238299999961,127.30761700000039,109.48730499999965,9.615234000000783,131.6665039999998,122.05126999999993,147.17968800000017,111.2822270000006,103.84619099999964,113.7177729999994,101.79492200000004,118.84619099999964,118.0771479999994,133.58984400000008
156,86.79492200000004,130.2563479999999,103.20507799999996,-3.717772999999397,138.58984400000008,122.94873000000007,145.12841800000024,112.56396500000028,102.30761700000039,120.51269500000035,103.20507799999996,116.41015599999992,122.82031300000017,131.79492200000004
157,87.17968800000017,131.41015599999992,99.87158199999976,-19.358886999999868,132.82031300000017,122.69238299999961,145.2563479999999,110.89746099999957,99.87158199999976,120.12841800000024,103.9741210000002,112.43603499999972,122.94873000000007,130.89746099999957
158,88.46142599999985,131.9228520000006,100.76904300000024,-34.48706099999981,120.12841800000024,122.30761700000039,147.56396500000028,107.69238299999961,99.61523400000078,114.87158199999976,103.0771479999994,109.87158199999976,119.48730499999965,131.6665039999998
159,89.61523400000078,132.56396500000028,104.10253900000043,-47.17944299999999,111.79492200000004,122.56396500000028,149.23095699999976,104.74365200000011,101.9228520000006,108.7177729999994,100.25634799999989,109.61523400000078,114.74365200000011,132.6923829999996
160,88.9741210000002,132.05126999999993,105.51269500000035,-58.07690400000001,113.3334960000002,123.3334960000002,146.41015599999992,102.05126999999993,103.46142599999985,104.10253900000043,95.64111300000059,110.51269500000035,110.64111300000059,131.0258789999998
161,85.25634799999989,127.94873000000007,102.56396500000028,-69.8718259999996,120.89746099999957,123.9741210000002,137.6923829999996,99.23095699999976,100.76904300000024,100.51269500000035,89.61523400000078,110.38476599999922,106.9228520000006,124.48730499999965
162,79.23095699999976,120.51269500000035,96.9228520000006,-82.82055700000001,125.25634799999989,123.58984400000008,126.15380900000036,96.53857400000015,94.10253900000043,97.05126999999993,83.3334960000002,107.94873000000007,103.3334960000002,115.0
163,75.25634799999989,113.9741210000002,93.0771479999994,-94.48706099999981,121.41015599999992,122.17968800000017,117.30761700000039,95.51269500000035,87.69238299999961,95.0,79.10253900000043,105.12841800000024,101.41015599999992,108.20507799999996
164,77.69238299999961,114.23095699999976,95.12841800000024,-101.28198199999997,112.82031300000017,120.12841800000024,115.76904300000024,97.30761700000039,86.2822270000006,97.43603499999972,79.48730499999965,105.0,103.46142599999985,109.35888699999941
165,87.30761700000039,123.3334960000002,102.82031300000017,-102.82055700000001,107.56396500000028,118.58984400000008,121.0258789999998,102.17968800000017,91.2822270000006,105.25634799999989,85.51269500000035,108.84619099999964,109.23095699999976,118.9741210000002
166,99.74365200000011,137.3076170000004,112.69238299999961,-101.53857400000015,111.0258789999998,117.82031300000017,128.7177729999994,108.58984400000008,99.87158199999976,115.12841800000024,95.12841800000024,114.74365200000011,115.89746099999957,131.9228520000006
167,108.3334960000002,147.82031300000017,120.0,-101.28198199999997,121.0258789999998,117.82031300000017,133.7177729999994,114.23095699999976,106.6665039999998,120.64111300000059,103.9741210000002,119.74365200000011,119.35888699999941,141.15380900000036
168,108.20507799999996,147.94873000000007,121.53857400000015,-104.35888699999987,130.6411130000006,117.82031300000017,133.84619099999964,116.2822270000006,107.30761700000039,117.30761700000039,108.0771479999994,121.41015599999992,117.30761700000039,141.79492200000004
169,100.64111300000059,138.20507799999996,117.69238299999961,-110.1281740000004,134.23095699999976,117.43603499999972,130.76904300000024,114.10253900000043,102.43603499999972,107.43603499999972,105.12841800000024,119.48730499999965,110.89746099999957,134.7436520000001
170,92.43603499999972,126.53857400000015,112.05126999999993,-115.0,131.6665039999998,117.30761700000039,128.3334960000002,110.38476599999922,97.43603499999972,98.84619099999964,97.30761700000039,116.0258789999998,104.48730499999965,125.51269500000035
171,90.25634799999989,122.56396500000028,109.48730499999965,-115.76928699999962,127.82031300000017,117.82031300000017,128.9741210000002,109.35888699999941,98.0771479999994,99.48730499999965,89.10253900000043,113.84619099999964,102.43603499999972,120.25634799999989
172,95.12841800000024,128.84619099999964,112.17968800000017,-112.94872999999961,127.30761700000039,119.23095699999976,132.43603499999972,112.94873000000007,106.0258789999998,110.12841800000024,85.12841800000024,114.74365200000011,105.51269500000035,121.0258789999998
173,101.79492200000004,139.10253900000043,117.69238299999961,-111.79492200000004,129.7436520000001,120.76904300000024,135.76904300000024,118.58984400000008,115.89746099999957,122.94873000000007,85.76904300000024,117.94873000000007,109.74365200000011,124.61523400000078
174,102.30761700000039,142.94873000000007,120.64111300000059,-117.94872999999961,130.12841800000024,121.15380900000036,136.41015599999992,121.2822270000006,119.87158199999976,127.30761700000039,87.69238299999961,120.25634799999989,110.38476599999922,125.25634799999989
175,92.94873000000007,134.7436520000001,116.9228520000006,-132.56420900000057,123.58984400000008,119.87158199999976,133.3334960000002,117.43603499999972,113.84619099999964,118.84619099999964,86.41015599999992,119.10253900000043,105.25634799999989,119.35888699999941
176,77.82031300000017,119.48730499999965,107.94873000000007,-149.7436520000001,112.17968800000017,117.94873000000007,128.46142599999985,109.10253900000043,101.79492200000004,103.7177729999994,81.9228520000006,115.12841800000024,97.56396500000028,109.87158199999976
177,67.17968800000017,108.84619099999964,100.12841800000024,-159.8718259999996,104.61523400000078,117.30761700000039,126.15380900000036,102.94873000000007,93.58984400000008,94.48730499999965,78.9741210000002,111.79492200000004,94.23095699999976,104.35888699999941
178,69.10253900000043,111.41015599999992,100.12841800000024,-158.076904,108.58984400000008,118.84619099999964,128.9741210000002,104.74365200000011,96.53857400000015,99.48730499999965,83.0771479999994,112.05126999999993,100.0,108.46142599999985
179,82.05126999999993,125.25634799999989,108.58984400000008,-149.10253899999998,121.9228520000006,121.15380900000036,135.0,114.10253900000043,108.84619099999964,116.15380900000036,93.84619099999964,115.64111300000059,112.82031300000017,120.64111300000059
180,95.89746099999957,140.6411130000006,118.58984400000008,-143.20507799999996,134.61523400000078,122.05126999999993,138.9741210000002,124.23095699999976,121.41015599999992,133.20507799999996,104.23095699999976,119.48730499999965,125.25634799999989,132.6923829999996
181,100.64111300000059,147.94873000000007,122.82031300000017,-147.56420900000057,137.56396500000028,121.0258789999998,137.05126999999993,127.94873000000007,126.0258789999998,139.3588869999994,107.17968800000017,120.25634799999989,130.51269500000035,137.05126999999993
182,94.23095699999976,145.12841800000024,118.7177729999994,-160.64111300000013,130.6411130000006,118.9741210000002,129.3588869999994,123.58984400000008,121.2822270000006,132.43603499999972,101.2822270000006,117.43603499999972,127.17968800000017,132.3076170000004
183,82.43603499999972,136.41015599999992,110.38476599999922,-174.4870609999998,120.38476599999922,117.43603499999972,120.0,115.38476599999922,112.17968800000017,120.0,91.6665039999998,113.0771479999994,118.3334960000002,122.82031300000017
184,72.94873000000007,127.94873000000007,104.23095699999976,-182.0512700000004,114.35888699999941,117.17968800000017,113.9741210000002,108.7177729999994,105.38476599999922,111.15380900000036,85.12841800000024,109.87158199999976,108.84619099999964,114.61523400000078
185,69.48730499999965,123.3334960000002,103.3334960000002,-182.56420900000057,115.38476599999922,118.20507799999996,113.0771479999994,106.79492200000004,104.35888699999941,109.48730499999965,84.87158199999976,109.48730499999965,101.15380900000036,110.89746099999957
186,69.87158199999976,122.05126999999993,105.64111300000059,-181.02563499999997,120.89746099999957,119.23095699999976,115.38476599999922,108.20507799999996,107.30761700000039,111.0258789999998,87.94873000000007,111.0258789999998,95.12841800000024,110.51269500000035
187,69.35888699999941,120.51269500000035,106.15380900000036,-183.84619099999964,125.0,119.35888699999941,116.6665039999998,108.7177729999994,108.9741210000002,109.10253900000043,89.23095699999976,112.30761700000039,89.48730499999965,109.35888699999941
188,65.64111300000059,116.2822270000006,101.79492200000004,-193.84619099999964,123.84619099999964,117.94873000000007,113.58984400000008,104.87158199999976,105.76904300000024,100.64111300000059,86.15380900000036,111.9228520000006,83.7177729999994,104.74365200000011
189,61.025878999999804,111.53857400000015,94.74365200000011,-207.179443,118.58984400000008,115.76904300000024,106.9228520000006,98.0771479999994,99.61523400000078,90.0,81.2822270000006,109.87158199999976,79.61523400000078,98.7177729999994
190,60.25634799999989,110.76904300000024,90.89746099999957,-216.41015600000037,114.23095699999976,114.48730499999965,100.76904300000024,93.20507799999996,96.15380900000036,85.64111300000059,80.12841800000024,108.7177729999994,81.2822270000006,96.0258789999998
191,65.51269500000035,116.2822270000006,94.23095699999976,-216.28198199999997,114.61523400000078,115.0,98.84619099999964,94.48730499999965,99.10253900000043,92.94873000000007,85.64111300000059,110.12841800000024,90.64111300000059,99.61523400000078
192,73.58984400000008,124.35888699999941,102.82031300000017,-208.58984399999963,118.7177729999994,116.79492200000004,101.79492200000004,100.76904300000024,106.15380900000036,108.7177729999994,95.76904300000024,113.58984400000008,104.74365200000011,107.43603499999972
193,78.58984400000008,128.84619099999964,110.12841800000024,-200.5129390000002,122.05126999999993,118.58984400000008,105.76904300000024,106.53857400000015,111.6665039999998,123.0771479999994,104.10253900000043,116.41015599999992,116.6665039999998,113.20507799999996
194,77.69238299999961,126.41015599999992,110.76904300000024,-198.20507799999996,121.53857400000015,119.23095699999976,107.17968800000017,107.17968800000017,111.53857400000015,127.30761700000039,105.64111300000059,116.53857400000015,121.15380900000036,112.82031300000017
195,73.20507799999996,120.38476599999922,105.12841800000024,-201.53857400000015,118.9741210000002,118.84619099999964,105.12841800000024,102.69238299999961,107.43603499999972,121.15380900000036,101.6665039999998,114.61523400000078,118.58984400000008,107.69238299999961
196,71.41015599999992,117.17968800000017,98.84619099999964,-205.76928699999962,119.10253900000043,118.9741210000002,102.17968800000017,97.56396500000028,104.23095699999976,112.82031300000017,97.56396500000028,113.46142599999985,114.87158199999976,103.46142599999985
197,75.12841800000024,120.25634799999989,97.05126999999993,-206.923096,123.20507799999996,120.38476599999922,101.41015599999992,96.9228520000006,105.0,110.0,98.3334960000002,114.10253900000043,115.38476599999922,103.58984400000008
198,81.41015599999992,126.53857400000015,99.48730499999965,-204.7436520000001,126.9228520000006,123.0771479999994,102.43603499999972,100.76904300000024,108.3334960000002,113.20507799999996,103.0771479999994,115.25634799999989,119.61523400000078,106.15380900000036
199,83.58984400000008,130.2563479999999,102.30761700000039,-202.179443,124.74365200000011,126.0258789999998,102.94873000000007,104.61523400000078,109.74365200000011,116.79492200000004,106.6665039999998,114.61523400000078,123.46142599999985,106.6665039999998
200,79.23095699999976,128.9741210000002,102.43603499999972,-200.89746100000002,118.0771479999994,128.9741210000002,101.79492200000004,104.74365200000011,107.56396500000028,116.15380900000036,106.0258789999998,111.79492200000004,123.7177729999994,103.58984400000008
201,72.43603499999972,125.0,101.41015599999992,-200.5129390000002,113.9741210000002,132.05126999999993,100.64111300000059,102.17968800000017,104.35888699999941,111.79492200000004,102.43603499999972,108.84619099999964,121.53857400000015,99.10253900000043
202,68.58984400000008,121.79492200000004,101.15380900000036,-201.41015600000037,116.6665039999998,134.61523400000078,101.0258789999998,100.25634799999989,103.20507799999996,107.17968800000017,99.48730499999965,108.0771479999994,118.9741210000002,96.53857400000015
203,68.46142599999985,119.48730499999965,101.41015599999992,-205.2563479999999,121.79492200000004,135.76904300000024,102.17968800000017,100.25634799999989,103.7177729999994,104.23095699999976,98.58984400000008,109.10253900000043,116.2822270000006,95.25634799999989
204,67.94873000000007,116.53857400000015,99.48730499999965,-213.20507799999996,120.64111300000059,134.48730499999965,101.41015599999992,100.38476599999922,102.82031300000017,101.15380900000036,98.46142599999985,109.61523400000078,112.30761700000039,92.94873000000007
205,64.35888699999941,112.94873000000007,94.61523400000078,-222.179443,110.89746099999957,130.76904300000024,97.69238299999961,99.23095699999976,99.48730499999965,96.79492200000004,97.82031300000017,108.58984400000008,107.82031300000017,88.46142599999985
206,60.64111300000059,112.43603499999972,90.38476599999922,-225.89746100000002,99.87158199999976,126.2822270000006,93.0771479999994,98.20507799999996,96.53857400000015,93.3334960000002,97.69238299999961,107.43603499999972,106.0258789999998,84.61523400000078
207,62.17968800000017,118.0771479999994,91.79492200000004,-221.02563499999997,98.7177729999994,123.84619099999964,91.41015599999992,99.87158199999976,98.9741210000002,95.0,100.12841800000024,108.46142599999985,109.48730499999965,85.64111300000059
208,70.25634799999989,128.84619099999964,99.74365200000011,-210.64111300000013,111.53857400000015,125.25634799999989,94.10253900000043,105.51269500000035,107.56396500000028,103.3334960000002,105.25634799999989,112.30761700000039,117.17968800000017,93.3334960000002
209,79.74365200000011,138.7177729999994,110.25634799999989,-202.9487299999996,130.76904300000024,129.10253900000043,99.35888699999941,112.17968800000017,117.82031300000017,114.74365200000011,109.48730499999965,116.79492200000004,123.58984400000008,103.7177729999994
210,83.20507799999996,140.6411130000006,115.89746099999957,-204.7436520000001,143.0771479999994,131.79492200000004,103.3334960000002,114.87158199999976,121.53857400000015,122.43603499999972,108.84619099999964,119.23095699999976,122.56396500000028,108.84619099999964
211,76.6665039999998,132.56396500000028,112.56396500000028,-215.1281740000004,138.84619099999964,130.6411130000006,103.20507799999996,111.0258789999998,114.10253900000043,121.6665039999998,102.56396500000028,118.58984400000008,113.20507799999996,103.46142599999985
212,64.10253900000043,119.87158199999976,102.69238299999961,-226.28198199999997,120.76904300000024,125.89746099999957,99.48730499999965,102.69238299999961,99.10253900000043,113.3334960000002,94.74365200000011,115.89746099999957,100.89746099999957,90.25634799999989
213,54.87158199999976,112.30761700000039,95.0,-228.97436500000003,101.53857400000015,121.0258789999998,95.51269500000035,96.0258789999998,87.69238299999961,102.69238299999961,91.15380900000036,113.0771479999994,93.84619099999964,79.61523400000078
214,56.53857400000015,116.2822270000006,96.41015599999992,-220.38452099999995,93.3334960000002,120.25634799999989,94.87158199999976,96.6665039999998,89.10253900000043,96.2822270000006,95.0,112.30761700000039,96.79492200000004,79.87158199999976
215,68.3334960000002,129.7436520000001,107.05126999999993,-206.15380900000036,99.23095699999976,124.23095699999976,98.20507799999996,105.0,102.56396500000028,96.41015599999992,104.23095699999976,114.23095699999976,106.9228520000006,90.89746099999957
216,80.89746099999957,142.6923829999996,119.23095699999976,-196.79492200000004,112.94873000000007,130.2563479999999,103.20507799999996,115.76904300000024,117.30761700000039,100.64111300000059,112.82031300000017,117.69238299999961,116.2822270000006,103.9741210000002
217,84.48730499999965,145.6411130000006,123.58984400000008,-199.23071300000038,125.12841800000024,134.3588869999994,105.51269500000035,121.9228520000006,122.30761700000039,103.9741210000002,115.51269500000035,120.12841800000024,118.3334960000002,108.7177729999994
218,76.53857400000015,137.6923829999996,116.9228520000006,-211.53857400000015,130.12841800000024,134.7436520000001,103.20507799999996,120.0,114.87158199999976,103.9741210000002,111.9228520000006,120.0,112.94873000000007,102.56396500000028
219,64.23095699999976,126.15380900000036,104.61523400000078,-224.23071300000038,128.9741210000002,132.6923829999996,98.3334960000002,113.58984400000008,102.82031300000017,102.94873000000007,107.17968800000017,117.56396500000028,106.2822270000006,91.6665039999998
220,57.56396500000028,120.38476599999922,96.53857400000015,-228.46142599999985,126.15380900000036,131.0258789999998,95.38476599999922,108.9741210000002,96.6665039999998,104.87158199999976,106.9228520000006,115.38476599999922,105.12841800000024,85.0
221,61.153809000000365,123.7177729999994,98.58984400000008,-222.0512700000004,124.48730499999965,131.53857400000015,97.05126999999993,110.25634799999989,101.2822270000006,110.64111300000059,112.69238299999961,115.51269500000035,110.64111300000059,87.30761700000039
222,71.0258789999998,131.9228520000006,108.7177729999994,-210.76928699999962,123.84619099999964,133.20507799999996,102.05126999999993,115.64111300000059,113.0771479999994,116.6665039999998,120.0,118.20507799999996,117.82031300000017,96.0258789999998
223,78.9741210000002,137.3076170000004,119.61523400000078,-202.3076170000004,123.46142599999985,134.3588869999994,106.79492200000004,120.12841800000024,123.0771479999994,118.84619099999964,123.3334960000002,122.69238299999961,121.15380900000036,104.35888699999941
224,80.0,136.41015599999992,124.35888699999941,-200.64111300000013,124.48730499999965,133.58984400000008,108.7177729999994,120.76904300000024,125.25634799999989,116.9228520000006,120.64111300000059,126.9228520000006,119.23095699999976,107.05126999999993
225,75.51269500000035,132.05126999999993,121.2822270000006,-204.10253899999998,128.46142599999985,131.41015599999992,107.56396500000028,118.7177729999994,120.51269500000035,114.10253900000043,115.64111300000059,128.84619099999964,115.76904300000024,103.46142599999985
226,70.76904300000024,129.3588869999994,113.46142599999985,-208.46142599999985,133.9741210000002,129.3588869999994,104.48730499999965,117.05126999999993,114.61523400000078,113.3334960000002,112.82031300000017,127.17968800000017,114.74365200000011,97.30761700000039
227,69.61523400000078,130.6411130000006,105.76904300000024,-210.1281740000004,136.41015599999992,128.84619099999964,101.15380900000036,116.53857400000015,112.17968800000017,115.25634799999989,114.10253900000043,122.69238299999961,116.6665039999998,93.20507799999996
228,71.0258789999998,132.94873000000007,101.79492200000004,-208.58984399999963,132.05126999999993,130.12841800000024,98.3334960000002,115.76904300000024,113.7177729999994,117.82031300000017,117.82031300000017,118.3334960000002,118.84619099999964,92.94873000000007
229,71.53857400000015,132.3076170000004,101.79492200000004,-205.64111300000013,121.9228520000006,131.41015599999992,95.76904300000024,112.82031300000017,115.76904300000024,118.84619099999964,120.64111300000059,116.2822270000006,118.3334960000002,94.61523400000078
230,68.46142599999985,127.05126999999993,103.20507799999996,-203.84619099999964,111.6665039999998,131.41015599999992,93.46142599999985,108.20507799999996,115.12841800000024,117.56396500000028,120.64111300000059,117.30761700000039,114.10253900000043,95.38476599999922
231,62.43603499999972,120.0,103.46142599999985,-204.4870609999998,108.0771479999994,129.7436520000001,90.89746099999957,104.10253900000043,111.53857400000015,115.12841800000024,117.94873000000007,119.23095699999976,107.94873000000007,94.48730499999965
232,57.30761700000039,116.2822270000006,102.56396500000028,-206.79492200000004,113.9741210000002,127.94873000000007,89.48730499999965,103.3334960000002,107.82031300000017,113.3334960000002,114.48730499999965,120.38476599999922,103.84619099999964,93.3334960000002
233,56.79492200000004,119.87158199999976,102.43603499999972,-208.20507799999996,126.9228520000006,127.69238299999961,91.0258789999998,107.69238299999961,107.94873000000007,113.58984400000008,113.0771479999994,120.12841800000024,104.74365200000011,94.23095699999976
234,61.79492200000004,130.2563479999999,105.25634799999989,-206.41015600000037,141.15380900000036,129.61523400000078,96.0258789999998,116.15380900000036,112.94873000000007,115.38476599999922,114.61523400000078,119.23095699999976,110.76904300000024,97.43603499999972
235,68.3334960000002,141.41015599999992,109.48730499999965,-202.43579099999943,150.12841800000024,132.17968800000017,101.9228520000006,124.35888699999941,119.74365200000011,117.43603499999972,117.94873000000007,118.84619099999964,118.7177729999994,100.51269500000035
236,70.38476599999922,145.51269500000035,110.89746099999957,-200.64111300000013,149.23095699999976,133.0771479999994,103.9741210000002,126.41015599999992,123.20507799999996,117.43603499999972,119.61523400000078,118.9741210000002,122.82031300000017,100.0
237,64.48730499999965,138.58984400000008,105.76904300000024,-205.0,137.43603499999972,130.76904300000024,99.10253900000043,119.48730499999965,119.61523400000078,114.10253900000043,116.2822270000006,118.3334960000002,118.58984400000008,94.10253900000043
238,53.333496000000196,124.48730499999965,95.38476599999922,-214.8718259999996,120.0,125.76904300000024,89.74365200000011,106.6665039999998,110.0,108.3334960000002,108.46142599999985,116.15380900000036,107.94873000000007,84.87158199999976
239,44.61523400000078,112.17968800000017,85.76904300000024,-223.84619099999964,107.30761700000039,120.12841800000024,82.56396500000028,96.53857400000015,99.35888699999941,102.56396500000028,100.38476599999922,113.9741210000002,97.82031300000017,77.56396500000028
240,44.102539000000434,109.23095699999976,83.0771479999994,-225.1281740000004,106.79492200000004,116.6665039999998,82.17968800000017,95.25634799999989,93.7177729999994,99.74365200000011,96.79492200000004,113.58984400000008,95.38476599999922,76.2822270000006
241,50.64111300000059,115.38476599999922,88.7177729999994,-217.9487299999996,116.6665039999998,116.41015599999992,87.94873000000007,102.69238299999961,95.64111300000059,100.76904300000024,99.48730499999965,115.51269500000035,101.9228520000006,80.64111300000059
242,57.94873000000007,123.58984400000008,97.94873000000007,-208.20507799999996,126.9228520000006,118.46142599999985,94.10253900000043,112.69238299999961,102.82031300000017,104.35888699999941,105.64111300000059,118.3334960000002,111.15380900000036,86.2822270000006
243,59.74365200000011,126.79492200000004,103.9741210000002,-204.10253899999998,127.82031300000017,120.38476599999922,95.38476599999922,118.20507799999996,110.25634799999989,108.3334960000002,111.2822270000006,119.48730499999965,115.38476599999922,88.7177729999994
244,56.025878999999804,123.46142599999985,103.58984400000008,-208.20507799999996,118.84619099999964,120.76904300000024,91.9228520000006,116.53857400000015,113.84619099999964,111.15380900000036,113.9741210000002,118.58984400000008,111.6665039999998,87.05126999999993
245,51.79492200000004,118.58984400000008,99.10253900000043,-215.89746100000002,108.7177729999994,119.61523400000078,88.0771479999994,110.89746099999957,113.3334960000002,112.82031300000017,113.84619099999964,116.41015599999992,104.35888699999941,84.35888699999941
246,53.0771479999994,118.46142599999985,95.38476599999922,-219.8718259999996,107.69238299999961,118.0771479999994,88.58984400000008,107.43603499999972,111.9228520000006,114.74365200000011,113.0771479999994,115.25634799999989,101.2822270000006,84.48730499999965
247,60.76904300000024,125.0,96.53857400000015,-215.64111300000013,119.10253900000043,117.17968800000017,93.84619099999964,110.38476599999922,112.82031300000017,117.69238299999961,113.9741210000002,116.0258789999998,106.53857400000015,88.7177729999994
248,70.12841800000024,133.84619099999964,101.6665039999998,-206.53857400000015,135.6411130000006,117.05126999999993,99.87158199999976,118.3334960000002,116.2822270000006,120.89746099999957,116.79492200000004,118.3334960000002,116.41015599999992,93.9741210000002
249,74.48730499999965,138.46142599999985,106.0258789999998,-200.5129390000002,145.2563479999999,117.05126999999993,101.15380900000036,125.0,119.10253900000043,122.05126999999993,119.10253900000043,120.76904300000024,123.3334960000002,96.0258789999998
250,70.12841800000024,134.87158199999976,105.25634799999989,-203.97436500000003,141.0258789999998,116.2822270000006,96.15380900000036,124.23095699999976,117.82031300000017,119.61523400000078,118.0771479999994,121.53857400000015,121.6665039999998,92.82031300000017
251,59.87158199999976,124.61523400000078,100.0,-215.76928699999962,125.64111300000059,114.87158199999976,88.46142599999985,115.76904300000024,113.0771479999994,113.9741210000002,114.35888699999941,120.25634799999989,112.43603499999972,86.41015599999992
252,50.51269500000035,114.35888699999941,95.25634799999989,-227.9487299999996,109.87158199999976,113.84619099999964,83.84619099999964,106.2822270000006,108.20507799999996,108.46142599999985,111.41015599999992,118.20507799999996,102.69238299999961,81.15380900000036
253,48.333496000000196,110.64111300000059,95.76904300000024,-232.43579099999943,104.48730499999965,114.35888699999941,86.15380900000036,104.23095699999976,107.17968800000017,106.15380900000036,113.20507799999996,117.17968800000017,99.87158199999976,81.0258789999998
254,54.23095699999976,115.38476599999922,102.05126999999993,-226.02563499999997,113.0771479999994,116.15380900000036,93.84619099999964,112.05126999999993,110.89746099999957,108.46142599999985,119.74365200000011,118.3334960000002,105.64111300000059,86.41015599999992
255,63.333496000000196,124.74365200000011,109.35888699999941,-213.076904,130.0,117.56396500000028,102.05126999999993,124.48730499999965,116.79492200000004,113.84619099999964,127.17968800000017,120.51269500000035,116.0258789999998,94.10253900000043
256,69.35888699999941,132.94873000000007,112.69238299999961,-201.66674799999964,143.58984400000008,117.17968800000017,105.89746099999957,132.94873000000007,121.6665039999998,118.9741210000002,130.76904300000024,122.05126999999993,123.7177729999994,99.48730499999965
257,68.9741210000002,135.2563479999999,110.76904300000024,-197.56420900000057,143.84619099999964,114.74365200000011,104.48730499999965,132.6923829999996,123.20507799999996,121.53857400000015,127.94873000000007,121.79492200000004,124.23095699999976,99.87158199999976
258,63.333496000000196,130.76904300000024,105.38476599999922,-201.28198199999997,130.51269500000035,111.9228520000006,99.74365200000011,125.12841800000024,121.53857400000015,121.2822270000006,120.38476599999922,120.0,117.82031300000017,95.76904300000024
259,56.53857400000015,122.17968800000017,100.38476599999922,-209.23071300000038,112.05126999999993,110.89746099999957,94.61523400000078,116.0258789999998,117.82031300000017,119.61523400000078,112.69238299999961,118.20507799999996,108.9741210000002,90.51269500000035
260,52.17968800000017,114.10253900000043,97.69238299999961,-216.53857400000015,99.87158199999976,112.43603499999972,90.38476599999922,109.87158199999976,113.7177729999994,117.82031300000017,108.84619099999964,117.43603499999972,102.17968800000017,86.9228520000006
261,50.0,109.87158199999976,96.41015599999992,-220.2563479999999,99.74365200000011,114.87158199999976,87.43603499999972,107.94873000000007,109.61523400000078,114.35888699999941,109.48730499999965,117.56396500000028,99.48730499999965,85.25634799999989
262,47.43603499999972,109.61523400000078,94.23095699999976,-220.64111300000013,109.23095699999976,115.51269500000035,86.0258789999998,108.3334960000002,105.38476599999922,107.82031300000017,110.89746099999957,117.69238299999961,99.48730499999965,83.3334960000002
263,42.69238299999961,110.64111300000059,89.61523400000078,-219.61547900000005,120.51269500000035,112.69238299999961,85.64111300000059,108.0771479999994,101.9228520000006,99.10253900000043,108.9741210000002,117.17968800000017,99.35888699999941,79.23095699999976
264,37.69238299999961,110.38476599999922,84.10253900000043,-219.10253899999998,126.0258789999998,107.82031300000017,85.89746099999957,105.76904300000024,100.25634799999989,92.56396500000028,102.82031300000017,116.0258789999998,97.43603499999972,72.94873000000007
265,36.025878999999804,109.23095699999976,81.9228520000006,-219.23071300000038,124.10253900000043,103.7177729999994,86.41015599999992,102.69238299999961,101.15380900000036,92.94873000000007,95.76904300000024,115.0,95.12841800000024,67.94873000000007
266,39.61523400000078,109.48730499999965,85.38476599999922,-218.97436500000003,118.0771479999994,102.43603499999972,87.05126999999993,101.53857400000015,103.7177729999994,100.76904300000024,92.05126999999993,115.25634799999989,94.87158199999976,67.69238299999961
267,46.2822270000006,111.2822270000006,92.56396500000028,-216.923096,112.94873000000007,103.9741210000002,87.43603499999972,102.69238299999961,104.35888699999941,109.87158199999976,93.0771479999994,116.6665039999998,97.05126999999993,71.9228520000006
268,51.153809000000365,112.69238299999961,98.20507799999996,-213.076904,111.2822270000006,106.0258789999998,87.05126999999993,103.9741210000002,99.74365200000011,112.05126999999993,96.2822270000006,118.46142599999985,99.10253900000043,77.05126999999993
269,50.64111300000059,112.30761700000039,98.3334960000002,-208.33325200000036,112.17968800000017,106.53857400000015,86.2822270000006,103.3334960000002,91.15380900000036,104.61523400000078,98.3334960000002,119.48730499999965,98.7177729999994,78.58984400000008
270,45.51269500000035,110.51269500000035,94.10253900000043,-204.35888699999987,112.56396500000028,105.38476599999922,86.15380900000036,101.79492200000004,83.9741210000002,92.43603499999972,98.20507799999996,118.9741210000002,96.0258789999998,75.51269500000035
271,39.35888699999941,108.84619099999964,90.0,-202.820557,109.35888699999941,103.58984400000008,86.53857400000015,101.0258789999998,82.56396500000028,83.7177729999994,97.17968800000017,117.69238299999961,92.69238299999961,70.89746099999957
272,35.38476599999922,107.17968800000017,88.84619099999964,-204.7436520000001,102.43603499999972,101.9228520000006,86.15380900000036,100.51269500000035,86.15380900000036,82.56396500000028,95.89746099999957,115.89746099999957,89.48730499999965,67.30761700000039
273,34.35888699999941,104.74365200000011,90.38476599999922,-208.71801800000003,95.89746099999957,100.38476599999922,83.84619099999964,98.3334960000002,90.64111300000059,86.9228520000006,94.35888699999941,114.48730499999965,87.30761700000039,65.64111300000059
274,35.76904300000024,102.56396500000028,92.94873000000007,-210.64111300000013,95.0,98.7177729999994,81.41015599999992,94.61523400000078,93.0771479999994,92.69238299999961,93.3334960000002,114.10253900000043,87.94873000000007,66.15380900000036
275,39.35888699999941,103.7177729999994,96.41015599999992,-206.41015600000037,101.9228520000006,98.20507799999996,81.6665039999998,93.46142599999985,95.12841800000024,97.94873000000007,94.74365200000011,115.25634799999989,93.0771479999994,69.35888699999941
276,45.38476599999922,110.76904300000024,101.2822270000006,-195.5129390000002,113.7177729999994,100.0,86.53857400000015,99.23095699999976,99.61523400000078,103.84619099999964,99.23095699999976,118.0771479999994,102.56396500000028,75.51269500000035
277,52.17968800000017,121.79492200000004,106.53857400000015,-182.3076170000004,124.35888699999941,103.58984400000008,94.23095699999976,110.89746099999957,107.30761700000039,111.53857400000015,105.25634799999989,121.53857400000015,112.69238299999961,83.0771479999994
278,56.410155999999915,131.41015599999992,109.23095699999976,-173.58984399999963,128.7177729999994,107.05126999999993,100.51269500000035,121.6665039999998,115.0,119.35888699999941,109.48730499999965,123.84619099999964,118.3334960000002,88.20507799999996
279,55.0,133.7177729999994,107.30761700000039,-174.10253899999998,125.25634799999989,108.9741210000002,101.15380900000036,124.23095699999976,117.69238299999961,123.46142599999985,109.35888699999941,123.9741210000002,116.41015599999992,87.56396500000028
280,48.46142599999985,127.56396500000028,100.89746099999957,-183.076904,116.6665039999998,108.7177729999994,95.64111300000059,116.53857400000015,113.0771479999994,120.64111300000059,104.87158199999976,121.9228520000006,107.82031300000017,80.89746099999957
281,40.64111300000059,116.15380900000036,93.20507799999996,-194.23071300000038,108.84619099999964,107.30761700000039,86.79492200000004,103.84619099999964,103.7177729999994,111.6665039999998,98.58984400000008,118.7177729999994,97.43603499999972,72.17968800000017
282,36.2822270000006,106.15380900000036,88.0771479999994,-199.4870609999998,107.56396500000028,106.6665039999998,79.74365200000011,95.0,96.0258789999998,102.94873000000007,93.84619099999964,116.2822270000006,91.15380900000036,66.15380900000036
283,38.7177729999994,103.46142599999985,88.9741210000002,-194.61547900000005,114.87158199999976,108.3334960000002,79.10253900000043,96.2822270000006,95.38476599999922,101.2822270000006,93.46142599999985,116.0258789999998,91.9228520000006,66.53857400000015
284,46.79492200000004,109.87158199999976,95.89746099999957,-181.79492200000004,126.15380900000036,112.69238299999961,85.0,106.6665039999998,101.53857400000015,108.20507799999996,97.69238299999961,118.20507799999996,98.20507799999996,71.9228520000006
285,55.12841800000024,120.38476599999922,103.9741210000002,-168.84619099999964,133.0771479999994,117.43603499999972,93.7177729999994,118.84619099999964,109.23095699999976,117.30761700000039,103.46142599999985,121.15380900000036,104.35888699999941,77.43603499999972
286,57.82031300000017,126.6665039999998,107.43603499999972,-163.71801800000003,129.7436520000001,119.61523400000078,100.12841800000024,124.23095699999976,112.30761700000039,120.0,105.76904300000024,122.30761700000039,105.51269500000035,78.46142599999985
287,53.846190999999635,123.9741210000002,104.23095699999976,-168.33325200000036,118.46142599999985,117.69238299999961,101.79492200000004,120.89746099999957,109.48730499999965,112.94873000000007,102.94873000000007,121.41015599999992,101.53857400000015,75.0
288,48.333496000000196,115.38476599999922,98.58984400000008,-177.0512700000004,107.82031300000017,113.20507799999996,100.12841800000024,113.84619099999964,104.61523400000078,101.9228520000006,98.3334960000002,120.12841800000024,97.43603499999972,71.53857400000015
289,47.94873000000007,109.61523400000078,97.05126999999993,-180.76928699999962,106.2822270000006,109.35888699999941,98.46142599999985,111.0258789999998,103.58984400000008,97.17968800000017,97.05126999999993,120.64111300000059,98.9741210000002,73.20507799999996
290,55.12841800000024,112.69238299999961,102.17968800000017,-175.0,115.38476599999922,108.46142599999985,98.84619099999964,115.51269500000035,108.58984400000008,105.12841800000024,101.2822270000006,123.3334960000002,107.17968800000017,80.51269500000035
291,65.25634799999989,123.20507799999996,110.38476599999922,-162.820557,128.7177729999994,110.12841800000024,100.76904300000024,123.7177729999994,116.9228520000006,122.43603499999972,107.94873000000007,126.6665039999998,117.43603499999972,88.9741210000002
292,71.79492200000004,134.48730499999965,116.41015599999992,-152.56420900000057,138.58984400000008,112.17968800000017,102.43603499999972,129.10253900000043,123.46142599999985,138.20507799999996,112.69238299999961,128.20507799999996,123.9741210000002,93.58984400000008
293,71.6665039999998,140.12841800000024,117.30761700000039,-149.8718259999996,141.0258789999998,112.69238299999961,102.56396500000028,128.46142599999985,125.0,142.6923829999996,113.20507799999996,126.9228520000006,124.35888699999941,93.20507799999996
294,66.41015599999992,137.3076170000004,113.46142599999985,-155.5129390000002,136.53857400000015,111.15380900000036,101.0258789999998,123.46142599999985,121.9228520000006,133.3334960000002,110.25634799999989,123.58984400000008,119.87158199999976,90.12841800000024
295,59.23095699999976,126.6665039999998,106.9228520000006,-166.02563499999997,128.0771479999994,107.94873000000007,97.82031300000017,117.82031300000017,115.64111300000059,116.0258789999998,105.76904300000024,120.12841800000024,113.0771479999994,85.64111300000059
296,52.82031300000017,112.17968800000017,99.48730499999965,-176.15380900000036,118.9741210000002,104.10253900000043,93.20507799999996,113.9741210000002,107.82031300000017,100.64111300000059,101.15380900000036,118.0771479999994,105.51269500000035,79.48730499999965
297,48.589844000000085,100.38476599999922,92.82031300000017,-181.15380900000036,112.69238299999961,101.2822270000006,89.10253900000043,112.30761700000039,101.15380900000036,95.38476599999922,97.43603499999972,118.3334960000002,98.9741210000002,72.30761700000039
298,47.17968800000017,97.56396500000028,89.61523400000078,-177.6923829999996,112.17968800000017,101.0258789999998,88.58984400000008,112.69238299999961,99.74365200000011,102.43603499999972,96.0258789999998,119.61523400000078,96.15380900000036,67.17968800000017
299,48.846190999999635,105.25634799999989,91.79492200000004,-166.923096,117.56396500000028,103.0771479999994,92.82031300000017,115.0,105.25634799999989,115.89746099999957,97.56396500000028,120.51269500000035,98.3334960000002,67.94873000000007
300,52.17968800000017,117.56396500000028,97.43603499999972,-154.23071300000038,124.48730499999965,104.61523400000078,99.35888699999941,117.94873000000007,114.87158199999976,125.51269500000035,100.76904300000024,120.0,103.58984400000008,74.23095699999976
301,54.74365200000011,125.0,102.30761700000039,-146.79492200000004,126.2822270000006,103.46142599999985,103.58984400000008,118.9741210000002,122.17968800000017,123.9741210000002,102.43603499999972,118.9741210000002,106.9228520000006,80.89746099999957
302,54.35888699999941,122.17968800000017,102.82031300000017,-147.820557,119.74365200000011,100.51269500000035,101.79492200000004,117.17968800000017,121.53857400000015,112.94873000000007,101.15380900000036,118.58984400000008,105.64111300000059,82.43603499999972
303,51.666503999999804,112.17968800000017,100.0,-153.84619099999964,109.48730499999965,99.61523400000078,95.64111300000059,113.9741210000002,113.3334960000002,101.6665039999998,98.20507799999996,120.0,101.0258789999998,77.82031300000017
304,49.35888699999941,103.84619099999964,97.82031300000017,-157.3076170000004,104.10253900000043,103.58984400000008,90.0,112.43603499999972,103.7177729999994,99.35888699999941,96.9228520000006,122.43603499999972,98.20507799999996,72.05126999999993
305,50.12841800000024,104.10253900000043,99.74365200000011,-153.46142599999985,108.9741210000002,111.15380900000036,89.35888699999941,114.48730499999965,100.0,107.82031300000017,99.48730499999965,124.23095699999976,101.0258789999998,71.0258789999998
306,53.46142599999985,112.17968800000017,105.0,-144.35888699999987,120.76904300000024,117.56396500000028,94.10253900000043,119.10253900000043,104.87158199999976,119.74365200000011,104.61523400000078,124.35888699999941,108.84619099999964,76.41015599999992
307,56.153809000000365,120.51269500000035,110.0,-136.923096,129.23095699999976,118.0771479999994,99.87158199999976,123.20507799999996,114.10253900000043,125.64111300000059,108.58984400000008,122.82031300000017,115.89746099999957,83.84619099999964
308,55.76904300000024,121.2822270000006,110.64111300000059,-136.41015600000037,125.64111300000059,112.05126999999993,102.05126999999993,124.10253900000043,120.51269500000035,121.41015599999992,108.9741210000002,120.64111300000059,116.79492200000004,86.79492200000004
309,52.30761700000039,113.20507799999996,106.2822270000006,-141.41015600000037,111.41015599999992,103.9741210000002,98.84619099999964,121.0258789999998,119.48730499999965,111.41015599999992,106.15380900000036,118.9741210000002,110.89746099999957,82.56396500000028
310,48.974121000000196,102.30761700000039,99.74365200000011,-145.1281740000004,97.94873000000007,99.48730499999965,93.0771479999994,116.15380900000036,112.56396500000028,104.23095699999976,102.56396500000028,118.7177729999994,103.0771479999994,74.48730499999965
311,48.0771479999994,96.2822270000006,95.76904300000024,-142.3076170000004,96.41015599999992,101.0258789999998,88.46142599999985,112.69238299999961,104.87158199999976,104.23095699999976,100.64111300000059,119.61523400000078,98.9741210000002,68.46142599999985
312,49.87158199999976,98.20507799999996,96.53857400000015,-133.97436500000003,107.69238299999961,106.6665039999998,86.79492200000004,111.2822270000006,100.25634799999989,108.3334960000002,100.38476599999922,121.0258789999998,100.64111300000059,67.43603499999972
313,51.79492200000004,104.23095699999976,100.12841800000024,-126.53857400000015,121.2822270000006,111.6665039999998,86.41015599999992,109.74365200000011,99.23095699999976,108.9741210000002,100.0,121.15380900000036,104.48730499999965,69.74365200000011
314,51.53857400000015,108.20507799999996,102.69238299999961,-125.76928699999962,125.76904300000024,112.56396500000028,85.64111300000059,106.0258789999998,99.74365200000011,103.20507799999996,98.0771479999994,119.74365200000011,106.0258789999998,71.79492200000004
315,49.74365200000011,107.82031300000017,102.05126999999993,-131.79492200000004,118.3334960000002,109.10253900000043,84.61523400000078,101.15380900000036,100.38476599999922,95.38476599999922,95.64111300000059,117.56396500000028,104.23095699999976,71.9228520000006
316,48.974121000000196,105.51269500000035,99.74365200000011,-138.84619099999964,107.17968800000017,105.0,84.87158199999976,98.46142599999985,101.15380900000036,93.7177729999994,95.25634799999989,116.53857400000015,101.41015599999992,71.79492200000004
317,50.0,105.64111300000059,98.46142599999985,-140.76928699999962,103.3334960000002,105.0,87.56396500000028,100.51269500000035,102.43603499999972,101.79492200000004,98.3334960000002,117.30761700000039,100.25634799999989,73.46142599999985
318,51.53857400000015,109.74365200000011,98.84619099999964,-135.89746100000002,111.0258789999998,110.51269500000035,91.6665039999998,106.2822270000006,104.35888699999941,115.0,103.20507799999996,118.9741210000002,101.79492200000004,76.9228520000006
319,50.76904300000024,115.0,99.61523400000078,-128.46142599999985,124.10253900000043,117.94873000000007,95.12841800000024,111.53857400000015,105.38476599999922,123.46142599999985,106.0258789999998,119.87158199999976,104.23095699999976,79.74365200000011
320,46.9228520000006,117.94873000000007,99.35888699999941,-124.48706099999981,131.53857400000015,121.2822270000006,96.2822270000006,112.30761700000039,104.23095699999976,120.76904300000024,104.61523400000078,119.35888699999941,105.64111300000059,79.23095699999976
321,42.05126999999993,117.56396500000028,98.3334960000002,-126.15380900000036,127.43603499999972,117.82031300000017,95.51269500000035,108.20507799999996,101.15380900000036,108.84619099999964,100.0,118.20507799999996,105.38476599999922,75.76904300000024
322,39.23095699999976,115.76904300000024,97.94873000000007,-130.38452099999995,115.51269500000035,110.38476599999922,94.23095699999976,102.30761700000039,98.0771479999994,96.41015599999992,96.15380900000036,116.9228520000006,104.87158199999976,72.05126999999993
323,40.25634799999989,114.61523400000078,98.46142599999985,-132.56420900000057,105.0,104.48730499999965,93.58984400000008,98.58984400000008,97.17968800000017,91.9228520000006,95.64111300000059,116.53857400000015,104.87158199999976,70.38476599999922
324,43.7177729999994,114.35888699999941,98.58984400000008,-130.64111300000013,102.05126999999993,103.58984400000008,93.46142599999985,98.58984400000008,98.46142599999985,96.6665039999998,98.0771479999994,117.05126999999993,105.0,70.64111300000059
325,46.153809000000365,113.3334960000002,97.43603499999972,-126.02563499999997,105.38476599999922,107.30761700000039,92.43603499999972,101.53857400000015,100.51269500000035,104.35888699999941,100.12841800000024,118.7177729999994,103.9741210000002,70.89746099999957
326,44.35888699999941,110.76904300000024,95.64111300000059,-122.30761700000039,108.84619099999964,112.30761700000039,89.74365200000011,104.23095699999976,101.6665039999998,107.17968800000017,99.48730499999965,120.64111300000059,101.41015599999992,69.74365200000011
327,38.589844000000085,107.05126999999993,94.23095699999976,-121.66674799999964,107.43603499999972,114.87158199999976,85.76904300000024,104.10253900000043,100.76904300000024,102.05126999999993,96.53857400000015,120.89746099999957,97.56396500000028,67.17968800000017
328,32.43603499999972,104.10253900000043,93.7177729999994,-123.84619099999964,101.2822270000006,113.84619099999964,82.17968800000017,100.38476599999922,98.20507799999996,92.05126999999993,92.94873000000007,118.46142599999985,94.10253900000043,64.61523400000078
329,29.871581999999762,103.9741210000002,93.7177729999994,-126.92309599999999,95.0,110.89746099999957,80.76904300000024,96.0258789999998,94.87158199999976,83.7177729999994,90.64111300000059,114.74365200000011,92.56396500000028,63.20507799999996
330,33.333496000000196,107.56396500000028,94.87158199999976,-127.94872999999961,95.12841800000024,109.23095699999976,83.46142599999985,95.12841800000024,93.84619099999964,83.20507799999996,91.0258789999998,112.82031300000017,94.48730499999965,64.23095699999976
331,42.05126999999993,113.9741210000002,98.20507799999996,-124.35888699999987,104.61523400000078,110.51269500000035,90.51269500000035,101.41015599999992,98.3334960000002,92.69238299999961,95.0,115.12841800000024,100.38476599999922,68.7177729999994
332,52.82031300000017,121.53857400000015,103.84619099999964,-114.8718259999996,120.76904300000024,114.10253900000043,100.38476599999922,114.35888699999941,109.74365200000011,110.0,102.82031300000017,121.53857400000015,109.48730499999965,76.53857400000015
333,61.153809000000365,127.56396500000028,110.12841800000024,-101.66674799999964,135.89746099999957,117.17968800000017,109.23095699999976,129.10253900000043,124.61523400000078,128.20507799999996,112.43603499999972,128.46142599999985,119.48730499999965,85.12841800000024
334,63.0771479999994,130.38476599999922,114.23095699999976,-90.51293900000019,142.3076170000004,117.69238299999961,113.20507799999996,138.7177729999994,136.41015599999992,139.7436520000001,119.74365200000011,131.6665039999998,127.17968800000017,90.64111300000059
335,57.56396500000028,128.84619099999964,113.58984400000008,-87.43579099999943,136.79492200000004,115.25634799999989,109.87158199999976,138.20507799999996,139.10253900000043,140.76904300000024,121.0258789999998,128.84619099999964,128.9741210000002,89.35888699999941
336,47.82031300000017,123.20507799999996,108.3334960000002,-93.84619099999964,122.43603499999972,111.9228520000006,100.89746099999957,128.0771479999994,131.41015599999992,132.94873000000007,115.64111300000059,121.53857400000015,123.46142599999985,81.15380900000036
337,39.23095699999976,115.51269500000035,101.2822270000006,-104.74365200000011,107.56396500000028,109.87158199999976,91.0258789999998,114.74365200000011,118.20507799999996,122.56396500000028,106.53857400000015,114.48730499999965,112.94873000000007,70.64111300000059
338,36.2822270000006,108.46142599999985,96.15380900000036,-112.56420900000057,99.74365200000011,109.74365200000011,86.15380900000036,106.53857400000015,107.17968800000017,114.74365200000011,98.20507799999996,111.79492200000004,103.3334960000002,63.7177729999994
339,38.46142599999985,103.9741210000002,94.35888699999941,-113.07690400000001,100.89746099999957,110.25634799999989,88.20507799999996,106.79492200000004,103.20507799999996,110.89746099999957,94.35888699999941,114.10253900000043,99.74365200000011,63.20507799999996
340,41.53857400000015,102.17968800000017,94.35888699999941,-108.20507799999996,105.38476599999922,110.12841800000024,93.9741210000002,112.82031300000017,105.51269500000035,108.46142599999985,95.12841800000024,117.82031300000017,102.69238299999961,66.53857400000015
341,41.666503999999804,102.05126999999993,94.23095699999976,-102.69238299999961,106.15380900000036,109.61523400000078,98.46142599999985,118.0771479999994,109.74365200000011,105.0,98.46142599999985,119.10253900000043,108.20507799999996,69.10253900000043
342,40.0,104.10253900000043,94.61523400000078,-98.97436500000003,100.64111300000059,110.76904300000024,99.10253900000043,119.23095699999976,112.82031300000017,102.56396500000028,102.82031300000017,117.82031300000017,112.69238299999961,68.9741210000002
343,41.410155999999915,109.23095699999976,97.94873000000007,-95.51293900000019,93.84619099999964,113.84619099999964,97.69238299999961,118.20507799999996,115.64111300000059,105.51269500000035,107.69238299999961,117.17968800000017,115.12841800000024,69.23095699999976
344,49.102539000000434,117.69238299999961,105.76904300000024,-90.25634799999989,93.7177729999994,117.43603499999972,97.82031300000017,119.87158199999976,120.64111300000059,115.89746099999957,113.3334960000002,120.38476599999922,117.56396500000028,73.58984400000008
345,60.38476599999922,127.17968800000017,114.87158199999976,-83.71801800000003,103.0771479999994,119.35888699999941,100.64111300000059,126.41015599999992,128.0771479999994,129.7436520000001,118.46142599999985,126.2822270000006,120.51269500000035,81.9228520000006
346,68.0771479999994,132.82031300000017,119.10253900000043,-79.8718259999996,116.41015599999992,118.84619099999964,103.7177729999994,133.7177729999994,134.23095699999976,139.23095699999976,120.38476599999922,130.89746099999957,122.17968800000017,88.84619099999964
347,66.53857400000015,130.51269500000035,113.84619099999964,-82.17944299999999,124.48730499999965,116.79492200000004,103.84619099999964,136.2822270000006,134.3588869999994,138.20507799999996,116.79492200000004,130.12841800000024,119.87158199999976,88.20507799999996
348,57.69238299999961,122.05126999999993,102.30761700000039,-89.61547900000005,123.20507799999996,114.87158199999976,101.0258789999998,131.6665039999998,127.30761700000039,127.69238299999961,109.35888699999941,123.9741210000002,113.58984400000008,79.35888699999941
349,48.846190999999635,114.10253900000043,92.69238299999961,-96.53857400000015,116.41015599999992,114.48730499999965,98.0771479999994,123.58984400000008,117.94873000000007,115.64111300000059,102.94873000000007,116.53857400000015,106.53857400000015,68.46142599999985
350,47.05126999999993,112.82031300000017,91.79492200000004,-97.94872999999961,111.41015599999992,115.76904300000024,97.69238299999961,117.56396500000028,113.0771479999994,110.64111300000059,101.41015599999992,112.30761700000039,102.82031300000017,63.46142599999985
351,52.05126999999993,117.30761700000039,98.20507799999996,-93.46142599999985,111.9228520000006,116.9228520000006,99.35888699999941,116.2822270000006,115.0,114.48730499999965,104.10253900000043,112.43603499999972,103.20507799999996,66.6665039999998
352,57.30761700000039,121.2822270000006,103.58984400000008,-87.94872999999961,114.35888699999941,116.15380900000036,99.87158199999976,117.43603499999972,119.48730499999965,121.53857400000015,105.64111300000059,114.48730499999965,105.64111300000059,72.56396500000028
353,55.64111300000059,119.23095699999976,101.6665039999998,-86.41015600000037,113.20507799999996,113.7177729999994,96.9228520000006,117.05126999999993,120.12841800000024,124.23095699999976,101.9228520000006,115.64111300000059,106.41015599999992,73.20507799999996
354,47.17968800000017,112.05126999999993,93.3334960000002,-89.48706099999981,107.30761700000039,111.79492200000004,91.9228520000006,113.84619099999964,114.87158199999976,119.87158199999976,94.35888699999941,114.87158199999976,103.58984400000008,66.2822270000006
355,38.20507799999996,105.25634799999989,85.25634799999989,-93.46142599999985,101.6665039999998,112.43603499999972,88.84619099999964,110.51269500000035,108.0771479999994,111.41015599999992,88.3334960000002,113.46142599999985,98.84619099999964,56.9228520000006
356,35.51269500000035,103.46142599999985,83.58984400000008,-93.97436500000003,102.17968800000017,115.25634799999989,90.12841800000024,110.76904300000024,105.0,104.10253900000043,87.69238299999961,113.3334960000002,95.51269500000035,52.05126999999993
357,40.12841800000024,106.2822270000006,89.10253900000043,-90.38452099999995,109.61523400000078,118.3334960000002,95.0,114.61523400000078,107.82031300000017,101.2822270000006,91.79492200000004,114.35888699999941,95.89746099999957,55.25634799999989
358,47.82031300000017,109.23095699999976,97.17968800000017,-85.38452099999995,117.94873000000007,120.12841800000024,99.87158199999976,118.9741210000002,113.0771479999994,102.43603499999972,96.2822270000006,115.51269500000035,99.48730499999965,62.82031300000017
359,53.7177729999994,108.3334960000002,101.9228520000006,-81.53857400000015,120.12841800000024,120.25634799999989,101.41015599999992,119.48730499999965,116.41015599999992,106.0258789999998,98.0771479999994,116.0258789999998,103.20507799999996,68.7177729999994
360,56.025878999999804,103.9741210000002,100.76904300000024,-79.10253899999998,113.7177729999994,119.10253900000043,98.7177729999994,115.38476599999922,115.25634799999989,110.38476599999922,97.17968800000017,116.41015599999992,104.61523400000078,68.58984400000008
361,55.897460999999566,100.12841800000024,95.12841800000024,-76.79492200000004,103.7177729999994,117.56396500000028,93.7177729999994,108.84619099999964,110.25634799999989,113.58984400000008,94.61523400000078,117.05126999999993,103.46142599999985,63.20507799999996
362,54.23095699999976,100.64111300000059,89.35888699999941,-74.10253899999998,97.17968800000017,116.2822270000006,88.7177729999994,103.58984400000008,103.58984400000008,113.58984400000008,90.76904300000024,116.79492200000004,100.38476599999922,56.53857400000015
363,51.2822270000006,104.61523400000078,85.76904300000024,-72.82055700000001,97.30761700000039,115.89746099999957,85.51269500000035,101.0258789999998,96.9228520000006,108.58984400000008,85.12841800000024,113.84619099999964,95.89746099999957,52.05126999999993
364,47.69238299999961,108.0771479999994,84.87158199999976,-74.74365200000011,101.2822270000006,116.0258789999998,84.87158199999976,100.51269500000035,91.53857400000015,99.87158199999976,78.46142599999985,108.58984400000008,90.25634799999989,50.76904300000024
365,44.87158199999976,107.43603499999972,85.38476599999922,-78.97436500000003,103.58984400000008,116.15380900000036,86.41015599999992,100.0,88.46142599999985,91.41015599999992,73.0771479999994,103.84619099999964,84.74365200000011,51.153809000000365
366,43.7177729999994,102.69238299999961,86.2822270000006,-82.05127000000039,101.2822270000006,116.2822270000006,89.48730499999965,98.7177729999994,88.3334960000002,86.6665039999998,72.56396500000028,102.56396500000028,81.15380900000036,51.2822270000006
367,44.35888699999941,97.17968800000017,87.05126999999993,-80.0,97.05126999999993,116.41015599999992,93.46142599999985,97.94873000000007,91.15380900000036,87.30761700000039,78.46142599999985,105.38476599999922,81.2822270000006,50.64111300000059
368,46.410155999999915,95.51269500000035,88.0771479999994,-72.30761700000039,97.43603499999972,116.9228520000006,97.56396500000028,99.61523400000078,96.0258789999998,93.0771479999994,88.9741210000002,109.48730499999965,85.89746099999957,51.153809000000365
369,49.35888699999941,99.48730499999965,89.23095699999976,-61.79492200000004,105.12841800000024,117.43603499999972,100.51269500000035,103.46142599999985,101.0258789999998,101.53857400000015,99.10253900000043,112.05126999999993,93.46142599999985,54.102539000000434
370,51.025878999999804,105.64111300000059,89.23095699999976,-53.71801800000003,116.15380900000036,117.69238299999961,100.64111300000059,106.79492200000004,103.20507799999996,108.3334960000002,102.56396500000028,111.41015599999992,99.35888699999941,57.94873000000007
371,49.74365200000011,108.3334960000002,87.30761700000039,-51.66674799999964,122.69238299999961,117.43603499999972,98.0771479999994,106.2822270000006,101.2822270000006,108.58984400000008,97.17968800000017,109.10253900000043,98.84619099999964,58.7177729999994
372,46.410155999999915,105.0,85.0,-53.974365000000034,120.0,116.79492200000004,94.74365200000011,101.79492200000004,96.79492200000004,101.0258789999998,86.53857400000015,107.82031300000017,91.0258789999998,54.87158199999976
373,44.74365200000011,99.23095699999976,86.2822270000006,-55.25634799999989,111.0258789999998,116.6665039999998,93.58984400000008,96.79492200000004,93.46142599999985,90.25634799999989,78.84619099999964,109.61523400000078,80.64111300000059,49.74365200000011
374,48.0771479999994,97.17968800000017,93.58984400000008,-50.64111300000013,103.84619099999964,117.17968800000017,95.64111300000059,96.0258789999998,93.9741210000002,83.20507799999996,80.51269500000035,113.7177729999994,75.89746099999957,49.48730499999965
375,55.76904300000024,101.53857400000015,105.0,-39.10253899999998,105.0,118.0771479999994,99.87158199999976,101.41015599999992,97.82031300000017,84.35888699999941,91.53857400000015,117.56396500000028,82.17968800000017,57.17968800000017
376,63.46142599999985,110.0,114.87158199999976,-25.25634799999989,114.23095699999976,118.7177729999994,103.58984400000008,110.76904300000024,102.30761700000039,93.58984400000008,105.76904300000024,118.7177729999994,98.58984400000008,69.87158199999976
377,66.9228520000006,117.17968800000017,118.0771479999994,-16.153809000000365,124.35888699999941,118.46142599999985,105.12841800000024,118.84619099999964,105.12841800000024,106.9228520000006,116.2822270000006,116.79492200000004,117.82031300000017,81.15380900000036
378,64.87158199999976,117.69238299999961,113.46142599999985,-16.538574000000153,126.6665039999998,117.30761700000039,104.35888699999941,121.79492200000004,105.89746099999957,118.58984400000008,119.23095699999976,113.84619099999964,131.53857400000015,85.25634799999989
379,58.974121000000196,110.12841800000024,104.23095699999976,-26.28198199999997,117.17968800000017,115.51269500000035,101.9228520000006,118.7177729999994,105.76904300000024,123.7177729999994,116.0258789999998,112.05126999999993,135.0,81.2822270000006
380,52.69238299999961,97.05126999999993,95.12841800000024,-39.35888699999987,100.64111300000059,113.84619099999964,98.9741210000002,111.79492200000004,104.48730499999965,121.0258789999998,111.0258789999998,112.43603499999972,129.23095699999976,73.20507799999996
381,48.846190999999635,84.61523400000078,90.38476599999922,-47.17944299999999,87.82031300000017,113.46142599999985,96.6665039999998,104.87158199999976,102.30761700000039,113.46142599999985,108.0771479999994,113.84619099999964,120.25634799999989,66.6665039999998
382,49.102539000000434,79.10253900000043,91.15380900000036,-44.10253899999998,88.46142599999985,114.74365200000011,96.15380900000036,101.0258789999998,99.87158199999976,106.6665039999998,108.58984400000008,114.74365200000011,114.48730499999965,65.25634799999989
383,52.82031300000017,82.94873000000007,95.76904300000024,-31.025634999999966,102.94873000000007,116.53857400000015,97.17968800000017,101.0258789999998,98.9741210000002,104.61523400000078,111.6665039999998,115.25634799999989,114.61523400000078,68.58984400000008
