,EEG.AF3,EEG.F7,EEG.F3,EEG.FC5,EEG.T7,EEG.P7,EEG.O1,EEG.O2,EEG.P8,EEG.T8,EEG.FC6,EEG.F4,EEG.F8,EEG.AF4
0,113.9741210000002,133.7177729999994,107.05126999999993,21.794922000000042,103.46142599999985,101.2822270000006,103.9741210000002,112.43603499999972,125.12841800000024,113.84619099999964,112.43603499999972,108.3334960000002,158.58984400000008,114.74365200000011
1,86.6665039999998,120.38476599999922,94.23095699999976,1.2822270000006029,88.58984400000008,95.64111300000059,97.82031300000017,105.38476599999922,117.30761700000039,106.2822270000006,91.6665039999998,100.76904300000024,156.2822270000006,52.17968800000017
2,83.9741210000002,118.3334960000002,93.9741210000002,-4.871825999999601,78.7177729999994,97.43603499999972,101.6665039999998,104.48730499999965,111.79492200000004,110.12841800000024,80.25634799999989,97.69238299999961,164.3588869999994,21.410155999999915
3,96.9228520000006,124.87158199999976,102.43603499999972,-3.077147999999397,76.0258789999998,104.48730499999965,111.53857400000015,108.20507799999996,108.3334960000002,119.23095699999976,77.56396500000028,99.35888699999941,181.6665039999998,25.384765999999217
4,103.7177729999994,132.3076170000004,110.0,-5.256347999999889,77.56396500000028,111.79492200000004,119.10253900000043,112.17968800000017,105.64111300000059,126.2822270000006,78.0771479999994,102.56396500000028,201.53857400000015,43.333496000000196
5,89.87158199999976,134.7436520000001,108.58984400000008,-19.10253899999998,79.61523400000078,114.48730499999965,118.3334960000002,112.56396500000028,103.20507799999996,127.05126999999993,74.23095699999976,103.46142599999985,217.17968800000017,51.410155999999915
6,61.666503999999804,133.9741210000002,99.48730499999965,-41.025634999999966,81.9228520000006,112.43603499999972,108.7177729999994,109.23095699999976,101.41015599999992,124.23095699999976,64.61523400000078,100.64111300000059,227.82031300000017,46.025878999999804
7,41.410155999999915,137.94873000000007,92.82031300000017,-58.71801800000003,88.46142599999985,108.84619099999964,96.79492200000004,107.05126999999993,102.17968800000017,124.23095699999976,56.2822270000006,96.53857400000015,240.6411130000006,47.56396500000028
8,45.897460999999566,151.6665039999998,98.20507799999996,-62.30761700000039,101.79492200000004,108.0771479999994,91.0258789999998,110.0,107.82031300000017,131.9228520000006,58.846190999999635,95.64111300000059,263.84619099999964,81.0258789999998
9,68.9741210000002,170.51269500000035,115.12841800000024,-53.71801800000003,116.2822270000006,111.15380900000036,95.12841800000024,117.05126999999993,117.56396500000028,145.6411130000006,73.3334960000002,99.35888699999941,297.05126999999993,149.10253900000043
10,85.64111300000059,182.94873000000007,132.17968800000017,-45.76928699999962,122.30761700000039,115.64111300000059,104.74365200000011,122.56396500000028,125.76904300000024,157.05126999999993,88.58984400000008,104.74365200000011,330.12841800000024,225.89746099999957
11,74.61523400000078,182.05126999999993,137.82031300000017,-49.35888699999987,115.51269500000035,118.58984400000008,111.9228520000006,121.41015599999992,126.15380900000036,158.58984400000008,91.53857400000015,106.9228520000006,351.2822270000006,274.23095699999976
12,37.69238299999961,172.43603499999972,131.0258789999998,-63.846190999999635,102.94873000000007,118.9741210000002,112.43603499999972,114.48730499999965,117.94873000000007,150.6411130000006,79.48730499999965,103.7177729999994,357.82031300000017,273.0771479999994
13,-3.3334960000001956,165.38476599999922,120.38476599999922,-79.35888699999987,97.05126999999993,118.20507799999996,108.20507799999996,106.79492200000004,107.05126999999993,142.05126999999993,61.2822270000006,97.82031300000017,358.0771479999994,233.58984400000008
14,-26.153809000000365,168.46142599999985,116.0258789999998,-87.05127000000039,104.48730499999965,117.17968800000017,103.20507799999996,102.82031300000017,101.0258789999998,141.6665039999998,48.46142599999985,93.84619099999964,363.3334960000002,193.20507799999996
15,-24.8718259999996,180.2563479999999,121.41015599999992,-85.25634799999989,120.89746099999957,116.2822270000006,100.64111300000059,104.35888699999941,103.58984400000008,151.41015599999992,46.79492200000004,94.74365200000011,379.6152340000008,194.7436520000001
16,-9.102538999999979,193.3334960000002,133.3334960000002,-78.58984399999963,136.41015599999992,115.64111300000059,101.53857400000015,111.0258789999998,113.20507799999996,165.2563479999999,54.61523400000078,99.74365200000011,404.10253900000043,261.4101559999999
17,6.538574000000153,201.15380900000036,145.89746099999957,-72.05127000000039,143.46142599999985,115.38476599999922,105.51269500000035,119.87158199999976,125.64111300000059,174.7436520000001,65.25634799999989,106.15380900000036,427.94873000000007,383.7177729999994
18,13.461425999999847,201.9228520000006,154.3588869999994,-67.56420900000057,141.9228520000006,116.0258789999998,110.64111300000059,126.79492200000004,135.89746099999957,175.51269500000035,71.2822270000006,110.76904300000024,443.46142599999985,524.4873049999997
19,11.794922000000042,199.3588869999994,157.6923829999996,-65.0,136.79492200000004,117.30761700000039,113.46142599999985,128.3334960000002,138.9741210000002,169.7436520000001,69.35888699999941,111.15380900000036,448.20507799999996,640.1284180000002
20,8.333496000000196,199.10253900000043,158.46142599999985,-62.17944299999999,134.61523400000078,118.20507799999996,111.9228520000006,124.23095699999976,133.0771479999994,163.58984400000008,62.05126999999993,107.30761700000039,446.6665039999998,706.2822270000006
21,9.358886999999413,203.84619099999964,160.51269500000035,-57.948729999999614,139.10253900000043,117.43603499999972,107.17968800000017,118.7177729999994,121.6665039999998,162.17968800000017,56.410155999999915,101.79492200000004,446.4101559999999,727.1796880000002
22,16.794922000000042,211.15380900000036,165.12841800000024,-52.564209000000574,149.23095699999976,114.10253900000043,103.0771479999994,116.6665039999998,113.0771479999994,167.05126999999993,58.20507799999996,98.3334960000002,453.0771479999994,727.1796880000002
23,27.94873000000007,215.38476599999922,170.38476599999922,-48.07690400000001,159.61523400000078,108.58984400000008,103.20507799999996,120.64111300000059,114.10253900000043,176.0258789999998,66.9228520000006,99.48730499999965,466.0258789999998,729.7436520000001
24,37.43603499999972,212.17968800000017,171.2822270000006,-47.30761700000039,164.3588869999994,103.3334960000002,107.05126999999993,128.0771479999994,123.9741210000002,184.7436520000001,75.38476599999922,103.58984400000008,478.9741210000002,743.3334960000002
25,42.69238299999961,203.0771479999994,165.38476599999922,-50.64111300000013,161.6665039999998,100.76904300000024,111.2822270000006,133.58984400000008,134.48730499999965,188.46142599999985,76.6665039999998,107.17968800000017,484.23095699999976,760.5126950000003
26,44.74365200000011,195.6411130000006,155.12841800000024,-55.25634799999989,155.12841800000024,101.79492200000004,112.56396500000028,134.10253900000043,137.43603499999972,185.2563479999999,70.25634799999989,108.0771479999994,479.3588869999994,770.6411130000006
27,46.79492200000004,196.6665039999998,146.79492200000004,-57.948729999999614,149.87158199999976,104.35888699999941,110.38476599999922,130.2563479999999,131.41015599999992,177.43603499999972,60.51269500000035,106.79492200000004,468.20507799999996,770.0
28,49.87158199999976,206.2822270000006,144.3588869999994,-57.948729999999614,148.0771479999994,105.51269500000035,106.2822270000006,124.74365200000011,121.53857400000015,169.23095699999976,52.82031300000017,105.12841800000024,456.53857400000015,763.7177729999994
29,51.025878999999804,217.94873000000007,146.79492200000004,-56.66674799999964,150.12841800000024,104.23095699999976,102.56396500000028,119.87158199999976,113.9741210000002,162.43603499999972,47.94873000000007,104.10253900000043,447.05126999999993,757.6923829999996
30,46.153809000000365,224.87158199999976,148.9741210000002,-56.153809000000365,155.2563479999999,102.05126999999993,100.64111300000059,116.53857400000015,111.0258789999998,156.41015599999992,43.20507799999996,102.94873000000007,437.94873000000007,752.6923829999996
31,34.35888699999941,225.2563479999999,147.05126999999993,-57.051270000000386,161.15380900000036,101.6665039999998,100.38476599999922,113.3334960000002,111.15380900000036,150.2563479999999,36.153809000000365,100.25634799999989,427.17968800000017,745.3847659999992
32,21.794922000000042,223.20507799999996,141.41015599999992,-58.20507799999996,162.94873000000007,104.23095699999976,100.89746099999957,108.9741210000002,111.41015599999992,145.6411130000006,26.282227000000603,96.2822270000006,415.51269500000035,735.7690430000002
33,18.461425999999847,225.51269500000035,137.43603499999972,-57.17944299999999,156.53857400000015,108.3334960000002,101.0258789999998,103.58984400000008,109.48730499999965,145.38476599999922,16.025878999999804,93.0771479999994,405.76904300000024,731.794922
34,30.51269500000035,236.6665039999998,140.38476599999922,-51.79492200000004,145.0,112.30761700000039,100.64111300000059,99.87158199999976,105.51269500000035,151.0258789999998,8.461425999999847,93.46142599999985,399.48730499999965,741.6665039999998
35,52.43603499999972,255.76904300000024,150.89746099999957,-41.92309599999999,138.46142599999985,115.25634799999989,100.51269500000035,99.87158199999976,100.89746099999957,159.61523400000078,6.282227000000603,97.56396500000028,395.2563479999999,761.9228520000006
36,68.58984400000008,275.51269500000035,162.43603499999972,-30.641113000000132,145.51269500000035,117.05126999999993,102.05126999999993,102.82031300000017,97.30761700000039,165.0,8.461425999999847,102.05126999999993,388.9741210000002,774.4873049999997
37,64.61523400000078,287.94873000000007,166.2822270000006,-22.948729999999614,163.84619099999964,117.56396500000028,104.48730499999965,104.23095699999976,94.87158199999976,162.17968800000017,9.615234000000783,102.17968800000017,377.4360349999997,761.4101559999999
38,40.0,289.87158199999976,158.84619099999964,-21.794922000000042,180.38476599999922,116.15380900000036,105.38476599999922,100.25634799999989,92.17968800000017,149.87158199999976,3.9741210000001956,96.15380900000036,361.15380900000036,723.3334960000002
39,11.922852000000603,287.4360349999997,146.41015599999992,-24.61547900000005,183.9741210000002,112.94873000000007,103.0771479999994,92.17968800000017,88.46142599999985,132.82031300000017,-8.71801800000003,87.43603499999972,343.9741210000002,682.8203130000002
40,2.4360349999997197,292.5639650000003,140.89746099999957,-24.10253899999998,177.05126999999993,110.38476599999922,99.74365200000011,86.41015599999992,86.0258789999998,120.51269500000035,-21.28198199999997,82.30761700000039,331.53857400000015,668.205078
41,20.641113000000587,311.6665039999998,149.23095699999976,-15.38452099999995,171.41015599999992,110.51269500000035,98.84619099999964,88.20507799999996,87.56396500000028,120.25634799999989,-25.769286999999622,85.25634799999989,326.4101559999999,688.5898440000001
42,52.05126999999993,337.4360349999997,165.89746099999957,-2.4360349999997197,174.48730499999965,113.0771479999994,100.64111300000059,95.89746099999957,92.05126999999993,129.48730499999965,-21.923095999999987,94.23095699999976,323.3334960000002,723.3334960000002
43,69.48730499999965,353.20507799999996,176.41015599999992,4.102539000000434,181.41015599999992,114.87158199999976,101.6665039999998,101.2822270000006,93.9741210000002,136.41015599999992,-17.69238299999961,101.2822270000006,313.7177729999994,737.8203130000002
44,56.666503999999804,348.20507799999996,171.0258789999998,-1.2822270000006029,183.58984400000008,113.3334960000002,99.61523400000078,99.10253900000043,89.61523400000078,130.38476599999922,-20.641113000000132,100.0,293.5898440000001,713.205078
45,22.43603499999972,329.3588869999994,153.84619099999964,-13.461425999999847,179.61523400000078,110.0,96.79492200000004,92.82031300000017,81.9228520000006,113.3334960000002,-29.230713000000378,90.89746099999957,270.0,662.6923829999996
46,-8.461425999999847,315.51269500000035,139.87158199999976,-21.153809000000365,177.05126999999993,107.94873000000007,97.69238299999961,90.76904300000024,78.46142599999985,98.3334960000002,-36.025634999999966,81.9228520000006,255.12841800000024,619.2309569999998
47,-18.974365000000034,318.9741210000002,139.87158199999976,-18.205077999999958,180.0,109.23095699999976,102.82031300000017,96.53857400000015,82.05126999999993,97.30761700000039,-36.53857400000015,80.0,254.3588869999994,605.7690430000002
48,-12.435790999999426,334.10253900000043,151.0258789999998,-10.0,182.3076170000004,111.9228520000006,107.69238299999961,104.10253900000043,87.56396500000028,110.12841800000024,-34.74365200000011,84.35888699999941,260.76904300000024,618.5898440000001
49,-5.641113000000132,343.84619099999964,160.51269500000035,-7.564209000000574,173.84619099999964,112.94873000000007,106.6665039999998,103.20507799999996,86.41015599999992,124.74365200000011,-38.71801800000003,88.84619099999964,261.79492200000004,634.1025390000004
50,-11.666747999999643,335.51269500000035,157.05126999999993,-18.076904000000013,151.53857400000015,110.89746099999957,99.10253900000043,89.61523400000078,75.64111300000059,128.9741210000002,-51.79492200000004,87.82031300000017,250.0,632.1796880000002
51,-28.461425999999847,311.2822270000006,141.53857400000015,-38.71801800000003,124.48730499999965,107.17968800000017,89.48730499999965,70.0,60.38476599999922,118.84619099999964,-68.71801800000003,80.89746099999957,228.7177729999994,611.2822270000006
52,-42.564209000000574,286.6665039999998,124.74365200000011,-59.35888699999987,109.87158199999976,105.0,84.35888699999941,56.666503999999804,50.0,100.89746099999957,-78.84619099999964,73.9741210000002,209.10253900000043,587.5639650000003
53,-42.948729999999614,278.5898440000001,118.3334960000002,-71.15380900000036,121.0258789999998,106.79492200000004,86.53857400000015,58.589844000000085,51.666503999999804,87.17968800000017,-74.48706099999981,72.69238299999961,201.79492200000004,578.205078
54,-32.051270000000386,291.79492200000004,125.51269500000035,-73.20507799999996,156.41015599999992,112.30761700000039,93.7177729999994,74.74365200000011,65.12841800000024,88.20507799999996,-58.07690400000001,77.94873000000007,209.10253900000043,585.1284180000002
55,-23.461425999999847,314.6152340000008,139.23095699999976,-71.79492200000004,197.17968800000017,117.82031300000017,100.89746099999957,95.12841800000024,83.7177729999994,105.12841800000024,-40.51293900000019,85.12841800000024,223.7177729999994,593.8461909999996
56,-28.58984399999963,328.9741210000002,149.61523400000078,-74.23071300000038,218.7177729999994,119.87158199999976,104.87158199999976,108.46142599999985,98.0771479999994,128.0771479999994,-31.923095999999987,89.10253900000043,234.48730499999965,588.8461909999996
57,-44.48706099999981,323.9741210000002,151.53857400000015,-82.82055700000001,208.7177729999994,117.56396500000028,105.64111300000059,110.64111300000059,102.56396500000028,143.58984400000008,-33.58984399999963,88.46142599999985,234.48730499999965,569.3588869999994
58,-57.69238299999961,303.7177729999994,147.17968800000017,-93.84619099999964,176.9228520000006,113.7177729999994,106.0258789999998,105.0,96.6665039999998,142.56396500000028,-39.10253899999998,85.76904300000024,224.61523400000078,548.7177729999994
59,-58.20507799999996,281.79492200000004,141.2822270000006,-104.61547900000005,145.89746099999957,111.9228520000006,107.17968800000017,97.43603499999972,84.23095699999976,126.79492200000004,-41.66674799999964,84.10253900000043,211.2822270000006,540.1284180000002
60,-49.74365200000011,269.48730499999965,135.76904300000024,-115.64111300000013,132.94873000000007,112.94873000000007,108.20507799999996,91.2822270000006,70.76904300000024,106.79492200000004,-41.153809000000365,83.7177729999994,200.38476599999922,543.205078
61,-45.76928699999962,268.0771479999994,128.9741210000002,-129.10253899999998,138.9741210000002,115.0,106.6665039999998,87.05126999999993,61.79492200000004,94.35888699999941,-42.051270000000386,82.43603499999972,194.3588869999994,545.2563479999999
62,-55.76928699999962,271.2822270000006,119.61523400000078,-144.4870609999998,152.17968800000017,115.64111300000059,102.05126999999993,84.48730499999965,61.153809000000365,95.89746099999957,-48.20507799999996,79.10253900000043,191.9228520000006,534.1025390000004
63,-76.28198199999997,273.0771479999994,110.64111300000059,-157.43579099999943,161.53857400000015,114.23095699999976,97.56396500000028,85.38476599999922,70.12841800000024,109.48730499999965,-57.82055700000001,75.0,191.15380900000036,509.87158199999976
64,-93.33325200000036,273.3334960000002,107.43603499999972,-163.076904,165.6411130000006,113.3334960000002,97.82031300000017,92.30761700000039,86.6665039999998,128.3334960000002,-63.07690400000001,73.0771479999994,192.43603499999972,485.0
65,-95.0,275.12841800000024,113.0771479999994,-160.5129390000002,168.58984400000008,114.48730499999965,104.87158199999976,104.87158199999976,104.61523400000078,144.3588869999994,-57.564209000000574,75.38476599999922,196.53857400000015,473.7177729999994
66,-81.28198199999997,278.9741210000002,124.10253900000043,-154.23071300000038,172.05126999999993,116.79492200000004,115.0,117.82031300000017,116.79492200000004,151.79492200000004,-42.051270000000386,81.15380900000036,202.6923829999996,480.0
67,-62.30761700000039,282.05126999999993,133.7177729999994,-150.0,172.94873000000007,117.69238299999961,121.79492200000004,124.74365200000011,119.35888699999941,150.12841800000024,-24.487060999999812,86.6665039999998,207.56396500000028,496.0258789999998
68,-48.974365000000034,282.3076170000004,137.82031300000017,-150.0,169.87158199999976,116.9228520000006,121.53857400000015,123.7177729999994,114.48730499999965,144.23095699999976,-13.076904000000013,88.9741210000002,209.23095699999976,510.2563479999999
69,-45.51293900000019,280.51269500000035,137.94873000000007,-152.179443,166.2822270000006,116.0258789999998,115.76904300000024,118.46142599999985,107.82031300000017,141.2822270000006,-10.1281740000004,88.0771479999994,207.56396500000028,514.7436520000001
70,-49.8718259999996,278.0771479999994,137.6923829999996,-154.4870609999998,165.89746099999957,115.76904300000024,109.23095699999976,113.9741210000002,103.0771479999994,143.0771479999994,-12.948729999999614,86.41015599999992,203.58984400000008,506.4101559999999
71,-58.07690400000001,274.6152340000008,138.58984400000008,-156.79492200000004,167.94873000000007,115.0,105.64111300000059,112.82031300000017,100.12841800000024,145.2563479999999,-17.69238299999961,85.76904300000024,197.82031300000017,487.3076170000004
72,-65.89746100000002,269.10253900000043,139.10253900000043,-161.53857400000015,168.46142599999985,112.94873000000007,105.76904300000024,113.84619099999964,98.0771479999994,142.43603499999972,-21.538574000000153,86.6665039999998,192.05126999999993,464.48730499999965
73,-70.1281740000004,261.6665039999998,137.43603499999972,-170.38452099999995,164.10253900000043,110.25634799999989,107.30761700000039,114.35888699999941,97.17968800000017,134.7436520000001,-23.205077999999958,88.20507799999996,189.10253900000043,446.4101559999999
74,-71.28198199999997,252.94873000000007,132.6923829999996,-183.33325200000036,154.7436520000001,108.46142599999985,106.9228520000006,111.2822270000006,96.9228520000006,126.79492200000004,-23.58984399999963,88.84619099999964,189.7436520000001,437.3076170000004
75,-72.30761700000039,243.3334960000002,125.51269500000035,-197.9487299999996,143.46142599999985,108.20507799999996,102.56396500000028,103.7177729999994,95.38476599999922,122.30761700000039,-24.74365200000011,86.79492200000004,190.0,433.3334960000002
76,-74.10253899999998,235.12841800000024,119.23095699999976,-209.10253899999998,136.53857400000015,109.74365200000011,96.2822270000006,94.48730499999965,91.41015599999992,122.17968800000017,-27.30761700000039,83.0771479999994,185.89746099999957,428.7177729999994
77,-73.58984399999963,233.9741210000002,118.84619099999964,-211.28198199999997,142.17968800000017,113.3334960000002,93.9741210000002,90.76904300000024,88.7177729999994,127.69238299999961,-28.461425999999847,81.2822270000006,179.23095699999976,420.6411130000006
78,-67.94872999999961,243.84619099999964,126.79492200000004,-203.20507799999996,162.3076170000004,117.69238299999961,101.2822270000006,97.69238299999961,93.58984400000008,139.61523400000078,-24.74365200000011,83.84619099999964,176.2822270000006,411.4101559999999
79,-58.974365000000034,260.2563479999999,139.23095699999976,-191.15380900000036,186.2822270000006,120.64111300000059,117.30761700000039,112.69238299999961,107.17968800000017,154.3588869999994,-16.794922000000042,89.74365200000011,181.0258789999998,403.46142599999985
80,-52.564209000000574,272.05126999999993,148.58984400000008,-184.7436520000001,197.82031300000017,120.0,133.0771479999994,126.2822270000006,121.9228520000006,162.6923829999996,-10.1281740000004,95.25634799999989,189.61523400000078,398.5898440000001
81,-51.92309599999999,270.0,149.23095699999976,-189.61547900000005,189.23095699999976,115.89746099999957,138.9741210000002,129.48730499999965,126.9228520000006,157.82031300000017,-9.8718259999996,97.17968800000017,194.3588869999994,397.5639650000003
82,-55.76928699999962,254.10253900000043,141.6665039999998,-203.71801800000003,166.9228520000006,110.89746099999957,131.53857400000015,120.64111300000059,116.15380900000036,140.6411130000006,-18.076904000000013,94.35888699999941,189.48730499999965,398.5898440000001
83,-62.82055700000001,231.53857400000015,129.10253900000043,-221.41015600000037,143.84619099999964,107.69238299999961,114.61523400000078,104.23095699999976,92.43603499999972,118.20507799999996,-33.07690400000001,88.0771479999994,173.84619099999964,396.0258789999998
84,-74.10253899999998,209.7436520000001,114.10253900000043,-237.6923829999996,127.56396500000028,107.82031300000017,95.89746099999957,86.53857400000015,64.87158199999976,97.17968800000017,-51.28198199999997,80.0,150.0,382.5639650000003
85,-89.23071300000038,194.48730499999965,99.61523400000078,-248.46142599999985,120.51269500000035,110.64111300000059,83.58984400000008,72.82031300000017,45.12841800000024,82.05126999999993,-67.56420900000057,72.69238299999961,125.0,358.0771479999994
86,-101.92309599999999,190.38476599999922,90.89746099999957,-250.0,123.9741210000002,114.35888699999941,82.82031300000017,67.94873000000007,43.46142599999985,77.69238299999961,-74.48706099999981,68.9741210000002,110.0,333.46142599999985
87,-102.56420900000057,199.48730499999965,92.94873000000007,-241.41015600000037,140.12841800000024,117.43603499999972,93.7177729999994,75.25634799999989,62.05126999999993,88.20507799999996,-66.66674799999964,70.89746099999957,113.84619099999964,322.94873000000007
88,-89.10253899999998,217.17968800000017,105.12841800000024,-228.33325200000036,165.6411130000006,119.48730499999965,110.12841800000024,92.56396500000028,91.9228520000006,112.17968800000017,-45.76928699999962,77.30761700000039,134.87158199999976,331.6665039999998
89,-71.02563499999997,232.05126999999993,118.84619099999964,-221.28198199999997,187.82031300000017,119.87158199999976,122.69238299999961,110.64111300000059,115.89746099999957,139.10253900000043,-23.076904000000013,83.84619099999964,158.58984400000008,347.82031300000017
90,-62.30761700000039,232.94873000000007,123.3334960000002,-227.6923829999996,191.79492200000004,118.3334960000002,124.61523400000078,118.46142599999985,120.64111300000059,154.10253900000043,-12.435790999999426,85.89746099999957,168.0771479999994,351.6665039999998
91,-68.07690400000001,219.23095699999976,115.38476599999922,-244.4870609999998,173.84619099999964,115.76904300000024,116.41015599999992,112.30761700000039,106.6665039999998,149.23095699999976,-19.487060999999812,82.30761700000039,157.94873000000007,332.5639650000003
92,-80.51293900000019,201.6665039999998,102.30761700000039,-259.102539,146.0258789999998,114.35888699999941,104.87158199999976,98.7177729999994,86.6665039999998,130.2563479999999,-36.79492200000004,76.2822270000006,138.3334960000002,298.9741210000002
93,-87.43579099999943,193.0771479999994,95.12841800000024,-260.2563479999999,127.43603499999972,115.25634799999989,97.05126999999993,87.56396500000028,74.35888699999941,111.2822270000006,-51.025634999999966,72.94873000000007,123.9741210000002,271.15380900000036
94,-82.43579099999943,198.0771479999994,98.9741210000002,-246.41015600000037,128.3334960000002,117.56396500000028,95.12841800000024,84.23095699999976,73.46142599999985,102.82031300000017,-53.974365000000034,74.35888699999941,120.89746099999957,262.6923829999996
95,-68.84619099999964,210.51269500000035,110.76904300000024,-226.41015600000037,144.61523400000078,119.48730499999965,96.79492200000004,87.69238299999961,78.0771479999994,105.38476599999922,-46.28198199999997,78.84619099999964,123.84619099999964,267.05126999999993
96,-53.71801800000003,220.0,123.3334960000002,-211.41015600000037,162.56396500000028,120.0,99.10253900000043,93.20507799999996,81.6665039999998,111.53857400000015,-34.74365200000011,82.82031300000017,123.0771479999994,260.0
97,-42.435790999999426,220.76904300000024,131.15380900000036,-206.15380900000036,170.51269500000035,119.23095699999976,101.6665039999998,96.53857400000015,82.30761700000039,114.48730499999965,-24.8718259999996,84.61523400000078,113.7177729999994,215.6411130000006
98,-35.0,214.23095699999976,133.20507799999996,-206.41015600000037,166.15380900000036,117.43603499999972,105.38476599999922,96.15380900000036,82.43603499999972,112.94873000000007,-18.58984399999963,84.48730499999965,99.35888699999941,125.64111300000059
99,-26.025634999999966,206.41015599999992,133.46142599999985,-203.20507799999996,157.6923829999996,115.51269500000035,109.87158199999976,93.46142599999985,85.64111300000059,111.2822270000006,-12.692382999999609,83.9741210000002,87.43603499999972,9.487304999999651
100,-8.846190999999635,203.84619099999964,136.2822270000006,-191.53857400000015,155.76904300000024,114.48730499999965,113.9741210000002,92.30761700000039,92.56396500000028,114.23095699999976,-2.9487300000000687,84.61523400000078,82.56396500000028,-96.28198199999997
101,18.333496000000196,206.79492200000004,142.05126999999993,-176.66674799999964,162.82031300000017,115.38476599999922,116.53857400000015,94.74365200000011,100.51269500000035,121.41015599999992,11.282227000000603,87.05126999999993,82.05126999999993,-161.66674799999964
102,49.48730499999965,209.23095699999976,146.0258789999998,-171.53857400000015,168.7177729999994,117.17968800000017,116.15380900000036,97.94873000000007,103.9741210000002,126.0258789999998,25.897460999999566,90.0,75.76904300000024,-182.43579099999943
103,76.2822270000006,204.10253900000043,142.43603499999972,-185.0,161.0258789999998,118.20507799999996,112.43603499999972,97.17968800000017,98.7177729999994,119.48730499999965,35.64111300000059,91.53857400000015,53.974121000000196,-178.97436500000003
104,96.9228520000006,191.79492200000004,131.53857400000015,-212.9487299999996,139.7436520000001,117.30761700000039,106.79492200000004,91.41015599999992,86.79492200000004,100.64111300000059,40.51269500000035,91.53857400000015,17.05126999999993,-177.9487299999996
105,118.0771479999994,181.2822270000006,120.38476599999922,-239.7436520000001,119.61523400000078,115.76904300000024,102.82031300000017,85.12841800000024,77.30761700000039,79.23095699999976,47.17968800000017,92.94873000000007,-22.948729999999614,-191.923096
106,145.6411130000006,181.41015599999992,115.51269500000035,-251.53857400000015,115.0,115.12841800000024,103.3334960000002,83.46142599999985,78.7177729999994,69.48730499999965,61.9228520000006,98.20507799999996,-52.30761700000039,-215.76928699999962
107,176.6665039999998,189.7436520000001,116.41015599999992,-248.46142599999985,125.64111300000059,115.76904300000024,106.53857400000015,86.2822270000006,88.9741210000002,75.76904300000024,83.3334960000002,105.25634799999989,-67.82055700000001,-237.820557
108,200.76904300000024,195.38476599999922,116.9228520000006,-242.56420900000057,137.3076170000004,116.6665039999998,108.7177729999994,88.58984400000008,97.05126999999993,88.46142599999985,102.56396500000028,108.9741210000002,-77.43579099999943,-250.5129390000002
109,212.56396500000028,190.51269500000035,113.46142599999985,-244.10253899999998,137.56396500000028,117.17968800000017,108.3334960000002,87.94873000000007,93.84619099999964,92.56396500000028,112.56396500000028,106.41015599999992,-90.1281740000004,-252.3076170000004
110,218.46142599999985,178.84619099999964,108.9741210000002,-252.3076170000004,126.2822270000006,117.17968800000017,108.7177729999994,87.05126999999993,82.05126999999993,81.6665039999998,113.84619099999964,100.89746099999957,-106.92309599999999,-244.7436520000001
111,228.9741210000002,170.12841800000024,108.9741210000002,-258.46142599999985,112.82031300000017,117.43603499999972,113.0771479999994,90.64111300000059,73.20507799999996,62.69238299999961,112.69238299999961,98.3334960000002,-121.92309599999999,-229.10253899999998
112,247.94873000000007,169.7436520000001,113.46142599999985,-257.0512700000004,105.89746099999957,117.82031300000017,119.61523400000078,97.94873000000007,76.6665039999998,48.974121000000196,113.84619099999964,101.53857400000015,-130.38452099999995,-208.46142599999985
113,268.5898440000001,173.46142599999985,115.89746099999957,-250.1281740000004,107.43603499999972,118.0771479999994,122.30761700000039,102.82031300000017,91.0258789999998,48.846190999999635,116.15380900000036,107.05126999999993,-132.56420900000057,-188.20507799999996
114,282.17968800000017,174.48730499999965,110.64111300000059,-243.33325200000036,113.7177729999994,117.56396500000028,118.46142599999985,100.51269500000035,106.79492200000004,60.0,117.82031300000017,110.51269500000035,-131.53857400000015,-174.35888699999987
115,287.3076170000004,171.41015599999992,99.35888699999941,-239.10253899999998,122.30761700000039,116.79492200000004,111.41015599999992,93.20507799999996,115.12841800000024,74.74365200000011,120.0,110.25634799999989,-129.35888699999987,-169.23071300000038
116,289.6152340000008,167.43603499999972,89.35888699999941,-235.89746100000002,131.0258789999998,116.2822270000006,107.82031300000017,86.9228520000006,112.82031300000017,84.74365200000011,125.64111300000059,108.7177729999994,-127.05127000000039,-170.2563479999999
117,292.82031300000017,165.2563479999999,85.12841800000024,-232.9487299999996,135.6411130000006,116.53857400000015,110.12841800000024,85.25634799999989,102.69238299999961,85.12841800000024,133.3334960000002,108.46142599999985,-127.05127000000039,-173.46142599999985
118,295.76904300000024,163.46142599999985,83.9741210000002,-232.56420900000057,131.79492200000004,117.17968800000017,113.9741210000002,85.89746099999957,89.74365200000011,76.15380900000036,137.3076170000004,109.23095699999976,-131.66674799999964,-176.41015600000037
119,295.3847659999992,160.51269500000035,80.89746099999957,-235.38452099999995,120.25634799999989,118.0771479999994,114.61523400000078,85.64111300000059,80.12841800000024,63.7177729999994,133.46142599999985,109.61523400000078,-139.23071300000038,-177.6923829999996
120,292.3076170000004,157.82031300000017,74.61523400000078,-238.46142599999985,108.58984400000008,118.84619099999964,111.79492200000004,84.61523400000078,77.30761700000039,57.05126999999993,125.64111300000059,109.23095699999976,-143.97436500000003,-175.89746100000002
121,290.51269500000035,158.7177729999994,69.10253900000043,-235.89746100000002,105.76904300000024,119.35888699999941,109.87158199999976,85.89746099999957,80.76904300000024,61.153809000000365,122.30761700000039,109.35888699999941,-141.02563499999997,-170.2563479999999
122,292.82031300000017,165.0,69.74365200000011,-225.38452099999995,115.38476599999922,119.23095699999976,112.82031300000017,91.9228520000006,86.6665039999998,71.6665039999998,128.9741210000002,110.64111300000059,-130.76928699999962,-162.3076170000004
123,298.7177729999994,174.10253900000043,77.30761700000039,-210.76928699999962,133.20507799999996,118.84619099999964,119.35888699999941,101.2822270000006,91.2822270000006,78.3334960000002,142.3076170000004,112.69238299999961,-118.84619099999964,-155.64111300000013
124,304.23095699999976,181.0258789999998,86.41015599999992,-200.2563479999999,150.2563479999999,118.46142599999985,124.10253900000043,108.46142599999985,93.3334960000002,73.9741210000002,151.79492200000004,113.84619099999964,-111.15380900000036,-153.97436500000003
125,304.6152340000008,181.79492200000004,89.61523400000078,-199.8718259999996,157.3076170000004,118.0771479999994,121.79492200000004,108.20507799999996,94.23095699999976,61.79492200000004,148.0771479999994,112.05126999999993,-110.38452099999995,-157.43579099999943
126,298.0771479999994,175.2563479999999,83.20507799999996,-208.84619099999964,150.12841800000024,117.17968800000017,112.17968800000017,99.35888699999941,95.0,52.05126999999993,130.12841800000024,106.9228520000006,-115.25634799999989,-161.53857400000015
127,287.4360349999997,164.10253900000043,70.89746099999957,-220.2563479999999,131.53857400000015,116.0258789999998,100.25634799999989,86.0258789999998,94.23095699999976,52.30761700000039,107.82031300000017,100.12841800000024,-121.66674799999964,-160.64111300000013
128,278.3334960000002,153.84619099999964,60.51269500000035,-226.79492200000004,110.76904300000024,115.25634799999989,93.0771479999994,75.25634799999989,90.89746099999957,62.05126999999993,94.10253900000043,95.0,-126.28198199999997,-152.179443
129,276.6665039999998,150.51269500000035,59.35888699999941,-224.61547900000005,100.51269500000035,115.76904300000024,94.87158199999976,72.17968800000017,86.41015599999992,74.48730499999965,97.05126999999993,94.74365200000011,-126.15380900000036,-136.53857400000015
130,284.48730499999965,157.17968800000017,68.58984400000008,-215.2563479999999,108.20507799999996,118.46142599999985,104.35888699999941,77.05126999999993,84.35888699999941,82.82031300000017,113.58984400000008,100.12841800000024,-120.1281740000004,-117.05127000000039
131,297.3076170000004,170.12841800000024,81.9228520000006,-203.84619099999964,129.61523400000078,123.0771479999994,115.51269500000035,85.25634799999989,85.64111300000059,83.7177729999994,131.2822270000006,107.69238299999961,-110.25634799999989,-99.23071300000038
132,305.51269500000035,180.12841800000024,89.87158199999976,-196.53857400000015,150.12841800000024,128.46142599999985,121.41015599999992,89.87158199999976,87.56396500000028,77.05126999999993,137.43603499999972,112.43603499999972,-102.17944299999999,-89.23071300000038
133,302.5639650000003,180.2563479999999,87.82031300000017,-196.41015600000037,154.7436520000001,132.17968800000017,119.23095699999976,86.9228520000006,86.0258789999998,66.2822270000006,128.84619099999964,111.41015599999992,-101.66674799999964,-90.51293900000019
134,289.3588869999994,170.38476599999922,79.10253900000043,-201.53857400000015,139.87158199999976,132.6923829999996,113.20507799999996,79.35888699999941,79.61523400000078,56.9228520000006,114.10253900000043,106.41015599999992,-109.61547900000005,-100.1281740000004
135,273.9741210000002,158.0771479999994,71.6665039999998,-206.66674799999964,116.0258789999998,130.12841800000024,109.61523400000078,74.74365200000011,71.79492200000004,52.69238299999961,105.89746099999957,101.9228520000006,-121.53857400000015,-110.89746100000002
136,264.23095699999976,151.2822270000006,70.89746099999957,-207.3076170000004,98.58984400000008,125.89746099999957,112.05126999999993,78.0771479999994,68.3334960000002,53.46142599999985,109.23095699999976,101.15380900000036,-129.23071300000038,-116.28198199999997
137,262.82031300000017,152.82031300000017,75.38476599999922,-203.71801800000003,96.53857400000015,121.41015599999992,117.56396500000028,88.46142599999985,72.17968800000017,56.79492200000004,117.94873000000007,103.20507799999996,-127.56420900000057,-114.8718259999996
138,266.2822270000006,158.9741210000002,79.61523400000078,-198.71801800000003,108.20507799999996,117.56396500000028,120.89746099999957,98.84619099999964,82.05126999999993,61.025878999999804,121.79492200000004,105.38476599999922,-117.94872999999961,-110.0
139,268.7177729999994,163.84619099999964,79.35888699999941,-194.8718259999996,124.74365200000011,115.12841800000024,118.84619099999964,102.43603499999972,93.0771479999994,67.17968800000017,116.41015599999992,105.38476599999922,-106.92309599999999,-106.02563499999997
140,266.4101559999999,164.10253900000043,75.0,-193.58984399999963,137.05126999999993,115.12841800000024,112.17968800000017,97.82031300000017,100.25634799999989,76.53857400000015,107.30761700000039,103.0771479999994,-100.76928699999962,-105.0
141,260.51269500000035,161.9228520000006,70.76904300000024,-194.7436520000001,141.41015599999992,117.56396500000028,105.76904300000024,90.76904300000024,102.82031300000017,87.69238299999961,104.87158199999976,100.38476599999922,-100.38452099999995,-104.8718259999996
142,256.2822270000006,162.56396500000028,71.79492200000004,-196.53857400000015,141.53857400000015,121.41015599999992,105.0,90.38476599999922,105.12841800000024,97.82031300000017,115.89746099999957,100.12841800000024,-100.25634799999989,-101.02563499999997
143,258.9741210000002,169.87158199999976,79.61523400000078,-196.41015600000037,142.6923829999996,124.61523400000078,112.56396500000028,101.6665039999998,111.9228520000006,105.0,137.94873000000007,105.0,-92.94872999999961,-90.25634799999989
144,267.17968800000017,180.12841800000024,90.0,-194.7436520000001,144.87158199999976,125.51269500000035,125.12841800000024,119.48730499999965,121.79492200000004,108.84619099999964,159.48730499999965,113.84619099999964,-78.46142599999985,-75.25634799999989
145,272.17968800000017,183.84619099999964,94.23095699999976,-195.1281740000004,141.2822270000006,123.46142599999985,133.84619099999964,131.0258789999998,127.82031300000017,108.20507799999996,167.3076170000004,121.53857400000015,-66.28198199999997,-64.23071300000038
146,265.51269500000035,174.10253900000043,87.17968800000017,-201.02563499999997,126.41015599999992,119.35888699999941,131.15380900000036,125.25634799999989,123.0771479999994,100.25634799999989,155.89746099999957,122.43603499999972,-67.05127000000039,-64.74365200000011
147,247.3076170000004,154.48730499999965,71.9228520000006,-210.64111300000013,103.84619099999964,115.76904300000024,117.30761700000039,103.0771479999994,107.17968800000017,83.84619099999964,131.79492200000004,115.76904300000024,-82.43579099999943,-76.02563499999997
148,227.82031300000017,138.0771479999994,58.974121000000196,-217.3076170000004,86.6665039999998,114.87158199999976,100.76904300000024,77.94873000000007,87.94873000000007,63.589844000000085,109.48730499999965,106.15380900000036,-101.92309599999999,-87.94872999999961
149,220.2563479999999,137.3076170000004,57.82031300000017,-213.97436500000003,87.17968800000017,116.79492200000004,92.56396500000028,66.0258789999998,75.25634799999989,48.7177729999994,101.15380900000036,100.12841800000024,-110.76928699999962,-88.58984399999963
150,229.23095699999976,152.17968800000017,69.48730499999965,-200.2563479999999,105.76904300000024,119.48730499999965,97.05126999999993,73.46142599999985,73.7177729999994,46.9228520000006,108.9741210000002,101.0258789999998,-102.05127000000039,-74.8718259999996
151,246.6665039999998,170.89746099999957,85.38476599999922,-182.9487299999996,128.58984400000008,121.0258789999998,109.10253900000043,92.05126999999993,80.12841800000024,58.333496000000196,125.38476599999922,106.6665039999998,-81.79492200000004,-54.8718259999996
152,258.84619099999964,179.48730499999965,94.23095699999976,-172.0512700000004,140.12841800000024,120.51269500000035,118.7177729999994,106.6665039999998,87.17968800000017,75.76904300000024,139.61523400000078,111.79492200000004,-63.846190999999635,-41.153809000000365
153,256.79492200000004,173.46142599999985,90.76904300000024,-173.076904,135.51269500000035,119.35888699999941,119.10253900000043,107.17968800000017,90.0,88.9741210000002,144.3588869999994,112.56396500000028,-58.58984399999963,-40.89746100000002
154,242.94873000000007,159.87158199999976,78.3334960000002,-183.076904,123.20507799999996,119.10253900000043,111.0258789999998,95.51269500000035,89.35888699999941,90.38476599999922,138.84619099999964,108.20507799999996,-66.66674799999964,-51.153809000000365
155,227.43603499999972,150.2563479999999,65.89746099999957,-193.46142599999985,115.64111300000059,119.74365200000011,101.79492200000004,82.43603499999972,89.87158199999976,80.38476599999922,127.82031300000017,102.17968800000017,-79.61547900000005,-62.82055700000001
156,220.38476599999922,151.2822270000006,61.153809000000365,-196.66674799999964,118.9741210000002,120.0,98.84619099999964,78.0771479999994,95.64111300000059,68.3334960000002,119.61523400000078,98.9741210000002,-86.79492200000004,-67.05127000000039
157,225.38476599999922,161.41015599999992,66.2822270000006,-191.02563499999997,130.2563479999999,119.10253900000043,104.48730499999965,85.64111300000059,106.6665039999998,67.17968800000017,121.53857400000015,101.41015599999992,-81.92309599999999,-60.1281740000004
158,238.9741210000002,174.3588869999994,77.94873000000007,-179.4870609999998,142.3076170000004,118.3334960000002,116.0258789999998,100.76904300000024,119.23095699999976,83.20507799999996,135.0,108.46142599999985,-66.41015600000037,-44.48706099999981
159,253.0771479999994,184.3588869999994,89.61523400000078,-166.41015600000037,149.10253900000043,120.12841800000024,127.69238299999961,115.64111300000059,128.20507799999996,109.23095699999976,152.82031300000017,116.15380900000036,-48.974365000000034,-27.69238299999961
160,260.3847659999992,188.9741210000002,96.41015599999992,-155.38452099999995,148.46142599999985,124.74365200000011,135.2563479999999,124.10253900000043,131.15380900000036,129.10253900000043,163.20507799999996,120.12841800000024,-40.64111300000013,-17.564209000000574
161,256.9228520000006,188.46142599999985,96.79492200000004,-149.10253899999998,141.6665039999998,129.61523400000078,137.43603499999972,123.7177729999994,128.20507799999996,130.38476599999922,157.82031300000017,118.20507799999996,-46.53857400000015,-18.974365000000034
162,243.58984400000008,182.82031300000017,91.6665039999998,-149.23071300000038,132.05126999999993,130.89746099999957,135.0,116.0258789999998,120.12841800000024,113.20507799999996,138.46142599999985,111.9228520000006,-62.69238299999961,-30.25634799999989
163,226.15380900000036,171.6665039999998,83.3334960000002,-156.28198199999997,122.94873000000007,126.79492200000004,129.48730499999965,104.48730499999965,107.94873000000007,88.7177729999994,116.2822270000006,104.61523400000078,-78.33325200000036,-45.0
164,211.2822270000006,155.89746099999957,73.84619099999964,-168.97436500000003,116.6665039999998,119.61523400000078,121.9228520000006,92.94873000000007,93.9741210000002,70.51269500000035,103.58984400000008,98.9741210000002,-83.46142599999985,-55.51293900000019
165,204.61523400000078,138.20507799999996,66.53857400000015,-182.56420900000057,114.10253900000043,113.20507799999996,114.23095699999976,84.74365200000011,83.20507799999996,65.89746099999957,105.51269500000035,96.0258789999998,-73.71801800000003,-57.30761700000039
166,207.82031300000017,123.58984400000008,64.10253900000043,-190.76928699999962,115.38476599999922,111.15380900000036,108.84619099999964,81.9228520000006,80.76904300000024,73.46142599999985,118.58984400000008,96.0258789999998,-52.051270000000386,-50.0
167,218.0771479999994,115.38476599999922,67.17968800000017,-189.35888699999987,119.35888699999941,113.46142599999985,108.46142599999985,84.74365200000011,87.43603499999972,85.51269500000035,134.87158199999976,98.58984400000008,-26.025634999999966,-36.92309599999999
168,229.87158199999976,113.20507799999996,73.58984400000008,-180.5129390000002,124.87158199999976,117.69238299999961,113.20507799999996,91.53857400000015,99.23095699999976,94.48730499999965,148.7177729999994,103.0771479999994,-3.3334960000001956,-22.820557000000008
169,237.82031300000017,112.82031300000017,80.51269500000035,-170.89746100000002,129.87158199999976,121.15380900000036,120.25634799999989,99.61523400000078,109.74365200000011,97.05126999999993,159.10253900000043,108.46142599999985,12.051269999999931,-11.538574000000153
170,240.0,109.35888699999941,86.15380900000036,-166.53857400000015,130.6411130000006,122.17968800000017,126.2822270000006,105.76904300000024,114.87158199999976,95.51269500000035,168.0771479999994,113.46142599999985,21.153809000000365,-4.487060999999812
171,238.58984400000008,102.43603499999972,90.64111300000059,-168.84619099999964,125.38476599999922,121.15380900000036,129.87158199999976,109.61523400000078,115.89746099999957,95.64111300000059,177.3076170000004,117.43603499999972,28.461425999999847,0.256347999999889
172,238.20507799999996,95.64111300000059,93.84619099999964,-175.0,115.76904300000024,118.9741210000002,131.9228520000006,112.82031300000017,117.69238299999961,101.41015599999992,186.0258789999998,120.0,37.82031300000017,5.512695000000349
173,240.2563479999999,92.82031300000017,94.87158199999976,-180.64111300000013,106.53857400000015,117.17968800000017,133.3334960000002,116.79492200000004,122.82031300000017,111.41015599999992,191.0258789999998,121.15380900000036,48.7177729999994,11.282227000000603
174,242.05126999999993,93.84619099999964,92.56396500000028,-183.20507799999996,101.2822270000006,116.79492200000004,133.3334960000002,120.25634799999989,128.84619099999964,119.48730499999965,189.7436520000001,120.64111300000059,56.53857400000015,13.846190999999635
175,239.61523400000078,95.38476599999922,88.0771479999994,-181.53857400000015,100.76904300000024,117.94873000000007,131.6665039999998,121.9228520000006,131.53857400000015,120.76904300000024,183.3334960000002,118.58984400000008,58.333496000000196,11.025878999999804
176,233.7177729999994,96.41015599999992,86.0258789999998,-175.64111300000013,105.38476599999922,120.64111300000059,129.3588869999994,123.46142599999985,130.38476599999922,117.69238299999961,177.3076170000004,116.79492200000004,56.153809000000365,5.897460999999566
177,229.3588869999994,98.9741210000002,90.0,-166.28198199999997,116.15380900000036,123.9741210000002,129.48730499999965,127.69238299999961,129.3588869999994,117.94873000000007,177.17968800000017,117.43603499999972,55.76904300000024,5.0
178,229.87158199999976,104.48730499999965,99.48730499999965,-156.79492200000004,132.05126999999993,127.05126999999993,132.6923829999996,134.7436520000001,132.6923829999996,125.51269500000035,183.7177729999994,120.64111300000059,59.48730499999965,10.769043000000238
179,232.3076170000004,108.58984400000008,107.30761700000039,-152.6923829999996,145.2563479999999,127.56396500000028,136.53857400000015,139.3588869999994,138.0771479999994,134.3588869999994,190.6411130000006,123.58984400000008,62.82031300000017,17.56396500000028
180,227.94873000000007,102.56396500000028,105.25634799999989,-157.820557,144.48730499999965,123.84619099999964,135.89746099999957,134.48730499999965,137.56396500000028,132.43603499999972,189.61523400000078,122.17968800000017,57.56396500000028,15.512695000000349
181,211.53857400000015,82.17968800000017,90.51269500000035,-171.15380900000036,124.74365200000011,116.79492200000004,128.46142599999985,117.94873000000007,124.35888699999941,114.10253900000043,177.05126999999993,115.12841800000024,40.64111300000059,-0.12841800000023795
182,187.6923829999996,55.12841800000024,69.87158199999976,-184.7436520000001,95.51269500000035,110.38476599999922,117.05126999999993,96.79492200000004,101.6665039999998,87.82031300000017,157.3076170000004,105.25634799999989,19.358886999999413,-22.820557000000008
183,169.48730499999965,38.0771479999994,55.897460999999566,-188.46142599999985,75.0,108.9741210000002,108.7177729999994,83.3334960000002,83.46142599999985,71.0258789999998,141.2822270000006,98.20507799999996,6.922852000000603,-39.10253899999998
184,167.82031300000017,43.974121000000196,57.82031300000017,-177.43579099999943,77.43603499999972,113.9741210000002,109.23095699999976,85.64111300000059,83.20507799999996,75.38476599999922,137.82031300000017,98.3334960000002,11.922852000000603,-38.71801800000003
185,181.79492200000004,70.64111300000059,73.84619099999964,-156.66674799999964,100.64111300000059,122.17968800000017,118.7177729999994,101.15380900000036,102.43603499999972,96.9228520000006,147.3076170000004,105.38476599999922,30.25634799999989,-23.205077999999958
186,199.48730499999965,100.64111300000059,92.17968800000017,-138.20507799999996,129.23095699999976,128.3334960000002,131.15380900000036,118.9741210000002,127.94873000000007,118.58984400000008,161.15380900000036,114.61523400000078,47.82031300000017,-4.230713000000378
187,206.79492200000004,114.61523400000078,100.38476599999922,-132.56420900000057,145.76904300000024,129.23095699999976,138.84619099999964,128.7177729999994,142.17968800000017,124.10253900000043,168.46142599999985,119.61523400000078,51.153809000000365,5.128418000000238
188,198.0771479999994,105.38476599999922,94.74365200000011,-139.7436520000001,144.10253900000043,125.25634799999989,138.0771479999994,126.9228520000006,136.53857400000015,111.15380900000036,163.46142599999985,117.17968800000017,37.56396500000028,-0.38476599999921746
189,178.84619099999964,82.56396500000028,81.79492200000004,-150.64111300000013,130.38476599999922,119.74365200000011,131.15380900000036,117.94873000000007,117.05126999999993,92.69238299999961,149.23095699999976,109.48730499999965,16.794922000000042,-15.769286999999622
190,161.53857400000015,64.61523400000078,72.43603499999972,-154.4870609999998,116.0258789999998,116.0258789999998,124.61523400000078,109.61523400000078,98.0771479999994,85.25634799999989,135.89746099999957,101.6665039999998,3.4614259999998467,-29.487060999999812
191,156.0258789999998,63.7177729999994,72.56396500000028,-148.20507799999996,109.61523400000078,115.38476599999922,124.48730499999965,107.82031300000017,91.41015599999992,94.87158199999976,132.05126999999993,98.3334960000002,5.512695000000349,-32.69238299999961
192,163.0771479999994,77.05126999999993,80.12841800000024,-137.820557,112.30761700000039,117.05126999999993,130.51269500000035,112.05126999999993,97.82031300000017,112.56396500000028,137.82031300000017,100.0,18.077147999999397,-25.769286999999622
193,174.23095699999976,91.15380900000036,88.0771479999994,-131.28198199999997,118.9741210000002,119.10253900000043,137.3076170000004,116.9228520000006,108.20507799999996,121.2822270000006,145.76904300000024,103.58984400000008,28.333496000000196,-16.923095999999987
194,179.7436520000001,93.7177729999994,90.64111300000059,-131.02563499999997,123.20507799999996,120.25634799999989,138.84619099999964,117.17968800000017,112.05126999999993,110.76904300000024,148.0771479999994,105.25634799999989,27.17968800000017,-13.71801800000003
195,176.9228520000006,84.48730499999965,87.82031300000017,-132.6923829999996,123.20507799999996,119.87158199999976,134.3588869999994,111.9228520000006,106.2822270000006,85.89746099999957,143.46142599999985,104.10253900000043,16.282227000000603,-16.794922000000042
196,170.38476599999922,73.0771479999994,84.48730499999965,-129.7436520000001,122.17968800000017,118.46142599999985,128.46142599999985,105.0,97.17968800000017,63.0771479999994,138.0771479999994,101.53857400000015,6.153809000000365,-20.89746100000002
197,165.89746099999957,68.9741210000002,84.48730499999965,-121.15380900000036,123.0771479999994,117.05126999999993,125.51269500000035,101.0258789999998,92.94873000000007,56.79492200000004,137.43603499999972,99.87158199999976,5.641113000000587,-21.025634999999966
198,164.7436520000001,73.20507799999996,87.56396500000028,-112.82055700000001,123.3334960000002,116.6665039999998,126.53857400000015,100.89746099999957,96.15380900000036,67.56396500000028,141.41015599999992,99.61523400000078,14.487304999999651,-17.30761700000039
199,163.84619099999964,79.23095699999976,89.74365200000011,-111.66674799999964,118.20507799999996,116.79492200000004,128.3334960000002,102.30761700000039,102.30761700000039,83.3334960000002,144.10253900000043,100.12841800000024,24.358886999999413,-14.358886999999868
200,160.0,80.76904300000024,87.30761700000039,-118.58984399999963,107.82031300000017,116.9228520000006,128.3334960000002,102.56396500000028,104.87158199999976,90.51269500000035,141.15380900000036,100.64111300000059,26.282227000000603,-15.641113000000132
201,153.9741210000002,76.79492200000004,80.51269500000035,-127.94872999999961,98.58984400000008,116.6665039999998,125.89746099999957,100.89746099999957,100.89746099999957,84.48730499999965,133.20507799999996,100.64111300000059,18.846190999999635,-20.769286999999622
202,148.9741210000002,70.89746099999957,73.20507799999996,-132.6923829999996,97.17968800000017,115.89746099999957,122.94873000000007,98.20507799999996,92.43603499999972,71.9228520000006,126.15380900000036,100.12841800000024,8.333496000000196,-26.538574000000153
203,147.94873000000007,66.6665039999998,70.25634799999989,-129.61547900000005,103.20507799999996,114.74365200000011,122.05126999999993,96.9228520000006,85.38476599999922,63.7177729999994,125.25634799999989,99.87158199999976,2.6923829999996087,-29.487060999999812
204,151.0258789999998,66.0258789999998,74.35888699999941,-120.64111300000013,111.15380900000036,112.94873000000007,124.23095699999976,99.23095699999976,83.9741210000002,67.56396500000028,132.43603499999972,100.89746099999957,6.282227000000603,-27.69238299999961
205,156.79492200000004,68.7177729999994,83.84619099999964,-111.15380900000036,115.51269500000035,111.6665039999998,128.58984400000008,105.0,89.35888699999941,83.3334960000002,144.87158199999976,103.3334960000002,17.43603499999972,-21.41015600000037
206,162.56396500000028,73.9741210000002,93.46142599999985,-104.8718259999996,115.64111300000059,111.6665039999998,132.82031300000017,112.30761700000039,99.23095699999976,102.69238299999961,155.89746099999957,106.2822270000006,31.410155999999915,-12.820557000000008
207,165.6411130000006,80.0,98.7177729999994,-101.79492200000004,113.9741210000002,113.3334960000002,134.87158199999976,117.82031300000017,109.74365200000011,115.0,159.3588869999994,108.3334960000002,42.43603499999972,-5.256347999999889
208,164.61523400000078,83.58984400000008,97.43603499999972,-99.48706099999981,112.17968800000017,115.51269500000035,134.10253900000043,119.23095699999976,117.69238299999961,113.3334960000002,154.3588869999994,108.20507799999996,46.9228520000006,-2.0512699999999313
209,160.0,82.82031300000017,91.2822270000006,-96.66674799999964,110.89746099999957,116.53857400000015,131.41015599999992,117.56396500000028,122.30761700000039,100.25634799999989,146.41015599999992,106.0258789999998,44.74365200000011,-3.5898440000000846
210,154.23095699999976,78.46142599999985,84.48730499999965,-94.61547900000005,111.9228520000006,115.51269500000035,128.84619099999964,117.05126999999993,123.9741210000002,87.43603499999972,144.23095699999976,103.46142599999985,39.74365200000011,-7.051270000000386
211,149.3588869999994,72.43603499999972,81.15380900000036,-94.8718259999996,116.15380900000036,113.9741210000002,127.43603499999972,121.0258789999998,123.84619099999964,85.64111300000059,152.3076170000004,102.43603499999972,36.025878999999804,-9.358886999999868
212,145.6411130000006,66.6665039999998,82.43603499999972,-97.30761700000039,120.76904300000024,113.46142599999985,126.9228520000006,128.0771479999994,122.05126999999993,96.15380900000036,166.53857400000015,103.46142599999985,35.64111300000059,-10.256347999999889
213,142.82031300000017,63.333496000000196,86.15380900000036,-99.48706099999981,120.51269500000035,114.61523400000078,126.9228520000006,133.46142599999985,120.51269500000035,110.25634799999989,177.82031300000017,105.0,38.0771479999994,-10.897461000000021
214,141.9228520000006,64.35888699999941,90.0,-97.43579099999943,113.46142599999985,116.79492200000004,128.3334960000002,134.10253900000043,122.56396500000028,118.84619099999964,179.87158199999976,105.38476599999922,43.20507799999996,-10.897461000000021
215,145.2563479999999,70.89746099999957,92.94873000000007,-90.1281740000004,103.46142599999985,118.7177729999994,132.05126999999993,131.15380900000036,130.12841800000024,119.48730499999965,172.43603499999972,104.48730499999965,50.64111300000059,-8.333252000000357
216,151.53857400000015,79.48730499999965,94.87158199999976,-79.8718259999996,97.69238299999961,119.61523400000078,136.15380900000036,126.9228520000006,139.3588869999994,115.89746099999957,160.2563479999999,103.46142599999985,57.82031300000017,-3.4614259999998467
217,155.6411130000006,84.74365200000011,94.74365200000011,-71.92309599999999,100.51269500000035,119.10253900000043,136.2822270000006,122.94873000000007,142.3076170000004,111.79492200000004,149.7436520000001,103.0771479999994,60.12841800000024,0.256347999999889
218,152.17968800000017,82.82031300000017,91.0258789999998,-70.64111300000013,109.23095699999976,118.3334960000002,130.12841800000024,118.46142599999985,132.94873000000007,107.94873000000007,144.23095699999976,103.46142599999985,54.48730499999965,-1.0258789999998044
219,141.6665039999998,75.38476599999922,84.61523400000078,-74.74365200000011,117.17968800000017,118.46142599999985,120.0,112.17968800000017,115.12841800000024,104.74365200000011,143.9741210000002,103.84619099999964,43.589844000000085,-7.692382999999609
220,131.0258789999998,68.9741210000002,80.38476599999922,-77.43579099999943,119.61523400000078,119.61523400000078,112.69238299999961,105.38476599999922,100.51269500000035,103.84619099999964,146.41015599999992,103.46142599999985,35.0,-14.743652000000111
221,128.0771479999994,68.84619099999964,82.69238299999961,-72.69238299999961,117.05126999999993,121.0258789999998,113.0771479999994,100.64111300000059,99.48730499999965,107.43603499999972,148.7177729999994,102.17968800000017,35.0,-16.41015600000037
222,133.84619099999964,74.10253900000043,91.0258789999998,-60.51293900000019,113.0771479999994,121.53857400000015,120.51269500000035,99.61523400000078,111.53857400000015,113.3334960000002,148.7177729999994,100.51269500000035,42.82031300000017,-11.666747999999643
223,141.2822270000006,79.61523400000078,99.61523400000078,-48.33325200000036,111.15380900000036,120.64111300000059,128.7177729999994,100.64111300000059,125.38476599999922,115.64111300000059,145.0,99.48730499999965,50.38476599999922,-5.641113000000132
224,141.53857400000015,80.25634799999989,101.53857400000015,-43.974365000000034,112.43603499999972,118.84619099999964,130.89746099999957,100.89746099999957,127.94873000000007,109.87158199999976,138.0771479999994,99.10253900000043,50.12841800000024,-4.871825999999601
225,131.53857400000015,76.2822270000006,95.38476599999922,-49.74365200000011,114.61523400000078,116.9228520000006,125.51269500000035,99.48730499999965,115.76904300000024,97.82031300000017,130.76904300000024,98.84619099999964,40.897460999999566,-11.923095999999987
226,116.53857400000015,71.41015599999992,85.12841800000024,-60.89746100000002,114.10253900000043,115.51269500000035,116.9228520000006,98.0771479999994,97.94873000000007,86.6665039999998,126.9228520000006,98.46142599999985,28.717772999999397,-22.435790999999426
227,105.51269500000035,69.74365200000011,77.30761700000039,-69.35888699999987,108.84619099999964,114.74365200000011,111.9228520000006,99.23095699999976,89.48730499999965,83.84619099999964,129.48730499999965,98.58984400000008,21.538574000000153,-29.487060999999812
228,104.48730499999965,72.05126999999993,76.79492200000004,-69.35888699999987,101.0258789999998,114.87158199999976,114.87158199999976,103.20507799999996,98.9741210000002,91.53857400000015,138.20507799999996,99.74365200000011,23.333496000000196,-28.076904000000013
229,112.69238299999961,76.41015599999992,83.84619099999964,-60.0,97.43603499999972,116.53857400000015,123.9741210000002,108.9741210000002,121.9228520000006,106.0258789999998,149.61523400000078,101.9228520000006,32.82031300000017,-18.71801800000003
230,123.58984400000008,80.12841800000024,94.74365200000011,-45.25634799999989,102.69238299999961,119.23095699999976,133.7177729999994,115.0,144.87158199999976,120.51269500000035,158.58984400000008,104.23095699999976,45.38476599999922,-6.794922000000042
231,129.87158199999976,80.76904300000024,103.20507799999996,-31.923095999999987,113.0771479999994,121.2822270000006,138.20507799999996,120.51269500000035,155.0,129.23095699999976,160.51269500000035,105.38476599999922,54.74365200000011,0.6411130000005869
232,127.69238299999961,77.69238299999961,103.9741210000002,-26.41015600000037,118.46142599999985,121.15380900000036,134.7436520000001,124.61523400000078,148.7177729999994,128.84619099999964,154.48730499999965,104.74365200000011,56.666503999999804,0.12841800000023795
233,118.9741210000002,72.56396500000028,96.53857400000015,-29.8718259999996,112.43603499999972,118.84619099999964,126.9228520000006,127.05126999999993,133.3334960000002,121.6665039999998,144.23095699999976,102.69238299999961,52.05126999999993,-6.281981999999971
234,110.25634799999989,68.9741210000002,87.17968800000017,-37.17944299999999,98.0771479999994,116.41015599999992,121.15380900000036,129.23095699999976,121.53857400000015,114.87158199999976,137.05126999999993,100.76904300000024,47.05126999999993,-11.28198199999997
235,107.17968800000017,69.61523400000078,83.3334960000002,-41.025634999999966,85.64111300000059,116.41015599999992,122.17968800000017,132.3076170000004,121.41015599999992,114.61523400000078,138.58984400000008,100.64111300000059,48.0771479999994,-9.358886999999868
236,110.12841800000024,73.58984400000008,87.43603499999972,-37.435790999999426,82.30761700000039,119.35888699999941,128.7177729999994,135.38476599999922,131.2822270000006,121.6665039999998,148.46142599999985,102.17968800000017,55.64111300000059,-1.0258789999998044
237,114.74365200000011,77.82031300000017,94.74365200000011,-29.74365200000011,88.3334960000002,123.3334960000002,134.7436520000001,135.51269500000035,141.2822270000006,130.0,160.0,103.9741210000002,64.23095699999976,7.43603499999972
238,116.15380900000036,80.38476599999922,98.9741210000002,-23.461425999999847,98.3334960000002,125.0,134.48730499999965,131.41015599999992,142.82031300000017,133.3334960000002,166.0258789999998,103.9741210000002,67.30761700000039,10.512695000000349
239,113.7177729999994,80.76904300000024,98.0771479999994,-21.41015600000037,106.9228520000006,122.56396500000028,127.82031300000017,125.51269500000035,135.2563479999999,129.3588869999994,163.9741210000002,102.17968800000017,64.10253900000043,7.43603499999972
240,110.51269500000035,79.23095699999976,94.74365200000011,-21.923095999999987,110.64111300000059,117.17968800000017,120.0,121.9228520000006,126.15380900000036,121.2822270000006,157.05126999999993,100.0,58.846190999999635,2.3076170000003913
241,109.48730499999965,76.53857400000015,93.46142599999985,-21.538574000000153,110.0,112.17968800000017,117.30761700000039,123.58984400000008,123.3334960000002,114.74365200000011,151.0258789999998,100.25634799999989,57.43603499999972,0.0
242,112.43603499999972,75.64111300000059,96.6665039999998,-17.820557000000008,107.94873000000007,110.64111300000059,121.9228520000006,129.7436520000001,130.12841800000024,114.48730499999965,150.12841800000024,103.9741210000002,62.30761700000039,3.077147999999397
243,119.48730499999965,81.41015599999992,104.87158199999976,-9.8718259999996,109.35888699999941,113.46142599999985,130.89746099999957,137.17968800000017,143.7177729999994,122.69238299999961,155.51269500000035,110.38476599999922,72.94873000000007,11.922852000000603
244,128.9741210000002,95.12841800000024,116.0258789999998,1.4101559999999154,115.89746099999957,117.94873000000007,138.7177729999994,142.17968800000017,157.6923829999996,136.53857400000015,165.38476599999922,116.41015599999992,85.25634799999989,24.358886999999413
245,136.6665039999998,110.25634799999989,124.87158199999976,11.666503999999804,122.05126999999993,120.89746099999957,140.51269500000035,140.76904300000024,163.84619099999964,147.17968800000017,174.7436520000001,118.84619099999964,92.94873000000007,34.48730499999965
246,136.0258789999998,115.25634799999989,125.25634799999989,14.871581999999762,117.69238299999961,120.38476599999922,134.10253900000043,130.51269500000035,155.89746099999957,144.48730499999965,176.79492200000004,115.76904300000024,89.74365200000011,35.38476599999922
247,125.0,104.74365200000011,115.76904300000024,8.974121000000196,99.74365200000011,116.9228520000006,121.9228520000006,113.46142599999985,134.61523400000078,126.41015599999992,167.05126999999993,108.7177729999994,75.76904300000024,25.128418000000238
248,109.35888699999941,86.41015599999992,102.43603499999972,-0.512695000000349,78.3334960000002,113.7177729999994,110.38476599999922,96.9228520000006,110.12841800000024,102.30761700000039,149.61523400000078,101.53857400000015,58.846190999999635,10.384765999999217
249,99.74365200000011,75.25634799999989,94.87158199999976,-4.230713000000378,70.0,113.46142599999985,106.79492200000004,89.87158199999976,96.6665039999998,87.82031300000017,135.76904300000024,97.82031300000017,49.87158199999976,1.9228520000006029
250,101.53857400000015,79.35888699999941,97.05126999999993,1.9228520000006029,82.82031300000017,116.2822270000006,112.69238299999961,95.51269500000035,101.6665039999998,90.76904300000024,134.23095699999976,98.7177729999994,53.20507799999996,5.641113000000587
251,110.38476599999922,92.56396500000028,104.23095699999976,13.333496000000196,108.3334960000002,119.48730499999965,122.82031300000017,108.3334960000002,119.35888699999941,105.89746099999957,143.46142599999985,101.79492200000004,63.0771479999994,17.05126999999993
252,116.79492200000004,101.2822270000006,108.3334960000002,21.153809000000365,129.10253900000043,120.0,129.23095699999976,118.9741210000002,135.89746099999957,121.2822270000006,153.3334960000002,103.7177729999994,69.61523400000078,25.641113000000587
253,114.74365200000011,98.20507799999996,105.89746099999957,20.51269500000035,133.3334960000002,117.17968800000017,128.20507799999996,121.9228520000006,140.12841800000024,128.58984400000008,155.38476599999922,103.20507799999996,68.84619099999964,25.0
254,106.9228520000006,86.9228520000006,99.10253900000043,12.948730000000069,121.9228520000006,113.84619099999964,122.69238299999961,119.10253900000043,131.15380900000036,127.56396500000028,148.58984400000008,101.53857400000015,64.23095699999976,16.922852000000603
255,100.0,77.05126999999993,92.82031300000017,5.256347999999889,105.25634799999989,112.56396500000028,118.46142599999985,115.76904300000024,117.43603499999972,122.30761700000039,138.9741210000002,100.38476599999922,61.79492200000004,8.077147999999397
256,99.35888699999941,75.51269500000035,90.64111300000059,3.9741210000001956,93.46142599999985,113.84619099999964,118.84619099999964,115.76904300000024,110.12841800000024,115.25634799999989,132.6923829999996,99.87158199999976,63.7177729999994,4.487304999999651
257,105.51269500000035,82.69238299999961,93.20507799999996,11.153809000000365,90.64111300000059,115.64111300000059,123.58984400000008,119.23095699999976,114.74365200000011,107.94873000000007,133.20507799999996,99.10253900000043,68.20507799999996,8.461425999999847
258,114.74365200000011,92.69238299999961,99.23095699999976,22.69238299999961,94.87158199999976,115.76904300000024,129.61523400000078,124.23095699999976,127.56396500000028,102.43603499999972,139.61523400000078,98.58984400000008,72.43603499999972,17.69238299999961
259,122.30761700000039,98.0771479999994,106.15380900000036,31.025878999999804,101.41015599999992,113.58984400000008,133.58984400000008,129.10253900000043,138.84619099999964,101.6665039999998,148.3334960000002,100.0,74.87158199999976,27.56396500000028
260,125.64111300000059,95.51269500000035,111.2822270000006,31.794922000000042,105.64111300000059,110.0,134.23095699999976,133.3334960000002,140.38476599999922,107.43603499999972,154.87158199999976,104.48730499999965,75.76904300000024,33.974121000000196
261,125.25634799999989,88.20507799999996,113.58984400000008,26.153809000000365,105.76904300000024,107.43603499999972,131.79492200000004,136.41015599999992,132.05126999999993,117.43603499999972,156.6665039999998,110.76904300000024,76.2822270000006,35.0
262,124.23095699999976,83.58984400000008,114.23095699999976,20.897460999999566,104.48730499999965,107.82031300000017,128.3334960000002,138.3334960000002,122.17968800000017,126.41015599999992,155.6411130000006,115.25634799999989,77.82031300000017,32.94873000000007
263,125.76904300000024,87.17968800000017,115.25634799999989,22.30761700000039,106.9228520000006,111.6665039999998,127.17968800000017,139.61523400000078,121.15380900000036,131.0258789999998,155.6411130000006,115.89746099999957,81.9228520000006,32.56396500000028
264,130.2563479999999,97.69238299999961,117.05126999999993,30.769043000000238,114.87158199999976,116.79492200000004,129.87158199999976,141.9228520000006,132.43603499999972,131.53857400000015,159.3588869999994,112.82031300000017,88.0771479999994,36.666503999999804
265,134.23095699999976,107.17968800000017,118.0771479999994,39.87158199999976,123.3334960000002,119.48730499999965,134.87158199999976,144.87158199999976,148.9741210000002,130.6411130000006,164.7436520000001,108.84619099999964,92.69238299999961,43.20507799999996
266,133.84619099999964,108.3334960000002,116.0258789999998,41.2822270000006,125.12841800000024,118.0771479999994,138.0771479999994,146.53857400000015,158.9741210000002,130.51269500000035,167.43603499999972,106.6665039999998,92.69238299999961,47.43603499999972
267,127.56396500000028,99.74365200000011,110.51269500000035,32.43603499999972,116.9228520000006,114.35888699999941,136.2822270000006,145.12841800000024,155.76904300000024,131.2822270000006,164.7436520000001,107.05126999999993,87.30761700000039,45.51269500000035
268,117.82031300000017,87.05126999999993,103.3334960000002,17.56396500000028,102.30761700000039,111.2822270000006,129.87158199999976,140.76904300000024,142.05126999999993,131.2822270000006,158.0771479999994,107.82031300000017,79.74365200000011,37.43603499999972
269,108.7177729999994,77.30761700000039,97.56396500000028,4.6152340000007825,87.30761700000039,110.38476599999922,121.9228520000006,135.0,126.2822270000006,128.20507799999996,151.15380900000036,106.2822270000006,73.3334960000002,27.30761700000039
270,104.10253900000043,74.10253900000043,95.51269500000035,-0.38476599999921746,77.43603499999972,111.0258789999998,116.6665039999998,130.6411130000006,116.9228520000006,121.9228520000006,146.53857400000015,101.6665039999998,70.51269500000035,20.384765999999217
271,106.9228520000006,78.7177729999994,99.61523400000078,4.6152340000007825,77.56396500000028,112.30761700000039,117.17968800000017,130.6411130000006,118.20507799999996,116.79492200000004,145.89746099999957,97.82031300000017,71.9228520000006,21.666503999999804
272,117.56396500000028,89.87158199999976,110.12841800000024,16.666503999999804,89.61523400000078,114.35888699999941,124.10253900000043,136.9228520000006,129.23095699999976,118.9741210000002,150.38476599999922,99.48730499999965,77.82031300000017,32.43603499999972
273,132.43603499999972,104.23095699999976,123.20507799999996,29.102539000000434,110.76904300000024,117.69238299999961,133.7177729999994,147.3076170000004,144.87158199999976,130.0,159.7436520000001,107.17968800000017,86.9228520000006,48.333496000000196
274,142.6923829999996,114.61523400000078,131.41015599999992,34.48730499999965,131.15380900000036,120.38476599999922,139.48730499999965,155.12841800000024,156.2822270000006,142.82031300000017,169.61523400000078,116.0258789999998,94.61523400000078,60.25634799999989
275,139.87158199999976,114.87158199999976,128.58984400000008,28.846190999999635,139.23095699999976,119.23095699999976,136.2822270000006,153.3334960000002,155.89746099999957,146.0258789999998,172.6923829999996,118.9741210000002,95.38476599999922,59.87158199999976
276,124.23095699999976,104.87158199999976,116.15380900000036,15.384765999999217,131.15380900000036,112.94873000000007,125.89746099999957,140.89746099999957,143.0771479999994,134.61523400000078,164.61523400000078,113.84619099999964,88.0771479999994,46.9228520000006
277,105.25634799999989,91.41015599999992,102.30761700000039,2.6923829999996087,114.10253900000043,105.12841800000024,115.51269500000035,125.38476599999922,125.76904300000024,115.51269500000035,149.7436520000001,105.25634799999989,77.82031300000017,30.897460999999566
278,95.64111300000059,83.46142599999985,96.2822270000006,-0.769043000000238,100.25634799999989,101.79492200000004,112.82031300000017,117.17968800000017,114.61523400000078,102.17968800000017,137.82031300000017,100.25634799999989,72.94873000000007,23.589844000000085
279,101.0258789999998,85.64111300000059,101.41015599999992,7.56396500000028,97.17968800000017,106.0258789999998,119.35888699999941,120.89746099999957,116.79492200000004,103.58984400000008,137.43603499999972,102.69238299999961,77.69238299999961,30.25634799999989
280,116.41015599999992,95.25634799999989,112.94873000000007,22.17968800000017,102.56396500000028,114.35888699999941,129.7436520000001,131.9228520000006,130.38476599999922,117.43603499999972,148.46142599999985,110.51269500000035,89.35888699999941,45.64111300000059
281,129.87158199999976,105.0,122.17968800000017,33.589844000000085,108.58984400000008,119.48730499999965,136.41015599999992,140.38476599999922,145.89746099999957,132.43603499999972,162.94873000000007,116.9228520000006,100.12841800000024,58.974121000000196
282,132.43603499999972,108.20507799999996,123.20507799999996,34.35888699999941,109.48730499999965,116.6665039999998,135.12841800000024,139.87158199999976,153.20507799999996,138.3334960000002,171.9228520000006,117.56396500000028,104.23095699999976,61.9228520000006
283,124.23095699999976,104.10253900000043,116.9228520000006,25.384765999999217,107.17968800000017,107.69238299999961,128.7177729999994,132.6923829999996,150.0,135.0,172.56396500000028,112.82031300000017,102.82031300000017,55.64111300000059
284,113.3334960000002,97.82031300000017,110.0,14.358886999999413,107.17968800000017,100.0,123.58984400000008,126.9228520000006,142.94873000000007,131.9228520000006,169.10253900000043,107.94873000000007,101.41015599999992,47.94873000000007
285,107.56396500000028,94.74365200000011,108.58984400000008,9.743652000000111,112.69238299999961,99.35888699999941,123.9741210000002,129.10253900000043,140.76904300000024,137.6923829999996,167.82031300000017,107.17968800000017,104.74365200000011,46.53857400000015
286,109.87158199999976,96.9228520000006,113.84619099999964,14.358886999999413,122.17968800000017,106.2822270000006,128.7177729999994,139.10253900000043,145.76904300000024,151.15380900000036,171.79492200000004,111.0258789999998,112.69238299999961,53.20507799999996
287,116.79492200000004,102.43603499999972,121.6665039999998,23.461425999999847,129.61523400000078,115.0,133.7177729999994,151.41015599999992,153.46142599999985,161.53857400000015,178.46142599999985,116.2822270000006,120.12841800000024,62.94873000000007
288,121.0258789999998,106.2822270000006,125.64111300000059,28.846190999999635,127.69238299999961,117.82031300000017,135.0,158.46142599999985,155.6411130000006,158.0771479999994,180.89746099999957,118.7177729999994,120.64111300000059,67.30761700000039
289,116.6665039999998,103.20507799999996,120.76904300000024,24.102539000000434,112.82031300000017,111.9228520000006,130.76904300000024,155.38476599999922,147.56396500000028,138.7177729999994,173.46142599999985,115.64111300000059,110.12841800000024,60.51269500000035
290,103.58984400000008,92.30761700000039,106.79492200000004,9.871581999999762,90.12841800000024,101.2822270000006,122.17968800000017,143.0771479999994,132.56396500000028,113.0771479999994,157.3076170000004,108.0771479999994,91.79492200000004,44.48730499999965
291,88.46142599999985,79.10253900000043,89.74365200000011,-6.281981999999971,72.30761700000039,94.48730499999965,113.0771479999994,128.58984400000008,120.51269500000035,96.6665039999998,141.6665039999998,100.0,75.38476599999922,28.974121000000196
292,80.51269500000035,73.3334960000002,78.84619099999964,-14.358886999999868,70.51269500000035,96.9228520000006,108.20507799999996,121.0258789999998,120.0,99.23095699999976,136.53857400000015,96.41015599999992,71.53857400000015,24.871581999999762
293,84.74365200000011,80.51269500000035,79.87158199999976,-9.230713000000378,86.9228520000006,107.43603499999972,110.12841800000024,125.0,132.3076170000004,118.0771479999994,144.3588869999994,99.35888699999941,82.69238299999961,35.12841800000024
294,96.79492200000004,96.41015599999992,91.15380900000036,5.769043000000238,112.05126999999993,118.7177729999994,117.69238299999961,137.56396500000028,149.87158199999976,141.15380900000036,157.43603499999972,106.0258789999998,99.87158199999976,51.410155999999915
295,106.9228520000006,110.51269500000035,104.48730499999965,21.282227000000603,132.6923829999996,123.84619099999964,126.2822270000006,150.76904300000024,162.17968800000017,155.76904300000024,164.61523400000078,111.41015599999992,109.35888699999941,61.025878999999804
296,107.94873000000007,113.9741210000002,111.9228520000006,29.102539000000434,140.0,121.2822270000006,131.41015599999992,157.56396500000028,163.7177729999994,157.6923829999996,161.2822270000006,112.43603499999972,104.61523400000078,57.17968800000017
297,101.41015599999992,106.2822270000006,110.51269500000035,27.17968800000017,133.7177729999994,114.61523400000078,131.41015599999992,156.53857400000015,157.17968800000017,151.41015599999992,153.7177729999994,109.74365200000011,92.05126999999993,44.87158199999976
298,94.61523400000078,93.9741210000002,104.10253900000043,20.25634799999989,119.48730499999965,109.48730499999965,127.56396500000028,151.15380900000036,149.7436520000001,144.23095699999976,152.56396500000028,107.17968800000017,85.0,36.2822270000006
299,94.74365200000011,84.87158199999976,98.9741210000002,14.743652000000111,104.61523400000078,109.23095699999976,122.43603499999972,145.6411130000006,146.79492200000004,139.3588869999994,162.94873000000007,107.56396500000028,93.0771479999994,40.64111300000059
300,104.10253900000043,83.46142599999985,98.9741210000002,14.487304999999651,94.61523400000078,112.94873000000007,117.82031300000017,142.3076170000004,148.20507799999996,136.2822270000006,180.0,111.2822270000006,115.12841800000024,57.17968800000017
301,118.46142599999985,88.20507799999996,104.10253900000043,18.333496000000196,91.53857400000015,117.82031300000017,115.0,141.6665039999998,150.12841800000024,134.87158199999976,193.7177729999994,116.0258789999998,141.9228520000006,77.82031300000017
302,131.53857400000015,94.35888699999941,111.0258789999998,22.94873000000007,94.48730499999965,120.76904300000024,114.48730499999965,143.46142599999985,150.12841800000024,137.3076170000004,197.6923829999996,119.10253900000043,163.84619099999964,93.7177729999994
303,139.23095699999976,96.41015599999992,116.53857400000015,24.871581999999762,100.64111300000059,120.76904300000024,116.2822270000006,146.6665039999998,148.84619099999964,145.12841800000024,194.87158199999976,119.48730499999965,177.43603499999972,102.05126999999993
304,142.3076170000004,91.79492200000004,118.84619099999964,24.48730499999965,106.6665039999998,118.84619099999964,119.35888699999941,150.38476599999922,149.48730499999965,156.15380900000036,194.87158199999976,118.9741210000002,185.51269500000035,105.76904300000024
305,144.7436520000001,81.41015599999992,118.84619099999964,23.974121000000196,108.9741210000002,116.6665039999998,122.69238299999961,154.23095699999976,153.58984400000008,164.7436520000001,205.12841800000024,120.12841800000024,193.0771479999994,110.25634799999989
306,149.10253900000043,68.84619099999964,117.43603499999972,25.384765999999217,104.87158199999976,116.0258789999998,124.87158199999976,156.79492200000004,159.61523400000078,166.15380900000036,224.23095699999976,123.46142599999985,202.82031300000017,117.05126999999993
307,153.7177729999994,57.69238299999961,114.87158199999976,27.30761700000039,93.84619099999964,116.9228520000006,124.23095699999976,156.53857400000015,163.20507799999996,160.2563479999999,241.6665039999998,126.79492200000004,212.43603499999972,122.82031300000017
308,153.20507799999996,48.974121000000196,110.38476599999922,26.666503999999804,79.10253900000043,118.0771479999994,120.0,151.79492200000004,161.41015599999992,151.9228520000006,246.6665039999998,126.6665039999998,216.9228520000006,122.30761700000039
309,146.0258789999998,43.46142599999985,105.25634799999989,22.69238299999961,69.48730499999965,118.3334960000002,113.9741210000002,144.48730499999965,155.76904300000024,147.3076170000004,237.43603499999972,122.82031300000017,214.7436520000001,115.51269500000035
310,138.58984400000008,44.23095699999976,104.10253900000043,20.384765999999217,74.61523400000078,117.94873000000007,111.0258789999998,140.2563479999999,152.56396500000028,151.2822270000006,224.48730499999965,119.23095699999976,211.41015599999992,109.48730499999965
311,139.48730499999965,53.846190999999635,110.76904300000024,26.025878999999804,95.76904300000024,118.0771479999994,115.25634799999989,144.61523400000078,158.3334960000002,164.3588869999994,221.6665039999998,121.0258789999998,215.0,112.82031300000017
312,150.38476599999922,68.9741210000002,122.56396500000028,40.12841800000024,121.0258789999998,118.84619099999964,124.87158199999976,155.6411130000006,171.41015599999992,180.51269500000035,231.53857400000015,127.94873000000007,225.76904300000024,124.87158199999976
313,161.6665039999998,78.84619099999964,130.76904300000024,54.61523400000078,132.17968800000017,119.23095699999976,132.6923829999996,164.48730499999965,182.17968800000017,188.84619099999964,243.58984400000008,134.3588869999994,234.7436520000001,135.2563479999999
314,162.3076170000004,75.0,128.46142599999985,59.35888699999941,120.38476599999922,117.43603499999972,132.43603499999972,163.0771479999994,181.15380900000036,181.9228520000006,244.87158199999976,133.9741210000002,232.17968800000017,133.3334960000002
315,150.51269500000035,59.87158199999976,118.0771479999994,52.69238299999961,95.0,114.23095699999976,125.12841800000024,152.82031300000017,167.6923829999996,162.56396500000028,233.0771479999994,126.79492200000004,218.20507799999996,119.10253900000043
316,136.15380900000036,47.05126999999993,109.74365200000011,41.9228520000006,76.6665039999998,111.9228520000006,118.3334960000002,143.84619099999964,151.41015599999992,142.6923829999996,219.10253900000043,119.23095699999976,203.84619099999964,103.9741210000002
317,130.12841800000024,47.82031300000017,111.0258789999998,36.2822270000006,78.46142599999985,112.56396500000028,118.7177729999994,145.38476599999922,143.3334960000002,135.6411130000006,215.0,117.69238299999961,199.61523400000078,99.74365200000011
318,134.23095699999976,60.64111300000059,119.61523400000078,37.94873000000007,95.64111300000059,115.51269500000035,125.89746099999957,155.89746099999957,147.43603499999972,144.48730499999965,222.56396500000028,122.30761700000039,205.76904300000024,107.43603499999972
319,139.61523400000078,72.05126999999993,125.12841800000024,41.025878999999804,110.64111300000059,118.0771479999994,132.6923829999996,164.3588869999994,156.6665039999998,160.2563479999999,230.89746099999957,127.69238299999961,212.05126999999993,117.05126999999993
320,136.79492200000004,69.74365200000011,119.35888699999941,38.20507799999996,110.25634799999989,118.0771479999994,132.3076170000004,160.2563479999999,160.6411130000006,169.61523400000078,228.0771479999994,127.69238299999961,208.20507799999996,116.53857400000015
321,124.10253900000043,53.46142599999985,103.9741210000002,28.974121000000196,96.2822270000006,116.0258789999998,124.61523400000078,144.23095699999976,154.7436520000001,165.6411130000006,212.56396500000028,121.79492200000004,193.58984400000008,103.84619099999964
322,108.9741210000002,34.35888699999941,89.48730499999965,20.25634799999989,81.41015599999992,114.10253900000043,115.25634799999989,126.53857400000015,142.94873000000007,152.43603499999972,194.87158199999976,115.0,177.05126999999993,87.17968800000017
323,100.51269500000035,24.871581999999762,85.25634799999989,20.384765999999217,76.9228520000006,113.9741210000002,109.74365200000011,118.3334960000002,134.23095699999976,139.61523400000078,187.3076170000004,111.79492200000004,168.20507799999996,77.17968800000017
324,102.30761700000039,29.615234000000783,92.56396500000028,31.025878999999804,83.84619099999964,115.12841800000024,109.74365200000011,122.82031300000017,133.84619099999964,134.23095699999976,193.46142599999985,113.3334960000002,170.0,78.3334960000002
325,110.76904300000024,43.333496000000196,104.87158199999976,46.153809000000365,94.48730499999965,116.6665039999998,112.82031300000017,135.0,140.51269500000035,137.43603499999972,205.6411130000006,116.79492200000004,177.6923829999996,87.05126999999993
326,118.7177729999994,56.53857400000015,113.58984400000008,55.76904300000024,100.38476599999922,117.05126999999993,115.76904300000024,146.53857400000015,148.3334960000002,145.2563479999999,212.82031300000017,118.9741210000002,184.87158199999976,95.76904300000024
327,121.9228520000006,63.0771479999994,114.74365200000011,54.35888699999941,100.25634799999989,116.2822270000006,117.17968800000017,152.05126999999993,153.3334960000002,152.82031300000017,210.76904300000024,118.46142599999985,188.84619099999964,99.48730499999965
328,121.53857400000015,63.7177729999994,111.41015599999992,44.61523400000078,98.84619099999964,114.87158199999976,119.10253900000043,152.6923829999996,156.15380900000036,158.3334960000002,205.0,117.82031300000017,191.41015599999992,99.48730499999965
329,121.6665039999998,62.82031300000017,109.61523400000078,35.0,100.38476599999922,113.7177729999994,123.46142599999985,152.6923829999996,159.61523400000078,162.17968800000017,203.9741210000002,119.61523400000078,195.51269500000035,100.0
330,123.7177729999994,62.94873000000007,111.79492200000004,32.94873000000007,103.0771479999994,113.46142599999985,129.3588869999994,154.7436520000001,164.23095699999976,164.10253900000043,209.7436520000001,123.9741210000002,200.51269500000035,103.46142599999985
331,125.76904300000024,62.82031300000017,115.12841800000024,37.94873000000007,102.05126999999993,113.9741210000002,132.56396500000028,156.9228520000006,166.6665039999998,162.43603499999972,216.53857400000015,127.43603499999972,202.3076170000004,107.56396500000028
332,124.74365200000011,60.51269500000035,115.0,44.102539000000434,95.38476599999922,114.48730499999965,129.87158199999976,156.15380900000036,163.7177729999994,155.89746099999957,217.17968800000017,126.9228520000006,197.6923829999996,108.46142599999985
333,120.76904300000024,57.05126999999993,110.25634799999989,45.897460999999566,87.43603499999972,115.12841800000024,122.82031300000017,151.6665039999998,156.2822270000006,147.05126999999993,210.76904300000024,122.30761700000039,188.46142599999985,105.38476599999922
334,116.53857400000015,55.38476599999922,103.9741210000002,42.82031300000017,84.10253900000043,116.15380900000036,116.6665039999998,146.53857400000015,149.23095699999976,141.6665039999998,202.6923829999996,117.05126999999993,180.76904300000024,100.51269500000035
335,113.7177729999994,55.897460999999566,99.23095699999976,37.82031300000017,85.51269500000035,117.56396500000028,114.74365200000011,144.3588869999994,146.15380900000036,142.82031300000017,197.56396500000028,114.35888699999941,178.58984400000008,96.0258789999998
336,110.76904300000024,54.61523400000078,96.53857400000015,33.846190999999635,86.2822270000006,118.58984400000008,115.76904300000024,145.2563479999999,146.53857400000015,148.3334960000002,194.3588869999994,114.61523400000078,180.2563479999999,91.6665039999998
337,106.15380900000036,48.846190999999635,95.25634799999989,32.82031300000017,82.94873000000007,118.7177729999994,117.17968800000017,147.56396500000028,147.82031300000017,152.56396500000028,190.76904300000024,116.2822270000006,181.41015599999992,87.05126999999993
338,102.43603499999972,42.69238299999961,96.15380900000036,36.410155999999915,79.87158199999976,118.58984400000008,119.10253900000043,151.79492200000004,150.51269500000035,153.20507799999996,188.20507799999996,118.58984400000008,180.6411130000006,85.25634799999989
339,105.38476599999922,45.38476599999922,102.56396500000028,45.897460999999566,85.12841800000024,119.23095699999976,124.23095699999976,160.12841800000024,158.3334960000002,153.58984400000008,192.94873000000007,122.56396500000028,181.53857400000015,91.15380900000036
340,117.56396500000028,61.666503999999804,115.0,58.846190999999635,100.0,120.64111300000059,133.9741210000002,172.94873000000007,173.58984400000008,159.10253900000043,208.0771479999994,128.7177729999994,187.56396500000028,105.38476599999922
341,132.82031300000017,83.0771479999994,128.20507799999996,68.9741210000002,115.25634799999989,121.53857400000015,144.48730499999965,185.12841800000024,190.89746099999957,169.87158199999976,226.2822270000006,135.0,196.53857400000015,121.2822270000006
342,139.3588869999994,93.3334960000002,133.3334960000002,69.61523400000078,118.9741210000002,120.38476599999922,148.84619099999964,187.94873000000007,198.84619099999964,178.9741210000002,233.58984400000008,137.05126999999993,201.0258789999998,127.17968800000017
343,129.87158199999976,81.53857400000015,125.51269500000035,59.35888699999941,108.3334960000002,117.43603499999972,142.82031300000017,176.79492200000004,189.10253900000043,177.6923829999996,220.38476599999922,132.43603499999972,194.7436520000001,116.2822270000006
344,109.23095699999976,54.102539000000434,109.35888699999941,43.7177729999994,93.0771479999994,115.0,129.48730499999965,157.17968800000017,165.38476599999922,163.9741210000002,192.82031300000017,123.7177729999994,180.0,94.23095699999976
345,91.9228520000006,31.025878999999804,96.0258789999998,33.20507799999996,86.79492200000004,115.12841800000024,117.30761700000039,142.43603499999972,142.94873000000007,146.41015599999992,169.10253900000043,116.79492200000004,167.05126999999993,76.2822270000006
346,90.25634799999989,29.615234000000783,95.25634799999989,35.64111300000059,93.7177729999994,117.69238299999961,114.74365200000011,142.17968800000017,137.05126999999993,136.9228520000006,165.6411130000006,116.79492200000004,165.38476599999922,75.38476599999922
347,103.46142599999985,49.102539000000434,106.9228520000006,49.102539000000434,105.38476599999922,120.64111300000059,123.0771479999994,154.23095699999976,150.38476599999922,140.76904300000024,182.6923829999996,123.0771479999994,174.61523400000078,90.12841800000024
348,119.23095699999976,72.17968800000017,121.41015599999992,63.333496000000196,108.84619099999964,121.2822270000006,135.0,166.79492200000004,170.76904300000024,152.3076170000004,204.10253900000043,130.38476599999922,184.48730499999965,107.17968800000017
349,124.10253900000043,80.38476599999922,128.20507799999996,68.3334960000002,99.87158199999976,118.84619099999964,140.76904300000024,169.10253900000043,181.15380900000036,161.0258789999998,211.6665039999998,132.82031300000017,184.3588869999994,112.17968800000017
350,115.38476599999922,69.74365200000011,124.48730499999965,61.2822270000006,86.6665039999998,115.25634799999989,136.6665039999998,160.12841800000024,174.3588869999994,160.2563479999999,199.61523400000078,129.87158199999976,173.20507799999996,102.69238299999961
351,102.56396500000028,52.43603499999972,116.15380900000036,49.102539000000434,82.94873000000007,113.20507799999996,127.56396500000028,148.84619099999964,157.17968800000017,152.3076170000004,178.9741210000002,126.41015599999992,160.2563479999999,88.46142599999985
352,97.43603499999972,44.87158199999976,112.17968800000017,41.410155999999915,93.84619099999964,114.35888699999941,122.43603499999972,144.87158199999976,144.10253900000043,144.61523400000078,166.79492200000004,126.6665039999998,155.51269500000035,82.43603499999972
353,104.23095699999976,52.69238299999961,116.0258789999998,43.20507799999996,111.53857400000015,117.43603499999972,126.0258789999998,150.51269500000035,144.61523400000078,142.82031300000017,171.15380900000036,130.6411130000006,161.79492200000004,89.48730499999965
354,116.53857400000015,68.0771479999994,123.46142599999985,51.2822270000006,122.30761700000039,119.35888699999941,135.0,160.12841800000024,155.89746099999957,147.3076170000004,186.0258789999998,134.10253900000043,172.56396500000028,103.46142599999985
355,124.48730499999965,78.7177729999994,127.43603499999972,58.974121000000196,119.35888699999941,118.7177729999994,142.17968800000017,166.41015599999992,167.05126999999993,154.23095699999976,198.3334960000002,133.3334960000002,179.23095699999976,113.7177729999994
356,123.84619099999964,79.74365200000011,125.76904300000024,61.9228520000006,109.35888699999941,116.6665039999998,142.94873000000007,166.9228520000006,170.12841800000024,160.6411130000006,200.76904300000024,128.58984400000008,178.58984400000008,114.87158199999976
357,118.9741210000002,76.41015599999992,121.9228520000006,61.53857400000015,104.35888699999941,116.15380900000036,138.84619099999964,165.0,166.15380900000036,165.51269500000035,196.53857400000015,123.58984400000008,174.10253900000043,109.74365200000011
358,116.41015599999992,77.05126999999993,120.64111300000059,60.51269500000035,109.23095699999976,117.69238299999961,134.48730499999965,164.3588869999994,162.43603499999972,167.94873000000007,192.94873000000007,122.17968800000017,171.2822270000006,105.12841800000024
359,118.0771479999994,83.20507799999996,122.30761700000039,59.61523400000078,116.2822270000006,119.35888699999941,133.0771479999994,165.12841800000024,163.46142599999985,165.6411130000006,191.41015599999992,124.61523400000078,171.41015599999992,104.23095699999976
360,119.35888699999941,88.20507799999996,123.20507799999996,56.9228520000006,114.74365200000011,119.23095699999976,133.9741210000002,163.0771479999994,166.15380900000036,156.2822270000006,187.3076170000004,127.43603499999972,171.0258789999998,104.23095699999976
361,114.35888699999941,83.7177729999994,119.61523400000078,51.2822270000006,101.53857400000015,117.94873000000007,133.3334960000002,154.48730499999965,163.84619099999964,140.0,175.89746099999957,126.41015599999992,165.6411130000006,100.38476599999922
362,102.43603499999972,68.9741210000002,111.41015599999992,44.102539000000434,84.48730499999965,117.17968800000017,128.0771479999994,140.76904300000024,152.82031300000017,122.05126999999993,159.23095699999976,120.76904300000024,155.38476599999922,91.6665039999998
363,88.58984400000008,51.9228520000006,102.56396500000028,38.589844000000085,75.38476599999922,118.46142599999985,119.23095699999976,128.3334960000002,136.9228520000006,110.0,145.76904300000024,113.58984400000008,144.87158199999976,82.30761700000039
364,80.51269500000035,43.589844000000085,97.82031300000017,37.82031300000017,80.76904300000024,121.2822270000006,111.2822270000006,123.9741210000002,125.64111300000059,110.51269500000035,142.82031300000017,109.35888699999941,140.6411130000006,78.84619099999964
365,81.9228520000006,49.102539000000434,98.9741210000002,42.43603499999972,96.53857400000015,124.61523400000078,109.10253900000043,130.0,126.6665039999998,123.58984400000008,150.89746099999957,110.12841800000024,145.2563479999999,83.84619099999964
366,90.64111300000059,64.74365200000011,104.23095699999976,50.12841800000024,112.43603499999972,127.17968800000017,113.84619099999964,141.41015599999992,140.0,143.3334960000002,163.84619099999964,113.7177729999994,155.51269500000035,93.84619099999964
367,100.12841800000024,81.79492200000004,109.74365200000011,57.56396500000028,119.35888699999941,128.20507799999996,122.56396500000028,150.76904300000024,158.3334960000002,160.51269500000035,174.7436520000001,116.79492200000004,165.2563479999999,101.9228520000006
368,105.64111300000059,93.20507799999996,112.82031300000017,62.69238299999961,117.05126999999993,127.82031300000017,130.6411130000006,153.20507799999996,171.15380900000036,168.0771479999994,180.2563479999999,117.43603499999972,171.0258789999998,104.23095699999976
369,107.69238299999961,97.94873000000007,114.23095699999976,66.15380900000036,112.43603499999972,127.17968800000017,134.7436520000001,150.0,172.17968800000017,165.2563479999999,181.2822270000006,116.6665039999998,173.7177729999994,102.69238299999961
370,109.23095699999976,98.46142599999985,115.89746099999957,69.87158199999976,112.56396500000028,126.2822270000006,134.61523400000078,145.2563479999999,161.53857400000015,156.2822270000006,180.38476599999922,116.2822270000006,176.15380900000036,102.05126999999993
371,111.2822270000006,96.79492200000004,117.56396500000028,73.46142599999985,117.69238299999961,124.87158199999976,131.41015599999992,141.2822270000006,144.87158199999976,146.15380900000036,178.0771479999994,117.17968800000017,178.3334960000002,104.10253900000043
372,111.53857400000015,92.30761700000039,117.17968800000017,74.23095699999976,120.64111300000059,121.9228520000006,126.53857400000015,137.6923829999996,129.61523400000078,137.05126999999993,173.9741210000002,118.3334960000002,176.79492200000004,106.0258789999998
373,106.9228520000006,84.48730499999965,113.20507799999996,70.38476599999922,113.9741210000002,117.82031300000017,121.9228520000006,132.94873000000007,120.12841800000024,128.0771479999994,168.3334960000002,118.46142599999985,168.84619099999964,103.84619099999964
374,97.69238299999961,74.35888699999941,106.9228520000006,63.46142599999985,97.05126999999993,114.48730499999965,118.46142599999985,127.05126999999993,116.53857400000015,117.94873000000007,163.20507799999996,116.9228520000006,155.6411130000006,96.15380900000036
375,87.82031300000017,65.38476599999922,102.05126999999993,59.35888699999941,77.82031300000017,114.61523400000078,116.6665039999998,121.0258789999998,116.15380900000036,107.82031300000017,160.0,114.74365200000011,142.56396500000028,86.53857400000015
376,83.46142599999985,61.2822270000006,102.05126999999993,62.94873000000007,67.69238299999961,118.84619099999964,116.0258789999998,116.53857400000015,116.6665039999998,101.2822270000006,159.61523400000078,113.46142599999985,136.2822270000006,81.2822270000006
377,88.20507799999996,63.333496000000196,106.9228520000006,74.74365200000011,72.69238299999961,125.64111300000059,116.0258789999998,113.58984400000008,117.56396500000028,101.79492200000004,160.89746099999957,114.35888699999941,140.12841800000024,84.23095699999976
378,100.0,70.51269500000035,113.9741210000002,89.10253900000043,89.10253900000043,131.2822270000006,116.53857400000015,112.30761700000039,118.9741210000002,109.74365200000011,162.82031300000017,117.30761700000039,152.17968800000017,94.23095699999976
379,113.58984400000008,80.12841800000024,119.23095699999976,99.61523400000078,106.9228520000006,132.94873000000007,117.94873000000007,113.3334960000002,121.0258789999998,122.17968800000017,164.7436520000001,120.64111300000059,166.2822270000006,106.53857400000015
380,123.9741210000002,89.74365200000011,121.2822270000006,103.20507799999996,118.20507799999996,131.15380900000036,120.25634799999989,117.82031300000017,123.7177729999994,134.10253900000043,167.6923829999996,122.43603499999972,176.6665039999998,116.15380900000036
381,129.10253900000043,97.56396500000028,121.2822270000006,101.6665039999998,120.64111300000059,128.7177729999994,122.94873000000007,125.51269500000035,127.30761700000039,140.6411130000006,172.3076170000004,122.69238299999961,180.2563479999999,121.0258789999998
382,129.10253900000043,102.17968800000017,120.25634799999989,97.69238299999961,116.2822270000006,127.94873000000007,124.35888699999941,133.0771479999994,131.2822270000006,139.87158199999976,176.15380900000036,122.05126999999993,177.43603499999972,121.53857400000015
383,124.35888699999941,101.9228520000006,117.94873000000007,93.0771479999994,108.9741210000002,128.46142599999985,123.0771479999994,136.0258789999998,133.3334960000002,133.7177729999994,175.2563479999999,121.9228520000006,170.2563479999999,118.7177729999994
