,EEG.AF3,EEG.F7,EEG.F3,EEG.FC5,EEG.T7,EEG.P7,EEG.O1,EEG.O2,EEG.P8,EEG.T8,EEG.FC6,EEG.F4,EEG.F8,EEG.AF4
0,87.05126999999993,133.3334960000002,141.15380900000036,479.87158199999976,76.6665039999998,102.56396500000028,115.76904300000024,120.51269500000035,129.61523400000078,157.17968800000017,106.9228520000006,100.64111300000059,228.58984400000008,632.8203130000002
1,92.82031300000017,144.48730499999965,146.2822270000006,471.0258789999998,85.25634799999989,104.23095699999976,115.38476599999922,121.0258789999998,130.6411130000006,155.76904300000024,105.76904300000024,100.12841800000024,232.17968800000017,629.7436520000001
2,99.10253900000043,152.17968800000017,153.58984400000008,470.0,92.56396500000028,105.38476599999922,115.51269500000035,121.41015599999992,128.0771479999994,154.10253900000043,107.43603499999972,102.94873000000007,235.38476599999922,628.8461909999996
3,102.94873000000007,153.7177729999994,160.12841800000024,475.6411130000006,95.12841800000024,104.61523400000078,116.6665039999998,125.0,128.84619099999964,158.3334960000002,111.2822270000006,107.69238299999961,239.87158199999976,628.7177729999994
4,102.17968800000017,149.3588869999994,161.9228520000006,478.3334960000002,91.0258789999998,102.30761700000039,116.9228520000006,130.76904300000024,134.7436520000001,167.56396500000028,113.46142599999985,110.64111300000059,244.3588869999994,625.3847659999992
5,98.20507799999996,142.17968800000017,157.56396500000028,468.84619099999964,83.7177729999994,100.38476599999922,114.74365200000011,135.12841800000024,143.0771479999994,176.41015599999992,111.41015599999992,109.48730499999965,247.43603499999972,618.3334960000002
6,97.17968800000017,137.05126999999993,150.51269500000035,446.79492200000004,79.23095699999976,100.76904300000024,111.53857400000015,136.2822270000006,150.0,181.15380900000036,107.05126999999993,106.15380900000036,249.48730499999965,612.6923829999996
7,103.3334960000002,136.6665039999998,146.0258789999998,422.05126999999993,81.6665039999998,103.7177729999994,110.12841800000024,136.0258789999998,153.0771479999994,182.17968800000017,104.10253900000043,104.23095699999976,251.53857400000015,614.2309569999998
8,114.74365200000011,139.7436520000001,146.15380900000036,405.76904300000024,87.69238299999961,107.56396500000028,112.17968800000017,136.15380900000036,152.43603499999972,181.6665039999998,104.61523400000078,105.76904300000024,252.94873000000007,622.3076170000004
9,123.7177729999994,141.79492200000004,148.9741210000002,402.82031300000017,90.12841800000024,109.61523400000078,115.64111300000059,136.53857400000015,148.20507799999996,179.7436520000001,106.15380900000036,108.7177729999994,251.53857400000015,629.3588869999994
10,124.10253900000043,139.23095699999976,150.6411130000006,408.5898440000001,84.48730499999965,108.3334960000002,116.53857400000015,134.7436520000001,140.38476599999922,174.87158199999976,104.87158199999976,110.12841800000024,246.2822270000006,628.0771479999994
11,116.0258789999998,132.3076170000004,149.3588869999994,414.10253900000043,74.10253900000043,104.23095699999976,112.69238299999961,128.7177729999994,129.87158199999976,165.76904300000024,98.58984400000008,107.94873000000007,239.61523400000078,616.794922
12,104.61523400000078,124.74365200000011,146.41015599999992,412.5639650000003,66.53857400000015,100.0,105.51269500000035,119.87158199999976,119.48730499999965,154.87158199999976,90.38476599999922,103.58984400000008,235.6411130000006,600.0
13,95.76904300000024,120.25634799999989,144.3588869999994,404.7436520000001,67.56396500000028,97.69238299999961,99.35888699999941,111.53857400000015,112.56396500000028,147.43603499999972,84.48730499999965,99.87158199999976,236.0258789999998,584.2309569999998
14,92.56396500000028,119.87158199999976,143.46142599999985,398.0771479999994,75.89746099999957,98.46142599999985,97.56396500000028,107.17968800000017,110.89746099999957,146.0258789999998,82.94873000000007,99.35888699999941,237.56396500000028,573.8461909999996
15,94.61523400000078,122.94873000000007,143.20507799999996,400.76904300000024,85.0,100.76904300000024,100.0,106.41015599999992,112.82031300000017,148.58984400000008,83.84619099999964,101.2822270000006,233.84619099999964,568.4614259999998
16,99.23095699999976,127.05126999999993,143.58984400000008,414.10253900000043,87.94873000000007,102.43603499999972,103.84619099999964,105.76904300000024,114.23095699999976,148.9741210000002,84.23095699999976,103.0771479999994,221.53857400000015,565.3847659999992
17,103.3334960000002,130.12841800000024,144.7436520000001,431.15380900000036,82.43603499999972,102.43603499999972,105.64111300000059,102.43603499999972,111.79492200000004,143.7177729999994,83.0771479999994,102.69238299999961,203.7177729999994,562.0512699999999
18,106.15380900000036,130.89746099999957,146.9228520000006,442.82031300000017,72.82031300000017,101.15380900000036,104.74365200000011,96.9228520000006,106.41015599999992,135.2563479999999,82.05126999999993,101.0258789999998,189.10253900000043,558.0771479999994
19,108.20507799999996,129.3588869999994,150.51269500000035,445.6411130000006,66.9228520000006,100.0,102.94873000000007,93.20507799999996,101.6665039999998,130.38476599999922,83.0771479999994,100.89746099999957,184.61523400000078,555.0
20,110.25634799999989,127.56396500000028,154.87158199999976,443.7177729999994,69.74365200000011,99.61523400000078,102.43603499999972,94.10253900000043,101.6665039999998,133.7177729999994,85.38476599999922,104.35888699999941,189.48730499999965,552.4360349999997
21,110.89746099999957,126.53857400000015,158.3334960000002,443.84619099999964,78.3334960000002,99.61523400000078,103.7177729999994,98.20507799999996,106.2822270000006,143.0771479999994,85.89746099999957,109.74365200000011,195.51269500000035,546.6665039999998
22,107.05126999999993,125.51269500000035,157.94873000000007,447.82031300000017,84.23095699999976,99.23095699999976,104.48730499999965,101.41015599999992,111.6665039999998,151.2822270000006,81.6665039999998,113.0771479999994,193.58984400000008,532.5639650000003
23,97.56396500000028,123.58984400000008,153.0771479999994,451.53857400000015,82.05126999999993,98.46142599999985,102.69238299999961,101.2822270000006,114.23095699999976,152.94873000000007,73.58984400000008,111.2822270000006,181.53857400000015,509.3588869999994
24,86.0258789999998,121.2822270000006,145.76904300000024,449.23095699999976,73.9741210000002,98.20507799999996,98.9741210000002,99.48730499999965,114.35888699999941,148.9741210000002,66.41015599999992,105.12841800000024,165.6411130000006,480.6411130000006
25,78.58984400000008,119.61523400000078,139.7436520000001,439.10253900000043,68.3334960000002,99.10253900000043,96.15380900000036,100.12841800000024,114.74365200000011,144.87158199999976,63.974121000000196,99.10253900000043,155.38476599999922,449.23095699999976
26,78.0771479999994,118.58984400000008,136.2822270000006,424.87158199999976,70.64111300000059,100.89746099999957,96.53857400000015,104.61523400000078,116.41015599999992,145.0,65.76904300000024,96.2822270000006,155.0,410.89746099999957
27,82.69238299999961,116.79492200000004,134.10253900000043,412.94873000000007,78.9741210000002,102.43603499999972,100.0,110.89746099999957,118.20507799999996,148.9741210000002,67.82031300000017,97.17968800000017,160.6411130000006,359.10253900000043
28,89.10253900000043,113.46142599999985,132.05126999999993,408.9741210000002,86.9228520000006,103.84619099999964,104.61523400000078,115.89746099999957,118.3334960000002,152.82031300000017,67.69238299999961,99.61523400000078,164.87158199999976,293.3334960000002
29,97.69238299999961,110.76904300000024,131.15380900000036,414.7436520000001,90.51269500000035,105.89746099999957,108.9741210000002,118.7177729999994,117.56396500000028,152.82031300000017,66.6665039999998,101.9228520000006,163.84619099999964,224.87158199999976
30,112.17968800000017,112.94873000000007,133.58984400000008,425.3847659999992,90.76904300000024,109.35888699999941,112.69238299999961,121.41015599999992,118.58984400000008,149.10253900000043,67.69238299999961,103.20507799999996,159.7436520000001,168.58984400000008
31,136.15380900000036,120.89746099999957,139.3588869999994,432.82031300000017,92.17968800000017,113.84619099999964,116.15380900000036,124.61523400000078,122.56396500000028,145.51269500000035,70.76904300000024,103.84619099999964,156.15380900000036,132.43603499999972
32,169.10253900000043,130.6411130000006,145.12841800000024,430.6411130000006,97.05126999999993,117.43603499999972,118.84619099999964,127.17968800000017,128.20507799999996,146.0258789999998,72.69238299999961,103.9741210000002,154.3588869999994,111.6665039999998
33,206.15380900000036,135.6411130000006,145.89746099999957,418.46142599999985,103.3334960000002,118.7177729999994,119.23095699999976,125.64111300000059,131.15380900000036,150.76904300000024,69.48730499999965,103.3334960000002,151.6665039999998,94.61523400000078
34,241.15380900000036,132.56396500000028,138.9741210000002,402.6923829999996,106.6665039999998,117.43603499999972,116.15380900000036,118.58984400000008,127.94873000000007,155.38476599999922,60.64111300000059,101.79492200000004,145.89746099999957,72.56396500000028
35,270.89746099999957,124.48730499999965,127.17968800000017,392.05126999999993,105.12841800000024,115.25634799999989,110.25634799999989,109.35888699999941,119.87158199999976,154.48730499999965,50.12841800000024,99.87158199999976,137.94873000000007,45.64111300000059
36,297.05126999999993,118.84619099999964,117.30761700000039,392.4360349999997,101.9228520000006,113.58984400000008,104.61523400000078,104.35888699999941,112.69238299999961,147.82031300000017,44.102539000000434,99.35888699999941,131.6665039999998,21.922852000000603
37,323.46142599999985,120.0,114.61523400000078,402.5639650000003,101.15380900000036,113.46142599999985,102.56396500000028,108.3334960000002,111.79492200000004,139.7436520000001,45.76904300000024,100.76904300000024,130.12841800000024,9.102539000000434
38,351.6665039999998,125.25634799999989,118.0771479999994,413.84619099999964,101.79492200000004,114.74365200000011,104.10253900000043,117.69238299999961,116.6665039999998,135.51269500000035,51.79492200000004,102.69238299999961,131.6665039999998,8.205077999999958
39,379.48730499999965,127.94873000000007,122.05126999999993,416.15380900000036,98.46142599999985,116.41015599999992,105.76904300000024,123.58984400000008,121.15380900000036,135.6411130000006,54.23095699999976,102.30761700000039,131.79492200000004,12.82031300000017
40,402.4360349999997,123.3334960000002,120.76904300000024,405.12841800000024,88.84619099999964,117.05126999999993,103.84619099999964,118.20507799999996,118.3334960000002,135.38476599999922,48.46142599999985,98.58984400000008,126.6665039999998,15.641113000000587
41,416.15380900000036,112.30761700000039,113.20507799999996,385.3847659999992,77.05126999999993,116.0258789999998,97.43603499999972,102.43603499999972,106.41015599999992,129.48730499999965,36.2822270000006,93.20507799999996,116.41015599999992,13.717772999999397
42,420.0,100.64111300000059,103.3334960000002,367.94873000000007,71.41015599999992,114.23095699999976,89.23095699999976,84.61523400000078,90.51269500000035,116.53857400000015,24.102539000000434,89.61523400000078,104.35888699999941,10.128418000000238
43,418.46142599999985,95.12841800000024,97.43603499999972,363.0771479999994,76.9228520000006,113.58984400000008,83.84619099999964,74.35888699999941,78.58984400000008,101.15380900000036,17.94873000000007,90.38476599999922,94.74365200000011,10.384765999999217
44,418.20507799999996,99.23095699999976,99.48730499999965,372.94873000000007,91.2822270000006,115.51269500000035,84.35888699999941,76.0258789999998,76.15380900000036,91.41015599999992,20.128418000000238,94.74365200000011,90.76904300000024,17.56396500000028
45,423.46142599999985,111.15380900000036,108.20507799999996,389.6152340000008,106.41015599999992,119.48730499999965,90.12841800000024,86.79492200000004,83.3334960000002,93.3334960000002,27.94873000000007,99.87158199999976,92.82031300000017,29.615234000000783
46,432.82031300000017,124.48730499999965,117.69238299999961,401.53857400000015,115.64111300000059,123.9741210000002,97.56396500000028,99.61523400000078,95.12841800000024,106.2822270000006,37.05126999999993,102.94873000000007,98.20507799999996,40.897460999999566
47,440.3847659999992,132.05126999999993,122.43603499999972,402.17968800000017,116.6665039999998,127.82031300000017,102.56396500000028,108.84619099999964,105.38476599999922,123.20507799999996,44.35888699999941,103.3334960000002,102.82031300000017,46.025878999999804
48,440.89746099999957,131.15380900000036,120.76904300000024,393.3334960000002,112.43603499999972,129.87158199999976,103.58984400000008,113.3334960000002,110.89746099999957,135.76904300000024,48.589844000000085,102.17968800000017,103.58984400000008,44.102539000000434
49,433.84619099999964,124.61523400000078,115.76904300000024,381.9228520000006,106.79492200000004,129.48730499999965,102.56396500000028,114.74365200000011,111.0258789999998,139.10253900000043,49.87158199999976,101.0258789999998,100.51269500000035,37.43603499999972
50,422.6923829999996,117.17968800000017,111.2822270000006,373.84619099999964,101.9228520000006,126.53857400000015,101.79492200000004,115.25634799999989,107.82031300000017,133.3334960000002,47.82031300000017,100.0,95.38476599999922,30.128418000000238
51,412.5639650000003,112.69238299999961,109.48730499999965,370.6411130000006,98.20507799999996,122.30761700000039,102.69238299999961,115.76904300000024,104.74365200000011,122.82031300000017,42.94873000000007,99.23095699999976,90.38476599999922,25.25634799999989
52,405.89746099999957,112.05126999999993,110.51269500000035,371.4101559999999,96.79492200000004,118.7177729999994,104.87158199999976,116.15380900000036,104.48730499999965,113.58984400000008,38.333496000000196,99.35888699999941,86.79492200000004,24.74365200000011
53,403.3334960000002,114.35888699999941,113.0771479999994,374.7436520000001,100.0,118.20507799999996,107.05126999999993,116.6665039999998,107.43603499999972,110.12841800000024,37.56396500000028,101.2822270000006,86.0258789999998,28.846190999999635
54,403.20507799999996,117.94873000000007,115.64111300000059,378.84619099999964,108.7177729999994,121.2822270000006,108.46142599999985,117.56396500000028,111.9228520000006,113.58984400000008,42.30761700000039,105.38476599999922,88.20507799999996,35.64111300000059
55,402.94873000000007,120.76904300000024,117.56396500000028,381.0258789999998,120.25634799999989,126.9228520000006,109.48730499999965,118.9741210000002,114.61523400000078,120.76904300000024,50.25634799999989,110.38476599999922,92.43603499999972,41.79492200000004
56,400.51269500000035,121.15380900000036,117.94873000000007,378.5898440000001,127.69238299999961,132.6923829999996,110.38476599999922,120.38476599999922,113.58984400000008,125.89746099999957,56.9228520000006,113.7177729999994,96.79492200000004,43.846190999999635
57,394.87158199999976,119.10253900000043,116.79492200000004,370.2563479999999,125.89746099999957,135.76904300000024,111.2822270000006,120.0,109.23095699999976,124.23095699999976,58.846190999999635,112.82031300000017,99.35888699999941,41.153809000000365
58,387.4360349999997,116.0258789999998,114.35888699999941,357.94873000000007,115.64111300000059,135.2563479999999,111.53857400000015,117.17968800000017,105.0,116.9228520000006,56.53857400000015,107.94873000000007,100.0,36.53857400000015
59,381.15380900000036,114.48730499999965,112.43603499999972,346.9228520000006,104.74365200000011,132.82031300000017,112.05126999999993,114.10253900000043,105.76904300000024,110.76904300000024,54.102539000000434,102.94873000000007,100.64111300000059,34.48730499999965
60,378.3334960000002,116.15380900000036,113.3334960000002,343.9741210000002,102.17968800000017,130.38476599999922,113.84619099999964,113.58984400000008,113.3334960000002,113.7177729999994,56.2822270000006,102.69238299999961,103.0771479999994,38.0771479999994
61,378.3334960000002,120.12841800000024,117.17968800000017,351.53857400000015,109.48730499999965,129.61523400000078,116.6665039999998,116.6665039999998,124.48730499999965,127.30761700000039,64.48730499999965,108.46142599999985,106.6665039999998,46.2822270000006
62,377.94873000000007,123.0771479999994,121.53857400000015,366.15380900000036,119.87158199999976,129.87158199999976,118.58984400000008,120.89746099999957,132.3076170000004,144.23095699999976,74.23095699999976,116.41015599999992,108.46142599999985,53.974121000000196
63,373.7177729999994,122.05126999999993,122.94873000000007,379.6152340000008,124.35888699999941,130.0,117.56396500000028,122.56396500000028,131.9228520000006,153.20507799999996,79.10253900000043,120.38476599999922,106.2822270000006,55.897460999999566
64,364.23095699999976,117.17968800000017,119.87158199999976,384.10253900000043,120.12841800000024,128.9741210000002,113.7177729999994,120.12841800000024,124.61523400000078,147.17968800000017,75.12841800000024,117.69238299999961,100.51269500000035,50.38476599999922
65,351.53857400000015,111.6665039999998,113.20507799999996,377.4360349999997,112.05126999999993,127.05126999999993,108.9741210000002,115.12841800000024,116.41015599999992,129.87158199999976,64.74365200000011,110.38476599999922,93.46142599999985,41.153809000000365
66,339.6152340000008,109.35888699999941,106.2822270000006,363.5898440000001,107.69238299999961,125.38476599999922,105.76904300000024,110.89746099999957,112.43603499999972,113.58984400000008,54.48730499999965,103.7177729999994,88.7177729999994,34.35888699999941
67,332.6923829999996,112.56396500000028,102.94873000000007,350.89746099999957,112.05126999999993,125.64111300000059,106.2822270000006,110.0,114.23095699999976,109.35888699999941,51.9228520000006,101.9228520000006,88.9741210000002,34.23095699999976
68,332.82031300000017,120.25634799999989,105.51269500000035,345.2563479999999,123.9741210000002,127.94873000000007,110.76904300000024,112.94873000000007,118.7177729999994,118.3334960000002,59.48730499999965,104.87158199999976,94.48730499999965,40.897460999999566
69,337.17968800000017,127.94873000000007,112.17968800000017,347.6923829999996,137.17968800000017,131.0258789999998,116.9228520000006,117.56396500000028,121.79492200000004,130.89746099999957,72.82031300000017,109.35888699999941,102.56396500000028,50.0
70,339.87158199999976,130.89746099999957,118.46142599999985,354.48730499999965,144.3588869999994,133.0771479999994,121.0258789999998,120.51269500000035,121.15380900000036,135.12841800000024,84.10253900000043,111.15380900000036,108.84619099999964,55.38476599999922
71,335.3847659999992,127.05126999999993,119.74365200000011,361.0258789999998,139.87158199999976,132.56396500000028,119.87158199999976,119.74365200000011,117.82031300000017,126.0258789999998,86.9228520000006,108.7177729999994,108.9741210000002,53.20507799999996
72,322.4360349999997,119.23095699999976,114.87158199999976,363.9741210000002,123.0771479999994,129.61523400000078,114.10253900000043,115.51269500000035,113.3334960000002,109.48730499999965,80.64111300000059,103.3334960000002,102.17968800000017,44.35888699999941
73,306.15380900000036,112.05126999999993,106.53857400000015,363.0771479999994,100.0,125.51269500000035,106.53857400000015,110.12841800000024,109.35888699999941,97.30761700000039,69.48730499999965,98.46142599999985,91.53857400000015,33.7177729999994
74,293.7177729999994,109.23095699999976,99.74365200000011,360.2563479999999,81.9228520000006,122.56396500000028,101.6665039999998,106.2822270000006,107.43603499999972,97.69238299999961,60.51269500000035,96.79492200000004,81.9228520000006,26.922852000000603
75,289.6152340000008,111.41015599999992,97.82031300000017,357.3076170000004,78.58984400000008,121.9228520000006,101.79492200000004,106.15380900000036,108.84619099999964,109.48730499999965,58.7177729999994,99.48730499999965,77.82031300000017,27.17968800000017
76,292.5639650000003,115.64111300000059,101.15380900000036,355.51269500000035,92.30761700000039,124.23095699999976,106.2822270000006,110.0,113.7177729999994,124.48730499999965,64.61523400000078,105.12841800000024,81.15380900000036,33.333496000000196
77,297.5639650000003,118.46142599999985,106.9228520000006,354.6152340000008,115.89746099999957,128.58984400000008,112.05126999999993,116.15380900000036,120.25634799999989,134.3588869999994,73.84619099999964,111.0258789999998,89.61523400000078,41.666503999999804
78,299.87158199999976,119.10253900000043,112.30761700000039,355.12841800000024,137.56396500000028,132.6923829999996,116.0258789999998,122.69238299999961,126.79492200000004,136.53857400000015,81.41015599999992,114.87158199999976,98.9741210000002,47.94873000000007
79,298.0771479999994,119.61523400000078,115.89746099999957,357.3076170000004,147.6923829999996,133.84619099999964,117.43603499999972,128.20507799999996,131.9228520000006,134.10253900000043,85.0,116.2822270000006,105.51269500000035,50.76904300000024
80,293.9741210000002,121.53857400000015,117.56396500000028,360.12841800000024,144.3588869999994,131.2822270000006,116.6665039999998,131.6665039999998,135.0,131.53857400000015,85.38476599999922,115.89746099999957,106.53857400000015,50.38476599999922
81,289.10253900000043,123.3334960000002,117.69238299999961,361.0258789999998,132.05126999999993,126.2822270000006,114.48730499999965,132.3076170000004,135.38476599999922,131.0258789999998,84.10253900000043,114.61523400000078,101.2822270000006,47.94873000000007
82,284.10253900000043,121.6665039999998,116.53857400000015,356.9228520000006,117.69238299999961,121.9228520000006,111.9228520000006,130.51269500000035,133.20507799999996,130.76904300000024,82.30761700000039,113.3334960000002,92.17968800000017,44.35888699999941
83,278.9741210000002,116.0258789999998,115.0,348.20507799999996,106.79492200000004,120.38476599999922,110.38476599999922,128.46142599999985,130.51269500000035,128.0771479999994,81.15380900000036,112.69238299999961,83.9741210000002,40.51269500000035
84,274.23095699999976,109.35888699999941,114.23095699999976,339.87158199999976,100.89746099999957,121.9228520000006,110.89746099999957,128.9741210000002,129.10253900000043,122.05126999999993,81.41015599999992,113.46142599999985,81.53857400000015,37.94873000000007
85,270.3847659999992,105.89746099999957,115.0,338.9741210000002,99.48730499999965,124.61523400000078,113.46142599999985,132.56396500000028,129.3588869999994,115.89746099999957,83.58984400000008,115.51269500000035,85.51269500000035,37.69238299999961
86,267.4360349999997,106.9228520000006,117.17968800000017,348.20507799999996,100.38476599999922,125.89746099999957,116.9228520000006,137.3076170000004,129.61523400000078,113.58984400000008,87.17968800000017,117.43603499999972,92.30761700000039,38.846190999999635
87,264.3588869999994,110.38476599999922,119.35888699999941,364.10253900000043,102.69238299999961,124.48730499999965,119.74365200000011,140.76904300000024,128.20507799999996,116.0258789999998,90.12841800000024,117.94873000000007,96.53857400000015,38.974121000000196
88,259.87158199999976,112.82031300000017,120.51269500000035,378.9741210000002,105.38476599999922,121.6665039999998,120.64111300000059,141.15380900000036,124.61523400000078,119.74365200000011,90.51269500000035,117.17968800000017,94.23095699999976,35.897460999999566
89,254.23095699999976,112.69238299999961,120.25634799999989,386.4101559999999,108.20507799999996,119.48730499999965,119.23095699999976,138.84619099999964,120.12841800000024,119.87158199999976,87.94873000000007,116.2822270000006,86.15380900000036,29.615234000000783
90,248.58984400000008,109.87158199999976,119.35888699999941,385.0,110.38476599999922,118.46142599999985,116.2822270000006,135.2563479999999,116.79492200000004,114.61523400000078,84.10253900000043,116.0258789999998,76.53857400000015,23.077147999999397
91,243.9741210000002,105.51269500000035,118.58984400000008,378.9741210000002,111.2822270000006,117.94873000000007,113.20507799999996,131.2822270000006,115.76904300000024,107.30761700000039,81.53857400000015,115.89746099999957,70.12841800000024,18.974121000000196
92,240.76904300000024,101.15380900000036,117.94873000000007,375.51269500000035,111.6665039999998,117.82031300000017,111.2822270000006,126.9228520000006,116.53857400000015,103.0771479999994,81.0258789999998,114.74365200000011,68.84619099999964,18.461425999999847
93,238.46142599999985,98.20507799999996,117.30761700000039,379.7436520000001,113.20507799999996,118.0771479999994,111.15380900000036,122.43603499999972,117.56396500000028,105.51269500000035,82.17968800000017,112.82031300000017,71.2822270000006,19.871581999999762
94,237.05126999999993,98.84619099999964,116.79492200000004,390.76904300000024,116.2822270000006,119.35888699999941,112.94873000000007,118.9741210000002,117.56396500000028,112.94873000000007,83.7177729999994,111.41015599999992,74.35888699999941,20.897460999999566
95,236.79492200000004,103.0771479999994,116.53857400000015,401.79492200000004,119.35888699999941,121.41015599999992,115.89746099999957,117.43603499999972,116.2822270000006,120.38476599999922,84.61523400000078,111.79492200000004,76.41015599999992,20.25634799999989
96,236.9228520000006,108.46142599999985,116.15380900000036,406.0258789999998,119.61523400000078,123.58984400000008,118.0771479999994,117.94873000000007,113.9741210000002,122.69238299999961,84.87158199999976,113.46142599999985,76.6665039999998,19.102539000000434
97,235.76904300000024,110.51269500000035,114.10253900000043,401.9228520000006,115.51269500000035,124.74365200000011,117.43603499999972,117.56396500000028,110.64111300000059,117.82031300000017,84.74365200000011,114.23095699999976,75.25634799999989,21.666503999999804
98,232.05126999999993,106.15380900000036,110.38476599999922,394.87158199999976,108.3334960000002,123.9741210000002,113.58984400000008,113.9741210000002,106.41015599999992,107.82031300000017,84.74365200000011,112.69238299999961,72.43603499999972,32.43603499999972
99,225.76904300000024,96.79492200000004,106.53857400000015,392.82031300000017,101.2822270000006,121.41015599999992,108.20507799999996,106.2822270000006,101.9228520000006,97.43603499999972,84.48730499999965,108.84619099999964,69.61523400000078,53.46142599999985
100,218.46142599999985,87.30761700000039,104.87158199999976,398.3334960000002,97.05126999999993,118.0771479999994,104.35888699999941,97.43603499999972,98.20507799999996,90.89746099999957,83.84619099999964,105.0,68.0771479999994,81.9228520000006
101,212.17968800000017,83.0771479999994,106.0258789999998,407.05126999999993,97.05126999999993,115.38476599999922,103.9741210000002,91.53857400000015,95.89746099999957,90.38476599999922,82.43603499999972,103.58984400000008,68.9741210000002,110.51269500000035
102,208.84619099999964,87.17968800000017,109.10253900000043,412.05126999999993,100.89746099999957,114.74365200000011,106.9228520000006,92.43603499999972,96.15380900000036,95.51269500000035,81.79492200000004,106.0258789999998,72.17968800000017,131.79492200000004
103,209.61523400000078,98.0771479999994,112.69238299999961,410.76904300000024,108.20507799999996,116.2822270000006,110.64111300000059,99.74365200000011,100.25634799999989,103.58984400000008,83.7177729999994,111.0258789999998,76.6665039999998,143.0771479999994
104,213.7177729999994,109.74365200000011,115.89746099999957,406.6665039999998,117.82031300000017,119.48730499999965,112.69238299999961,109.23095699999976,107.82031300000017,111.15380900000036,88.84619099999964,115.89746099999957,80.76904300000024,146.6665039999998
105,219.3588869999994,116.41015599999992,119.10253900000043,406.15380900000036,128.20507799999996,122.94873000000007,113.20507799999996,116.15380900000036,117.30761700000039,115.89746099999957,96.2822270000006,118.0771479999994,83.7177729999994,147.43603499999972
106,224.7436520000001,117.30761700000039,122.69238299999961,413.84619099999964,136.9228520000006,125.25634799999989,113.7177729999994,119.10253900000043,126.15380900000036,117.56396500000028,103.84619099999964,117.94873000000007,86.0258789999998,150.0
107,228.84619099999964,116.2822270000006,126.41015599999992,428.84619099999964,141.0258789999998,125.51269500000035,116.0258789999998,119.74365200000011,131.6665039999998,117.30761700000039,109.48730499999965,117.30761700000039,89.10253900000043,155.38476599999922
108,229.61523400000078,116.6665039999998,128.58984400000008,444.10253900000043,138.20507799999996,123.7177729999994,119.10253900000043,119.74365200000011,131.79492200000004,116.9228520000006,111.9228520000006,117.82031300000017,92.30761700000039,160.89746099999957
109,225.76904300000024,117.69238299999961,127.05126999999993,450.2563479999999,128.58984400000008,120.76904300000024,119.48730499999965,119.23095699999976,127.17968800000017,117.94873000000007,110.38476599999922,119.10253900000043,93.58984400000008,162.6923829999996
110,217.17968800000017,116.41015599999992,121.0258789999998,442.17968800000017,116.0258789999998,117.94873000000007,114.74365200000011,116.79492200000004,120.38476599999922,120.0,105.89746099999957,119.87158199999976,90.12841800000024,158.0771479999994
111,206.41015599999992,111.53857400000015,112.82031300000017,422.5639650000003,106.0258789999998,116.41015599999992,105.51269500000035,111.15380900000036,115.38476599999922,120.76904300000024,100.0,118.58984400000008,81.79492200000004,147.82031300000017
112,197.6923829999996,105.0,106.6665039999998,402.94873000000007,102.82031300000017,116.6665039999998,96.6665039999998,103.58984400000008,113.3334960000002,117.94873000000007,95.25634799999989,115.25634799999989,72.17968800000017,136.41015599999992
113,194.61523400000078,101.15380900000036,106.15380900000036,395.6411130000006,107.69238299999961,118.46142599999985,93.3334960000002,97.69238299999961,113.3334960000002,112.30761700000039,93.58984400000008,112.17968800000017,66.53857400000015,129.3588869999994
114,197.56396500000028,103.3334960000002,111.79492200000004,405.6411130000006,117.05126999999993,120.25634799999989,97.56396500000028,97.30761700000039,112.94873000000007,107.43603499999972,95.89746099999957,111.9228520000006,68.20507799999996,130.0
115,202.94873000000007,110.64111300000059,120.0,426.6665039999998,125.25634799999989,120.76904300000024,105.51269500000035,103.0771479999994,111.15380900000036,106.53857400000015,100.76904300000024,114.74365200000011,75.64111300000059,136.6665039999998
116,205.38476599999922,118.20507799999996,125.51269500000035,445.0,127.56396500000028,119.35888699999941,110.38476599999922,111.0258789999998,108.9741210000002,109.61523400000078,104.61523400000078,117.82031300000017,83.3334960000002,143.20507799999996
117,201.15380900000036,120.51269500000035,124.48730499999965,448.46142599999985,123.0771479999994,116.6665039999998,108.20507799999996,115.25634799999989,108.0771479999994,112.69238299999961,103.84619099999964,117.69238299999961,85.38476599999922,143.7177729999994
118,192.05126999999993,116.53857400000015,117.94873000000007,435.3847659999992,115.25634799999989,114.48730499999965,101.53857400000015,112.69238299999961,109.23095699999976,112.05126999999993,98.58984400000008,113.46142599999985,81.53857400000015,137.3076170000004
119,183.9741210000002,111.15380900000036,111.53857400000015,416.6665039999998,110.76904300000024,114.48730499999965,96.6665039999998,106.0258789999998,112.30761700000039,108.20507799999996,93.9741210000002,107.94873000000007,76.9228520000006,129.7436520000001
120,183.0771479999994,110.25634799999989,110.76904300000024,407.4360349999997,114.10253900000043,117.05126999999993,98.20507799999996,101.9228520000006,116.2822270000006,105.38476599999922,95.64111300000059,105.0,77.82031300000017,127.94873000000007
121,189.87158199999976,115.64111300000059,116.9228520000006,416.0258789999998,124.61523400000078,120.89746099999957,105.12841800000024,104.74365200000011,119.74365200000011,107.17968800000017,104.35888699999941,106.9228520000006,85.51269500000035,134.23095699999976
122,198.7177729999994,123.58984400000008,125.76904300000024,436.4101559999999,135.38476599999922,124.10253900000043,112.56396500000028,112.56396500000028,121.6665039999998,113.3334960000002,114.48730499999965,111.9228520000006,94.87158199999976,143.7177729999994
123,201.41015599999992,127.30761700000039,130.2563479999999,451.6665039999998,138.7177729999994,124.87158199999976,115.51269500000035,117.94873000000007,120.76904300000024,119.10253900000043,118.20507799999996,115.89746099999957,98.46142599999985,148.84619099999964
124,193.20507799999996,122.05126999999993,125.38476599999922,447.94873000000007,130.6411130000006,122.43603499999972,111.79492200000004,114.35888699999941,116.6665039999998,119.10253900000043,111.41015599999992,115.38476599999922,91.79492200000004,144.87158199999976
125,176.41015599999992,109.23095699999976,112.30761700000039,425.6411130000006,115.12841800000024,118.3334960000002,103.3334960000002,101.79492200000004,110.12841800000024,111.15380900000036,97.43603499999972,110.51269500000035,77.30761700000039,133.46142599999985
126,160.12841800000024,96.15380900000036,98.58984400000008,400.89746099999957,101.2822270000006,115.25634799999989,95.12841800000024,87.69238299999961,103.20507799999996,98.9741210000002,85.0,105.25634799999989,63.589844000000085,121.9228520000006
127,153.20507799999996,90.51269500000035,92.82031300000017,392.4360349999997,97.56396500000028,115.38476599999922,92.69238299999961,81.41015599999992,99.35888699999941,90.0,82.69238299999961,104.10253900000043,59.23095699999976,117.82031300000017
128,158.84619099999964,95.76904300000024,98.46142599999985,405.76904300000024,106.15380900000036,118.0771479999994,97.69238299999961,87.05126999999993,101.2822270000006,90.25634799999989,92.69238299999961,108.46142599999985,67.43603499999972,123.46142599999985
129,172.43603499999972,109.48730499999965,111.2822270000006,428.7177729999994,121.9228520000006,121.15380900000036,107.43603499999972,101.2822270000006,108.46142599999985,100.89746099999957,109.10253900000043,115.64111300000059,83.58984400000008,135.0
130,185.0,125.0,122.56396500000028,442.94873000000007,136.6665039999998,122.17968800000017,115.76904300000024,116.0258789999998,117.30761700000039,116.15380900000036,122.69238299999961,121.0258789999998,98.84619099999964,145.38476599999922
131,189.48730499999965,135.6411130000006,125.89746099999957,439.10253900000043,143.0771479999994,120.76904300000024,118.20507799999996,124.10253900000043,122.43603499999972,126.6665039999998,127.43603499999972,121.41015599999992,106.41015599999992,150.0
132,185.76904300000024,137.82031300000017,121.6665039999998,424.48730499999965,139.87158199999976,118.20507799999996,114.61523400000078,122.94873000000007,121.41015599999992,126.79492200000004,123.9741210000002,117.69238299999961,106.0258789999998,148.84619099999964
133,179.23095699999976,133.3334960000002,115.51269500000035,414.3588869999994,131.2822270000006,116.41015599999992,108.9741210000002,116.6665039999998,116.53857400000015,118.9741210000002,117.69238299999961,113.58984400000008,102.05126999999993,145.51269500000035
134,175.51269500000035,126.79492200000004,112.94873000000007,417.5639650000003,123.7177729999994,116.0258789999998,105.12841800000024,110.64111300000059,112.69238299999961,110.89746099999957,114.35888699999941,112.30761700000039,99.48730499999965,143.20507799999996
135,175.38476599999922,122.17968800000017,114.74365200000011,429.10253900000043,121.0258789999998,116.79492200000004,103.84619099999964,107.82031300000017,112.82031300000017,107.82031300000017,115.38476599999922,113.9741210000002,98.9741210000002,142.17968800000017
136,175.38476599999922,119.87158199999976,117.43603499999972,435.6411130000006,122.30761700000039,118.0771479999994,103.58984400000008,107.69238299999961,115.76904300000024,109.87158199999976,118.7177729999994,116.6665039999998,97.82031300000017,140.6411130000006
137,172.94873000000007,118.84619099999964,117.94873000000007,428.84619099999964,124.35888699999941,118.9741210000002,103.20507799999996,108.46142599999985,118.3334960000002,112.56396500000028,120.89746099999957,118.3334960000002,93.84619099999964,137.43603499999972
138,168.84619099999964,118.46142599999985,116.0258789999998,412.5639650000003,124.87158199999976,118.7177729999994,102.82031300000017,108.84619099999964,117.69238299999961,112.17968800000017,120.38476599999922,118.20507799999996,88.58984400000008,133.46142599999985
139,165.89746099999957,118.58984400000008,113.7177729999994,398.5898440000001,123.58984400000008,117.30761700000039,103.20507799999996,108.7177729999994,114.61523400000078,108.7177729999994,116.9228520000006,116.9228520000006,85.0,130.51269500000035
140,166.2822270000006,119.10253900000043,113.0771479999994,397.94873000000007,121.53857400000015,115.76904300000024,105.12841800000024,108.84619099999964,112.17968800000017,105.38476599999922,112.82031300000017,115.76904300000024,85.25634799999989,129.87158199999976
141,169.61523400000078,120.38476599999922,114.35888699999941,411.9228520000006,120.38476599999922,116.15380900000036,108.46142599999985,110.25634799999989,113.84619099999964,106.0258789999998,111.15380900000036,115.51269500000035,88.7177729999994,131.9228520000006
142,174.23095699999976,123.7177729999994,117.30761700000039,432.05126999999993,121.6665039999998,118.9741210000002,112.56396500000028,113.84619099999964,120.38476599999922,112.43603499999972,115.64111300000059,116.79492200000004,93.84619099999964,136.79492200000004
143,178.7177729999994,129.48730499999965,121.6665039999998,446.9228520000006,126.41015599999992,122.94873000000007,116.53857400000015,119.87158199999976,129.48730499999965,123.3334960000002,126.6665039999998,119.35888699999941,99.61523400000078,143.46142599999985
144,182.17968800000017,135.51269500000035,126.9228520000006,449.87158199999976,133.58984400000008,125.76904300000024,119.23095699999976,127.69238299999961,137.3076170000004,134.7436520000001,140.0,122.56396500000028,105.25634799999989,149.48730499999965
145,183.0771479999994,138.3334960000002,131.41015599999992,441.79492200000004,140.76904300000024,126.0258789999998,120.64111300000059,135.0,140.76904300000024,142.05126999999993,148.7177729999994,125.25634799999989,109.87158199999976,152.05126999999993
146,180.76904300000024,135.76904300000024,132.94873000000007,430.2563479999999,143.84619099999964,123.58984400000008,120.89746099999957,138.84619099999964,139.7436520000001,142.82031300000017,147.82031300000017,126.53857400000015,112.56396500000028,150.6411130000006
147,176.0258789999998,129.3588869999994,131.0258789999998,423.84619099999964,141.15380900000036,120.25634799999989,119.61523400000078,137.82031300000017,136.0258789999998,138.20507799999996,138.0771479999994,126.41015599999992,112.30761700000039,146.79492200000004
148,170.76904300000024,122.17968800000017,126.2822270000006,426.79492200000004,134.61523400000078,117.82031300000017,116.6665039999998,132.6923829999996,132.3076170000004,131.79492200000004,125.12841800000024,125.0,108.3334960000002,142.17968800000017
149,166.53857400000015,117.43603499999972,121.0258789999998,435.89746099999957,128.7177729999994,117.43603499999972,111.79492200000004,126.15380900000036,129.61523400000078,127.30761700000039,115.76904300000024,122.94873000000007,101.15380900000036,137.6923829999996
150,163.9741210000002,115.51269500000035,116.9228520000006,443.46142599999985,125.25634799999989,118.3334960000002,106.15380900000036,120.76904300000024,127.56396500000028,124.61523400000078,113.0771479999994,120.51269500000035,92.94873000000007,133.0771479999994
151,162.82031300000017,115.64111300000059,114.74365200000011,441.6665039999998,121.79492200000004,118.58984400000008,102.05126999999993,117.56396500000028,124.87158199999976,121.0258789999998,115.64111300000059,117.94873000000007,86.6665039999998,127.82031300000017
152,162.05126999999993,116.15380900000036,113.9741210000002,428.9741210000002,114.74365200000011,117.30761700000039,100.89746099999957,116.0258789999998,120.76904300000024,115.0,119.23095699999976,115.51269500000035,84.10253900000043,122.56396500000028
153,160.51269500000035,116.2822270000006,113.7177729999994,411.0258789999998,105.25634799999989,115.89746099999957,102.30761700000039,115.12841800000024,115.76904300000024,107.94873000000007,120.0,114.23095699999976,84.61523400000078,118.20507799999996
154,157.82031300000017,115.76904300000024,113.20507799999996,397.94873000000007,99.35888699999941,116.0258789999998,104.48730499999965,114.48730499999965,112.05126999999993,103.3334960000002,117.43603499999972,114.48730499999965,85.76904300000024,115.89746099999957
155,155.38476599999922,115.25634799999989,112.82031300000017,397.94873000000007,102.30761700000039,118.46142599999985,106.2822270000006,114.35888699999941,112.05126999999993,102.94873000000007,114.10253900000043,116.15380900000036,85.89746099999957,115.89746099999957
156,155.38476599999922,115.89746099999957,113.84619099999964,410.76904300000024,113.46142599999985,121.79492200000004,108.20507799999996,115.12841800000024,115.89746099999957,107.30761700000039,113.84619099999964,118.3334960000002,84.87158199999976,117.69238299999961
157,158.20507799999996,117.94873000000007,117.17968800000017,426.6665039999998,126.0258789999998,124.48730499999965,111.2822270000006,117.17968800000017,121.41015599999992,114.48730499999965,117.17968800000017,119.74365200000011,83.9741210000002,120.0
158,161.2822270000006,120.25634799999989,121.2822270000006,432.05126999999993,132.56396500000028,125.89746099999957,115.12841800000024,119.61523400000078,125.64111300000059,121.15380900000036,121.6665039999998,119.87158199999976,84.87158199999976,121.0258789999998
159,161.0258789999998,120.38476599999922,123.20507799999996,420.0,129.61523400000078,126.15380900000036,118.20507799999996,121.15380900000036,126.15380900000036,123.7177729999994,123.3334960000002,118.46142599999985,86.9228520000006,119.61523400000078
160,155.76904300000024,117.43603499999972,120.89746099999957,395.89746099999957,120.0,126.6665039999998,118.9741210000002,120.76904300000024,122.69238299999961,119.74365200000011,120.12841800000024,116.53857400000015,88.0771479999994,115.76904300000024
161,146.6665039999998,112.17968800000017,115.0,372.82031300000017,111.41015599999992,128.20507799999996,117.17968800000017,118.9741210000002,117.05126999999993,111.15380900000036,113.0771479999994,115.25634799999989,86.6665039999998,110.89746099999957
162,137.56396500000028,106.79492200000004,108.7177729999994,361.4101559999999,110.12841800000024,130.51269500000035,114.61523400000078,116.9228520000006,112.43603499999972,102.69238299999961,105.76904300000024,115.12841800000024,82.30761700000039,106.9228520000006
163,131.9228520000006,102.82031300000017,105.38476599999922,360.6411130000006,115.38476599999922,132.17968800000017,113.3334960000002,116.0258789999998,110.76904300000024,98.20507799999996,101.2822270000006,115.51269500000035,75.89746099999957,105.0
164,130.2563479999999,100.64111300000059,105.25634799999989,360.0,120.76904300000024,131.9228520000006,113.58984400000008,116.15380900000036,112.05126999999993,97.56396500000028,100.0,115.51269500000035,69.61523400000078,104.10253900000043
165,130.51269500000035,99.87158199999976,105.25634799999989,348.9741210000002,119.48730499999965,129.10253900000043,113.84619099999964,116.2822270000006,114.10253900000043,97.69238299999961,99.74365200000011,114.23095699999976,65.38476599999922,102.56396500000028
166,130.12841800000024,99.48730499999965,102.82031300000017,326.79492200000004,112.05126999999993,124.74365200000011,113.3334960000002,115.76904300000024,114.87158199999976,96.15380900000036,97.82031300000017,111.9228520000006,64.23095699999976,99.74365200000011
167,128.9741210000002,100.25634799999989,98.58984400000008,303.5898440000001,107.69238299999961,120.64111300000059,113.0771479999994,115.76904300000024,114.61523400000078,95.25634799999989,95.12841800000024,109.61523400000078,66.41015599999992,97.30761700000039
168,128.84619099999964,103.7177729999994,95.76904300000024,292.3076170000004,114.61523400000078,119.10253900000043,115.51269500000035,118.84619099999964,116.15380900000036,98.58984400000008,95.25634799999989,108.7177729999994,71.9228520000006,97.56396500000028
169,131.53857400000015,110.64111300000059,97.82031300000017,297.5639650000003,131.0258789999998,120.89746099999957,121.2822270000006,126.41015599999992,122.05126999999993,107.17968800000017,101.15380900000036,110.38476599999922,80.12841800000024,102.17968800000017
170,136.2822270000006,119.10253900000043,104.48730499999965,310.6411130000006,144.61523400000078,125.0,127.82031300000017,136.15380900000036,131.79492200000004,117.05126999999993,111.79492200000004,114.23095699999976,88.58984400000008,109.10253900000043
171,139.48730499999965,123.84619099999964,111.2822270000006,317.05126999999993,142.94873000000007,129.10253900000043,131.0258789999998,142.43603499999972,140.38476599999922,122.43603499999972,121.41015599999992,118.0771479999994,93.7177729999994,113.84619099999964
172,136.9228520000006,120.64111300000059,112.69238299999961,307.6923829999996,125.0,131.53857400000015,128.0771479999994,140.12841800000024,141.6665039999998,120.38476599999922,123.20507799999996,118.46142599999985,92.30761700000039,112.30761700000039
173,128.84619099999964,110.12841800000024,106.79492200000004,286.6665039999998,102.82031300000017,131.41015599999992,120.38476599999922,129.3588869999994,133.58984400000008,112.69238299999961,115.38476599999922,115.0,84.23095699999976,104.87158199999976
174,120.25634799999989,99.10253900000043,97.94873000000007,268.20507799999996,92.05126999999993,128.9741210000002,112.43603499999972,116.41015599999992,120.76904300000024,105.12841800000024,103.3334960000002,110.38476599999922,74.10253900000043,97.17968800000017
175,117.05126999999993,96.0258789999998,93.3334960000002,264.48730499999965,99.87158199999976,125.38476599999922,109.10253900000043,110.0,111.15380900000036,103.46142599999985,96.53857400000015,108.0771479999994,68.46142599999985,95.89746099999957
176,121.6665039999998,104.23095699999976,97.43603499999972,275.6411130000006,121.6665039999998,122.17968800000017,111.6665039999998,114.48730499999965,110.64111300000059,109.61523400000078,100.38476599999922,109.35888699999941,71.2822270000006,102.94873000000007
177,130.89746099999957,118.3334960000002,108.20507799999996,289.7436520000001,143.7177729999994,120.12841800000024,117.30761700000039,126.0258789999998,118.7177729999994,119.48730499999965,111.53857400000015,112.56396500000028,80.64111300000059,113.46142599999985
178,137.56396500000028,128.0771479999994,118.58984400000008,292.82031300000017,152.05126999999993,118.58984400000008,121.9228520000006,135.89746099999957,128.46142599999985,125.25634799999989,121.15380900000036,115.51269500000035,89.61523400000078,119.87158199999976
179,136.0258789999998,127.17968800000017,121.9228520000006,279.6152340000008,141.6665039999998,116.6665039999998,122.17968800000017,136.6665039999998,131.9228520000006,121.41015599999992,121.79492200000004,116.0258789999998,91.6665039999998,117.17968800000017
180,125.76904300000024,116.79492200000004,116.0258789999998,257.5639650000003,119.61523400000078,114.23095699999976,118.46142599999985,127.56396500000028,126.0258789999998,108.46142599999985,112.94873000000007,113.7177729999994,85.0,106.9228520000006
181,112.17968800000017,104.10253900000043,104.10253900000043,238.9741210000002,100.38476599999922,112.56396500000028,113.7177729999994,114.74365200000011,113.46142599999985,92.56396500000028,101.0258789999998,110.25634799999989,73.7177729999994,94.48730499999965
182,102.56396500000028,96.0258789999998,92.69238299999961,231.53857400000015,94.23095699999976,112.69238299999961,110.76904300000024,106.41015599999992,101.41015599999992,81.2822270000006,93.3334960000002,108.3334960000002,64.48730499999965,85.51269500000035
183,100.89746099999957,95.64111300000059,86.6665039999998,233.7177729999994,100.76904300000024,114.48730499999965,110.51269500000035,106.53857400000015,96.41015599999992,79.23095699999976,93.0771479999994,109.10253900000043,61.666503999999804,82.43603499999972
184,105.89746099999957,101.0258789999998,86.9228520000006,237.05126999999993,111.15380900000036,116.6665039999998,111.9228520000006,113.0771479999994,99.87158199999976,85.89746099999957,98.0771479999994,111.79492200000004,65.12841800000024,84.35888699999941
185,112.30761700000039,107.05126999999993,90.51269500000035,233.7177729999994,115.89746099999957,118.46142599999985,113.58984400000008,119.23095699999976,107.69238299999961,96.53857400000015,103.0771479999994,114.35888699999941,71.2822270000006,88.58984400000008
186,114.74365200000011,108.7177729999994,93.46142599999985,220.89746099999957,112.82031300000017,118.9741210000002,114.74365200000011,118.9741210000002,112.82031300000017,104.35888699999941,103.84619099999964,114.23095699999976,75.25634799999989,92.30761700000039
187,111.15380900000036,104.48730499999965,93.3334960000002,202.56396500000028,107.43603499999972,118.3334960000002,115.0,111.53857400000015,110.38476599999922,104.10253900000043,100.0,111.0258789999998,74.10253900000043,92.43603499999972
188,103.7177729999994,97.69238299999961,90.0,186.2822270000006,106.79492200000004,116.6665039999998,114.23095699999976,101.9228520000006,101.53857400000015,95.89746099999957,94.74365200000011,106.53857400000015,68.7177729999994,88.0771479999994
189,96.6665039999998,93.7177729999994,87.05126999999993,178.84619099999964,113.20507799999996,115.51269500000035,113.46142599999985,97.56396500000028,93.58984400000008,85.64111300000059,92.30761700000039,103.84619099999964,63.46142599999985,81.6665039999998
190,93.84619099999964,95.51269500000035,88.0771479999994,182.17968800000017,123.20507799999996,115.64111300000059,114.10253900000043,102.69238299999961,93.84619099999964,81.9228520000006,94.48730499999965,105.0,62.69238299999961,78.20507799999996
191,96.15380900000036,101.6665039999998,93.9741210000002,192.05126999999993,130.76904300000024,116.53857400000015,116.9228520000006,115.25634799999989,104.48730499999965,89.87158199999976,99.61523400000078,109.35888699999941,67.94873000000007,81.15380900000036
192,101.2822270000006,107.82031300000017,101.41015599999992,200.76904300000024,131.9228520000006,116.6665039999998,120.38476599999922,128.0771479999994,120.76904300000024,105.51269500000035,104.35888699999941,114.48730499999965,76.15380900000036,89.61523400000078
193,105.51269500000035,110.0,105.12841800000024,201.2822270000006,126.53857400000015,115.25634799999989,122.05126999999993,134.48730499999965,133.84619099999964,118.58984400000008,105.64111300000059,117.43603499999972,82.17968800000017,98.20507799999996
194,105.89746099999957,107.43603499999972,102.43603499999972,191.0258789999998,118.0771479999994,113.3334960000002,120.38476599999922,131.79492200000004,136.2822270000006,120.38476599999922,103.0771479999994,116.79492200000004,82.43603499999972,100.89746099999957
195,102.82031300000017,103.58984400000008,95.38476599999922,174.10253900000043,111.9228520000006,112.43603499999972,116.0258789999998,122.94873000000007,127.82031300000017,110.89746099999957,99.10253900000043,113.46142599999985,77.94873000000007,95.89746099999957
196,99.35888699999941,103.3334960000002,89.61523400000078,159.23095699999976,111.41015599999992,113.3334960000002,111.79492200000004,115.12841800000024,115.64111300000059,99.61523400000078,97.43603499999972,110.12841800000024,73.7177729999994,87.69238299999961
197,99.23095699999976,108.7177729999994,89.87158199999976,154.10253900000043,115.51269500000035,115.38476599999922,110.38476599999922,113.9741210000002,108.9741210000002,96.6665039999998,101.41015599999992,109.35888699999941,74.35888699999941,83.3334960000002
198,102.05126999999993,116.79492200000004,95.76904300000024,158.9741210000002,119.61523400000078,117.43603499999972,112.69238299999961,119.61523400000078,112.05126999999993,104.35888699999941,110.12841800000024,111.53857400000015,80.51269500000035,86.0258789999998
199,103.9741210000002,121.79492200000004,101.6665039999998,167.05126999999993,119.87158199999976,118.0771479999994,116.41015599999992,126.15380900000036,121.15380900000036,115.51269500000035,118.84619099999964,114.87158199999976,88.46142599999985,93.20507799999996
200,102.05126999999993,119.61523400000078,102.82031300000017,169.48730499999965,116.6665039999998,117.30761700000039,118.46142599999985,127.43603499999972,127.69238299999961,120.76904300000024,122.30761700000039,116.6665039999998,93.46142599999985,99.35888699999941
201,97.94873000000007,112.56396500000028,100.0,162.82031300000017,114.10253900000043,115.76904300000024,117.30761700000039,122.43603499999972,126.6665039999998,117.30761700000039,119.87158199999976,116.2822270000006,93.84619099999964,100.89746099999957
202,96.41015599999992,107.82031300000017,98.46142599999985,151.2822270000006,115.25634799999989,114.35888699999941,114.48730499999965,116.53857400000015,120.76904300000024,110.89746099999957,115.64111300000059,114.74365200000011,91.9228520000006,99.35888699999941
203,100.64111300000059,111.2822270000006,102.30761700000039,142.3076170000004,120.38476599999922,113.9741210000002,113.0771479999994,116.0258789999998,117.69238299999961,110.12841800000024,115.38476599999922,114.10253900000043,92.17968800000017,99.48730499999965
204,109.61523400000078,121.53857400000015,110.38476599999922,140.6411130000006,128.0771479999994,114.74365200000011,115.25634799999989,122.17968800000017,122.56396500000028,118.58984400000008,120.89746099999957,115.0,96.79492200000004,103.84619099999964
205,117.94873000000007,130.89746099999957,117.05126999999993,144.7436520000001,134.61523400000078,115.89746099999957,119.87158199999976,130.51269500000035,132.43603499999972,131.15380900000036,128.3334960000002,116.2822270000006,103.84619099999964,110.25634799999989
206,119.48730499999965,131.53857400000015,116.9228520000006,149.7436520000001,136.41015599999992,116.6665039999998,122.94873000000007,134.87158199999976,139.48730499999965,137.94873000000007,131.9228520000006,116.79492200000004,108.46142599999985,113.46142599999985
207,111.9228520000006,122.56396500000028,109.74365200000011,151.53857400000015,130.76904300000024,116.41015599999992,121.41015599999992,131.9228520000006,138.3334960000002,132.94873000000007,128.46142599999985,115.89746099999957,107.56396500000028,109.74365200000011
208,98.9741210000002,111.2822270000006,100.25634799999989,149.7436520000001,119.35888699999941,115.51269500000035,115.89746099999957,124.10253900000043,130.12841800000024,119.61523400000078,120.0,113.46142599999985,101.6665039999998,100.76904300000024
209,87.82031300000017,106.0258789999998,93.58984400000008,145.0,107.17968800000017,115.12841800000024,109.87158199999976,116.2822270000006,120.76904300000024,107.05126999999993,111.15380900000036,110.12841800000024,94.10253900000043,91.0258789999998
210,83.46142599999985,108.3334960000002,90.64111300000059,136.0258789999998,99.10253900000043,115.25634799999989,106.0258789999998,110.89746099999957,115.0,101.9228520000006,104.48730499999965,105.89746099999957,87.17968800000017,84.10253900000043
211,85.38476599999922,113.20507799999996,88.58984400000008,120.51269500000035,97.82031300000017,115.89746099999957,104.87158199999976,107.17968800000017,113.20507799999996,104.35888699999941,100.12841800000024,101.53857400000015,81.2822270000006,80.51269500000035
212,90.0,114.48730499999965,85.51269500000035,100.25634799999989,102.43603499999972,116.6665039999998,105.64111300000059,103.84619099999964,113.7177729999994,109.48730499999965,97.69238299999961,98.84619099999964,77.94873000000007,78.9741210000002
213,94.61523400000078,111.53857400000015,84.10253900000043,83.46142599999985,111.53857400000015,117.43603499999972,107.94873000000007,102.30761700000039,115.76904300000024,113.3334960000002,98.84619099999964,99.61523400000078,79.61523400000078,80.25634799999989
214,99.35888699999941,108.9741210000002,88.58984400000008,80.38476599999922,123.46142599999985,118.3334960000002,112.43603499999972,105.89746099999957,120.0,115.76904300000024,105.38476599999922,104.61523400000078,88.46142599999985,86.0258789999998
215,105.0,111.2822270000006,99.87158199999976,94.74365200000011,136.15380900000036,118.84619099999964,119.10253900000043,115.64111300000059,126.6665039999998,118.58984400000008,116.41015599999992,112.05126999999993,102.17968800000017,95.76904300000024
216,109.87158199999976,117.05126999999993,112.43603499999972,119.61523400000078,144.87158199999976,118.9741210000002,125.76904300000024,127.05126999999993,133.46142599999985,121.2822270000006,126.79492200000004,118.20507799999996,113.84619099999964,104.87158199999976
217,109.61523400000078,120.25634799999989,117.43603499999972,139.7436520000001,143.46142599999985,118.20507799999996,128.46142599999985,132.6923829999996,135.51269500000035,120.25634799999989,130.12841800000024,119.10253900000043,116.9228520000006,106.41015599999992
218,101.2822270000006,115.12841800000024,110.12841800000024,142.43603499999972,128.7177729999994,116.6665039999998,124.48730499999965,126.9228520000006,128.84619099999964,112.69238299999961,123.58984400000008,114.35888699999941,108.9741210000002,97.17968800000017
219,86.41015599999992,102.17968800000017,93.84619099999964,127.05126999999993,104.35888699999941,114.74365200000011,114.35888699999941,112.05126999999993,114.61523400000078,99.74365200000011,110.0,106.79492200000004,94.61523400000078,81.15380900000036
220,71.79492200000004,88.7177729999994,78.9741210000002,106.79492200000004,81.79492200000004,113.20507799999996,103.0771479999994,97.43603499999972,99.87158199999976,86.9228520000006,97.05126999999993,100.89746099999957,81.6665039999998,67.17968800000017
221,64.35888699999941,82.30761700000039,74.35888699999941,100.0,72.82031300000017,112.30761700000039,96.79492200000004,91.79492200000004,92.05126999999993,80.12841800000024,90.89746099999957,99.48730499999965,76.41015599999992,62.82031300000017
222,66.41015599999992,85.25634799999989,81.79492200000004,115.64111300000059,81.79492200000004,112.56396500000028,98.46142599999985,97.56396500000028,94.10253900000043,81.2822270000006,92.05126999999993,102.30761700000039,79.74365200000011,68.46142599999985
223,74.48730499999965,93.84619099999964,95.25634799999989,148.0771479999994,103.0771479999994,113.7177729999994,105.89746099999957,108.84619099999964,102.94873000000007,88.7177729999994,96.41015599999992,107.43603499999972,87.56396500000028,79.35888699999941
224,83.3334960000002,103.20507799999996,106.79492200000004,180.2563479999999,124.87158199999976,115.25634799999989,114.23095699999976,118.3334960000002,112.17968800000017,98.84619099999964,100.76904300000024,112.17968800000017,95.25634799999989,88.7177729999994
225,88.84619099999964,110.38476599999922,111.79492200000004,196.41015599999992,137.17968800000017,116.6665039999998,119.23095699999976,121.6665039999998,117.43603499999972,108.3334960000002,103.9741210000002,115.12841800000024,100.51269500000035,93.0771479999994
226,90.12841800000024,114.74365200000011,110.25634799999989,191.53857400000015,135.89746099999957,117.17968800000017,119.74365200000011,119.48730499999965,117.43603499999972,114.61523400000078,107.17968800000017,116.41015599999992,103.20507799999996,92.69238299999961
227,88.3334960000002,116.41015599999992,105.51269500000035,172.6923829999996,124.74365200000011,116.41015599999992,117.30761700000039,115.38476599999922,114.10253900000043,116.41015599999992,110.64111300000059,116.41015599999992,104.48730499999965,90.12841800000024
228,85.12841800000024,115.12841800000024,100.89746099999957,154.10253900000043,112.56396500000028,115.38476599999922,114.48730499999965,112.05126999999993,110.25634799999989,113.9741210000002,113.46142599999985,115.76904300000024,104.23095699999976,87.17968800000017
229,82.30761700000039,111.2822270000006,98.46142599999985,148.20507799999996,107.30761700000039,115.25634799999989,112.43603499999972,110.38476599999922,108.3334960000002,108.46142599999985,113.9741210000002,115.0,102.82031300000017,85.25634799999989
230,81.2822270000006,106.53857400000015,98.9741210000002,158.7177729999994,110.76904300000024,116.2822270000006,111.41015599999992,110.0,109.87158199999976,101.6665039999998,112.17968800000017,114.23095699999976,100.51269500000035,84.87158199999976
231,82.69238299999961,103.7177729999994,101.79492200000004,179.48730499999965,117.94873000000007,117.05126999999993,111.15380900000036,109.87158199999976,113.9741210000002,96.53857400000015,109.87158199999976,113.9741210000002,98.7177729999994,86.2822270000006
232,85.76904300000024,103.9741210000002,105.51269500000035,198.0771479999994,121.2822270000006,115.51269500000035,111.41015599999992,109.35888699999941,117.94873000000007,96.0258789999998,108.84619099999964,114.74365200000011,97.69238299999961,88.20507799999996
233,88.0771479999994,106.0258789999998,108.0771479999994,203.58984400000008,117.17968800000017,111.6665039999998,111.15380900000036,107.69238299999961,117.82031300000017,100.0,108.58984400000008,115.89746099999957,96.9228520000006,88.3334960000002
234,86.41015599999992,107.56396500000028,107.30761700000039,193.0771479999994,108.46142599999985,107.30761700000039,109.35888699999941,104.48730499999965,112.05126999999993,104.23095699999976,106.53857400000015,116.0258789999998,95.12841800000024,84.48730499999965
235,79.48730499999965,106.41015599999992,102.43603499999972,173.58984400000008,101.79492200000004,104.61523400000078,105.76904300000024,100.51269500000035,103.0771479999994,103.58984400000008,101.53857400000015,114.23095699999976,92.05126999999993,76.9228520000006
236,70.38476599999922,103.7177729999994,96.0258789999998,157.94873000000007,103.0771479999994,105.0,102.17968800000017,98.46142599999985,96.53857400000015,96.2822270000006,96.6665039999998,111.0258789999998,89.35888699999941,69.23095699999976
237,65.51269500000035,103.46142599999985,92.56396500000028,156.6665039999998,112.82031300000017,108.9741210000002,101.53857400000015,100.64111300000059,97.43603499999972,87.69238299999961,96.53857400000015,108.84619099999964,89.48730499999965,66.79492200000004
238,68.9741210000002,108.46142599999985,95.0,170.2563479999999,126.2822270000006,114.87158199999976,105.51269500000035,107.43603499999972,106.0258789999998,85.51269500000035,102.82031300000017,109.61523400000078,93.46142599999985,72.43603499999972
239,79.10253900000043,117.17968800000017,101.9228520000006,189.23095699999976,136.0258789999998,119.23095699999976,112.94873000000007,115.64111300000059,117.56396500000028,93.7177729999994,112.17968800000017,113.3334960000002,99.74365200000011,83.84619099999964
240,88.58984400000008,123.7177729999994,108.0771479999994,200.2563479999999,137.6923829999996,119.23095699999976,119.61523400000078,120.76904300000024,125.25634799999989,108.0771479999994,118.0771479999994,117.94873000000007,105.0,93.46142599999985
241,90.64111300000059,122.43603499999972,108.46142599999985,196.2822270000006,131.9228520000006,115.64111300000059,121.53857400000015,119.48730499999965,124.61523400000078,119.87158199999976,116.6665039999998,120.0,106.6665039999998,94.48730499999965
242,83.7177729999994,113.46142599999985,101.9228520000006,181.41015599999992,123.0771479999994,111.6665039999998,117.43603499999972,112.56396500000028,116.15380900000036,122.05126999999993,109.10253900000043,117.43603499999972,104.10253900000043,86.15380900000036
243,72.17968800000017,102.56396500000028,91.6665039999998,167.17968800000017,115.0,110.0,110.0,103.9741210000002,105.12841800000024,113.9741210000002,100.25634799999989,110.64111300000059,99.23095699999976,73.7177729999994
244,63.46142599999985,96.6665039999998,83.0771479999994,163.9741210000002,108.7177729999994,110.51269500000035,103.46142599999985,98.84619099999964,97.69238299999961,100.51269500000035,94.74365200000011,102.82031300000017,94.74365200000011,64.61523400000078
245,61.79492200000004,98.20507799999996,80.0,172.17968800000017,103.58984400000008,110.76904300000024,100.64111300000059,98.9741210000002,96.53857400000015,88.0771479999994,93.9741210000002,98.20507799999996,92.30761700000039,62.94873000000007
246,65.76904300000024,103.20507799999996,81.6665039999998,182.82031300000017,99.35888699999941,108.9741210000002,101.2822270000006,102.17968800000017,99.74365200000011,81.2822270000006,95.64111300000059,98.7177729999994,91.15380900000036,67.17968800000017
247,70.51269500000035,104.48730499999965,84.87158199999976,185.51269500000035,96.6665039999998,106.15380900000036,102.94873000000007,104.61523400000078,102.56396500000028,80.64111300000059,96.53857400000015,102.82031300000017,89.35888699999941,71.79492200000004
248,72.05126999999993,98.20507799999996,86.2822270000006,178.3334960000002,97.82031300000017,104.74365200000011,104.10253900000043,103.7177729999994,102.56396500000028,84.35888699999941,95.25634799999989,105.89746099999957,85.89746099999957,72.43603499999972
249,70.25634799999989,87.30761700000039,85.51269500000035,169.23095699999976,104.35888699999941,106.9228520000006,105.12841800000024,100.76904300000024,100.64111300000059,89.87158199999976,93.46142599999985,105.38476599999922,82.82031300000017,69.10253900000043
250,68.84619099999964,80.25634799999989,84.87158199999976,168.20507799999996,114.10253900000043,112.17968800000017,107.43603499999972,99.23095699999976,100.38476599999922,95.38476599999922,94.23095699999976,103.0771479999994,83.84619099999964,65.89746099999957
251,71.15380900000036,83.46142599999985,87.56396500000028,177.82031300000017,122.82031300000017,117.82031300000017,111.79492200000004,102.17968800000017,104.10253900000043,99.74365200000011,99.74365200000011,102.43603499999972,90.89746099999957,67.82031300000017
252,77.43603499999972,96.53857400000015,94.23095699999976,191.0258789999998,126.53857400000015,120.64111300000059,117.17968800000017,109.48730499999965,111.2822270000006,102.05126999999993,108.84619099999964,105.38476599999922,101.79492200000004,75.38476599999922
253,84.61523400000078,111.41015599999992,101.9228520000006,197.82031300000017,125.25634799999989,119.74365200000011,121.0258789999998,117.56396500000028,118.0771479999994,101.9228520000006,117.05126999999993,110.25634799999989,111.0258789999998,85.0
254,89.10253900000043,118.9741210000002,106.41015599999992,193.9741210000002,123.0771479999994,117.17968800000017,121.6665039999998,122.43603499999972,120.89746099999957,100.38476599999922,120.64111300000059,113.84619099999964,113.84619099999964,91.15380900000036
255,89.61523400000078,115.89746099999957,105.51269500000035,184.48730499999965,123.9741210000002,115.76904300000024,119.61523400000078,122.69238299999961,119.23095699999976,100.64111300000059,120.0,114.23095699999976,109.74365200000011,91.0258789999998
256,86.9228520000006,106.6665039999998,100.64111300000059,178.20507799999996,128.46142599999985,116.2822270000006,116.53857400000015,120.0,116.15380900000036,105.12841800000024,118.58984400000008,111.53857400000015,103.3334960000002,85.76904300000024
257,83.58984400000008,98.9741210000002,95.51269500000035,180.12841800000024,133.3334960000002,117.43603499999972,114.61523400000078,117.05126999999993,114.74365200000011,112.94873000000007,118.84619099999964,108.20507799999996,99.61523400000078,79.23095699999976
258,80.38476599999922,97.30761700000039,92.43603499999972,186.15380900000036,134.48730499999965,116.6665039999998,113.84619099999964,115.38476599999922,115.76904300000024,119.61523400000078,120.25634799999989,106.79492200000004,100.12841800000024,74.23095699999976
259,77.17968800000017,99.35888699999941,90.64111300000059,188.58984400000008,129.7436520000001,112.69238299999961,113.20507799999996,113.9741210000002,116.15380900000036,120.12841800000024,119.74365200000011,107.30761700000039,101.53857400000015,70.76904300000024
260,72.82031300000017,99.74365200000011,88.20507799999996,182.94873000000007,120.38476599999922,106.79492200000004,111.6665039999998,111.0258789999998,113.84619099999964,112.94873000000007,115.0,107.43603499999972,99.23095699999976,67.56396500000028
261,68.20507799999996,96.0258789999998,84.87158199999976,173.0771479999994,110.64111300000059,102.69238299999961,109.48730499999965,107.05126999999993,109.48730499999965,101.79492200000004,107.69238299999961,105.0,92.17968800000017,64.35888699999941
262,65.89746099999957,91.2822270000006,82.69238299999961,167.43603499999972,105.12841800000024,103.3334960000002,108.84619099999964,104.61523400000078,106.79492200000004,93.58984400000008,102.82031300000017,100.64111300000059,85.0,62.94873000000007
263,67.56396500000028,89.87158199999976,83.58984400000008,170.6411130000006,106.2822270000006,108.58984400000008,110.76904300000024,105.76904300000024,107.69238299999961,93.0771479999994,104.23095699999976,97.94873000000007,83.7177729999994,64.61523400000078
264,71.79492200000004,92.56396500000028,86.53857400000015,179.23095699999976,111.9228520000006,115.12841800000024,114.23095699999976,109.61523400000078,111.0258789999998,98.58984400000008,110.89746099999957,99.35888699999941,89.87158199999976,68.46142599999985
265,75.0,96.15380900000036,88.84619099999964,185.0,118.0771479999994,118.7177729999994,116.53857400000015,112.82031300000017,112.69238299999961,104.35888699999941,117.43603499999972,104.10253900000043,98.46142599999985,72.17968800000017
266,74.35888699999941,97.17968800000017,88.7177729999994,182.94873000000007,121.79492200000004,117.43603499999972,115.89746099999957,112.56396500000028,110.76904300000024,105.25634799999989,118.84619099999964,108.20507799999996,103.3334960000002,73.7177729999994
267,70.89746099999957,96.15380900000036,87.30761700000039,176.53857400000015,123.20507799999996,113.0771479999994,113.58984400000008,109.61523400000078,107.56396500000028,101.2822270000006,115.76904300000024,108.84619099999964,101.9228520000006,73.3334960000002
268,68.7177729999994,96.41015599999992,87.82031300000017,173.58984400000008,124.74365200000011,109.35888699999941,112.17968800000017,108.0771479999994,107.56396500000028,97.69238299999961,113.7177729999994,106.41015599999992,98.20507799999996,73.84619099999964
269,71.15380900000036,100.12841800000024,92.17968800000017,178.58984400000008,127.94873000000007,108.7177729999994,113.20507799999996,110.76904300000024,112.56396500000028,98.9741210000002,117.43603499999972,104.10253900000043,97.82031300000017,76.79492200000004
270,77.43603499999972,105.51269500000035,97.94873000000007,187.6923829999996,130.76904300000024,110.64111300000059,115.64111300000059,116.0258789999998,118.58984400000008,105.0,125.64111300000059,104.48730499999965,102.30761700000039,81.15380900000036
271,83.58984400000008,108.20507799999996,101.79492200000004,193.3334960000002,129.48730499999965,112.56396500000028,117.30761700000039,119.23095699999976,120.38476599999922,111.15380900000036,132.43603499999972,107.94873000000007,107.82031300000017,84.23095699999976
272,86.6665039999998,107.17968800000017,101.9228520000006,191.53857400000015,123.7177729999994,111.79492200000004,117.17968800000017,118.3334960000002,116.0258789999998,113.46142599999985,133.46142599999985,112.56396500000028,109.48730499999965,84.23095699999976
273,86.9228520000006,105.64111300000059,100.12841800000024,186.15380900000036,117.30761700000039,108.20507799999996,116.53857400000015,115.25634799999989,109.35888699999941,111.79492200000004,129.7436520000001,116.2822270000006,106.6665039999998,82.82031300000017
274,87.17968800000017,107.43603499999972,100.0,183.0771479999994,115.25634799999989,103.58984400000008,117.69238299999961,114.87158199999976,106.41015599999992,109.35888699999941,126.0258789999998,117.43603499999972,103.20507799999996,82.94873000000007
275,88.3334960000002,112.17968800000017,102.69238299999961,184.10253900000043,117.94873000000007,100.25634799999989,120.76904300000024,119.10253900000043,109.48730499999965,108.3334960000002,126.15380900000036,116.0258789999998,102.69238299999961,85.89746099999957
276,88.7177729999994,114.35888699999941,105.51269500000035,183.9741210000002,120.12841800000024,99.10253900000043,122.94873000000007,125.38476599999922,115.12841800000024,107.69238299999961,129.3588869999994,113.0771479999994,104.61523400000078,88.84619099999964
277,85.76904300000024,108.20507799999996,104.23095699999976,176.53857400000015,116.9228520000006,99.61523400000078,121.2822270000006,127.69238299999961,116.2822270000006,104.23095699999976,131.0258789999998,110.25634799999989,104.48730499999965,87.43603499999972
278,78.46142599999985,93.7177729999994,96.79492200000004,160.89746099999957,108.0771479999994,100.38476599999922,115.89746099999957,123.0771479999994,110.12841800000024,96.6665039999998,126.9228520000006,108.7177729999994,99.23095699999976,80.25634799999989
279,69.35888699999941,78.46142599999985,86.2822270000006,144.87158199999976,99.61523400000078,100.76904300000024,110.12841800000024,113.84619099999964,100.12841800000024,88.3334960000002,118.0771479999994,108.7177729999994,90.76904300000024,70.64111300000059
280,64.35888699999941,72.17968800000017,79.35888699999941,138.58984400000008,98.0771479999994,100.51269500000035,107.82031300000017,107.56396500000028,94.87158199999976,85.51269500000035,111.0258789999998,109.74365200000011,85.0,64.48730499999965
281,68.0771479999994,79.87158199999976,81.6665039999998,147.3076170000004,105.64111300000059,100.12841800000024,110.0,110.38476599999922,99.48730499999965,92.43603499999972,112.30761700000039,111.2822270000006,87.94873000000007,66.2822270000006
282,80.64111300000059,98.3334960000002,93.58984400000008,165.0,119.35888699999941,100.64111300000059,114.87158199999976,121.6665039999998,112.56396500000028,106.53857400000015,122.94873000000007,113.20507799999996,99.87158199999976,75.38476599999922
283,96.2822270000006,117.43603499999972,108.58984400000008,178.20507799999996,131.9228520000006,101.9228520000006,119.10253900000043,134.48730499999965,126.53857400000015,119.35888699999941,136.9228520000006,114.74365200000011,114.61523400000078,87.43603499999972
284,107.05126999999993,127.30761700000039,118.20507799999996,176.2822270000006,136.15380900000036,103.0771479999994,121.15380900000036,140.38476599999922,134.48730499999965,122.56396500000028,145.51269500000035,115.0,123.7177729999994,96.0258789999998
285,108.3334960000002,123.9741210000002,117.43603499999972,159.7436520000001,129.7436520000001,102.94873000000007,121.2822270000006,136.53857400000015,133.58984400000008,114.74365200000011,144.23095699999976,113.20507799999996,122.43603499999972,97.43603499999972
286,101.15380900000036,111.6665039999998,107.69238299999961,140.51269500000035,116.9228520000006,101.9228520000006,119.87158199999976,126.15380900000036,125.89746099999957,102.82031300000017,136.0258789999998,110.0,113.0771479999994,91.53857400000015
287,90.64111300000059,98.58984400000008,95.12841800000024,132.6923829999996,104.74365200000011,100.76904300000024,117.05126999999993,116.0258789999998,116.2822270000006,96.41015599999992,127.69238299999961,106.79492200000004,102.43603499999972,81.79492200000004
288,82.30761700000039,90.76904300000024,87.05126999999993,142.17968800000017,98.9741210000002,100.38476599999922,113.3334960000002,111.53857400000015,109.61523400000078,99.87158199999976,124.10253900000043,104.74365200000011,96.41015599999992,73.20507799999996
289,79.61523400000078,90.25634799999989,86.41015599999992,163.3334960000002,100.89746099999957,100.12841800000024,109.48730499999965,113.20507799999996,107.56396500000028,110.0,125.38476599999922,104.35888699999941,96.53857400000015,69.61523400000078
290,82.30761700000039,94.35888699999941,91.53857400000015,183.46142599999985,108.0771479999994,99.61523400000078,106.53857400000015,116.9228520000006,108.20507799999996,118.7177729999994,127.43603499999972,105.12841800000024,99.87158199999976,71.0258789999998
291,87.43603499999972,99.23095699999976,97.43603499999972,193.20507799999996,116.79492200000004,99.10253900000043,105.51269500000035,117.56396500000028,108.84619099999964,120.25634799999989,126.79492200000004,106.79492200000004,102.82031300000017,74.87158199999976
292,92.30761700000039,102.17968800000017,100.64111300000059,192.82031300000017,124.23095699999976,99.74365200000011,107.17968800000017,114.23095699999976,108.84619099999964,115.12841800000024,124.35888699999941,109.23095699999976,103.7177729999994,78.84619099999964
293,96.41015599999992,103.84619099999964,101.9228520000006,191.0258789999998,129.23095699999976,102.30761700000039,111.9228520000006,111.0258789999998,110.12841800000024,109.10253900000043,124.23095699999976,112.30761700000039,104.74365200000011,82.82031300000017
294,100.51269500000035,106.79492200000004,103.84619099999964,195.89746099999957,131.2822270000006,105.89746099999957,118.20507799999996,112.82031300000017,114.10253900000043,108.0771479999994,129.7436520000001,115.38476599999922,108.20507799999996,87.43603499999972
295,104.48730499999965,112.56396500000028,108.20507799999996,208.20507799999996,130.38476599999922,108.58984400000008,123.84619099999964,120.38476599999922,120.12841800000024,112.43603499999972,138.58984400000008,117.17968800000017,113.9741210000002,92.05126999999993
296,106.9228520000006,119.10253900000043,113.46142599999985,220.51269500000035,128.46142599999985,109.35888699999941,126.79492200000004,129.3588869999994,125.51269500000035,118.0771479999994,144.48730499999965,117.05126999999993,119.10253900000043,95.12841800000024
297,106.0258789999998,122.30761700000039,116.15380900000036,224.10253900000043,128.7177729999994,108.7177729999994,126.53857400000015,133.7177729999994,128.3334960000002,120.12841800000024,142.43603499999972,114.87158199999976,120.64111300000059,95.25634799999989
298,101.41015599999992,120.12841800000024,113.9741210000002,216.0258789999998,132.56396500000028,107.69238299999961,123.58984400000008,130.89746099999957,128.3334960000002,116.15380900000036,133.3334960000002,112.05126999999993,117.43603499999972,92.94873000000007
299,94.61523400000078,113.20507799999996,107.82031300000017,202.43603499999972,137.05126999999993,106.6665039999998,119.61523400000078,123.3334960000002,126.0258789999998,108.46142599999985,123.58984400000008,111.0258789999998,111.53857400000015,89.23095699999976
300,88.7177729999994,104.87158199999976,100.89746099999957,192.94873000000007,136.15380900000036,106.0258789999998,116.2822270000006,116.2822270000006,122.69238299999961,100.89746099999957,119.87158199999976,112.56396500000028,105.76904300000024,85.25634799999989
301,85.64111300000059,97.94873000000007,96.15380900000036,193.84619099999964,126.15380900000036,106.0258789999998,114.61523400000078,113.3334960000002,118.7177729999994,96.9228520000006,123.20507799999996,114.74365200000011,102.05126999999993,81.2822270000006
302,85.12841800000024,94.74365200000011,94.35888699999941,202.6923829999996,110.12841800000024,106.41015599999992,114.48730499999965,114.23095699999976,114.23095699999976,97.17968800000017,128.58984400000008,115.25634799999989,100.89746099999957,77.56396500000028
303,85.12841800000024,96.15380900000036,94.35888699999941,211.53857400000015,97.43603499999972,106.41015599999992,115.0,116.0258789999998,110.12841800000024,100.51269500000035,129.7436520000001,113.3334960000002,100.89746099999957,74.74365200000011
304,85.12841800000024,101.41015599999992,94.87158199999976,214.10253900000043,96.53857400000015,105.76904300000024,115.25634799999989,116.6665039999998,108.46142599999985,105.25634799999989,125.76904300000024,110.89746099999957,100.76904300000024,73.84619099999964
305,85.89746099999957,107.69238299999961,96.0258789999998,211.6665039999998,109.23095699999976,105.38476599999922,115.25634799999989,116.2822270000006,110.51269500000035,110.38476599999922,121.79492200000004,110.51269500000035,100.25634799999989,76.2822270000006
306,87.94873000000007,112.17968800000017,98.46142599999985,210.76904300000024,127.94873000000007,106.2822270000006,115.51269500000035,116.2822270000006,115.38476599999922,115.76904300000024,123.3334960000002,113.0771479999994,100.0,81.41015599999992
307,90.12841800000024,112.30761700000039,102.30761700000039,216.79492200000004,140.51269500000035,107.56396500000028,116.15380900000036,117.30761700000039,120.0,120.0,131.2822270000006,116.9228520000006,100.0,86.41015599999992
308,90.51269500000035,108.3334960000002,105.89746099999957,228.58984400000008,138.58984400000008,108.3334960000002,116.79492200000004,118.20507799999996,120.51269500000035,121.0258789999998,140.0,119.23095699999976,100.12841800000024,87.94873000000007
309,88.58984400000008,103.20507799999996,106.9228520000006,240.2563479999999,124.35888699999941,108.3334960000002,116.2822270000006,117.94873000000007,116.9228520000006,118.3334960000002,142.94873000000007,118.84619099999964,101.0258789999998,85.12841800000024
310,86.6665039999998,101.9228520000006,105.12841800000024,246.41015599999992,109.35888699999941,108.7177729999994,114.87158199999976,116.6665039999998,113.3334960000002,114.48730499999965,139.10253900000043,117.17968800000017,104.23095699999976,80.25634799999989
311,88.0771479999994,107.17968800000017,102.56396500000028,246.2822270000006,105.38476599999922,110.25634799999989,114.23095699999976,116.41015599999992,114.74365200000011,113.3334960000002,133.46142599999985,116.0258789999998,110.76904300000024,78.46142599999985
312,93.9741210000002,116.79492200000004,101.9228520000006,244.3588869999994,115.25634799999989,112.43603499999972,115.89746099999957,118.3334960000002,122.56396500000028,116.0258789999998,131.2822270000006,116.41015599999992,118.3334960000002,82.43603499999972
313,101.9228520000006,124.48730499999965,103.46142599999985,245.2563479999999,131.15380900000036,113.0771479999994,119.10253900000043,121.2822270000006,131.6665039999998,119.61523400000078,133.3334960000002,117.05126999999993,122.82031300000017,89.35888699999941
314,107.05126999999993,125.12841800000024,104.87158199999976,249.3588869999994,141.41015599999992,110.51269500000035,121.0258789999998,121.0258789999998,134.87158199999976,119.61523400000078,135.2563479999999,115.64111300000059,120.64111300000059,93.0771479999994
315,106.0258789999998,118.3334960000002,103.9741210000002,252.82031300000017,139.3588869999994,105.25634799999989,119.35888699999941,115.38476599999922,129.3588869999994,114.10253900000043,133.3334960000002,111.15380900000036,111.9228520000006,89.10253900000043
316,100.89746099999957,109.74365200000011,100.0,251.6665039999998,128.58984400000008,100.38476599999922,115.38476599999922,106.0258789999998,118.84619099999964,105.89746099999957,127.56396500000028,105.38476599999922,101.6665039999998,79.74365200000011
317,96.53857400000015,105.38476599999922,94.61523400000078,246.0258789999998,117.30761700000039,98.58984400000008,111.79492200000004,98.20507799999996,110.12841800000024,100.25634799999989,121.79492200000004,101.53857400000015,95.38476599999922,71.15380900000036
318,96.0258789999998,107.43603499999972,89.48730499999965,240.12841800000024,111.53857400000015,99.87158199999976,110.76904300000024,95.38476599999922,106.6665039999998,100.12841800000024,118.9741210000002,101.2822270000006,95.64111300000059,67.94873000000007
319,98.46142599999985,112.17968800000017,86.2822270000006,238.84619099999964,111.53857400000015,102.94873000000007,111.79492200000004,97.17968800000017,107.43603499999972,103.7177729999994,119.48730499999965,103.3334960000002,99.87158199999976,70.25634799999989
320,100.25634799999989,114.10253900000043,86.53857400000015,243.9741210000002,114.48730499999965,105.64111300000059,114.10253900000043,100.64111300000059,109.23095699999976,107.43603499999972,121.9228520000006,104.87158199999976,103.7177729999994,74.74365200000011
321,98.7177729999994,110.64111300000059,90.25634799999989,251.9228520000006,117.43603499999972,106.53857400000015,116.0258789999998,103.20507799999996,110.12841800000024,108.3334960000002,124.61523400000078,104.48730499999965,103.9741210000002,77.69238299999961
322,93.20507799999996,103.84619099999964,94.61523400000078,256.79492200000004,118.9741210000002,104.87158199999976,116.2822270000006,103.58984400000008,109.74365200000011,106.2822270000006,124.87158199999976,102.56396500000028,100.12841800000024,76.9228520000006
323,85.76904300000024,97.69238299999961,96.53857400000015,254.23095699999976,118.84619099999964,101.41015599999992,114.10253900000043,101.79492200000004,108.3334960000002,102.82031300000017,121.0258789999998,100.76904300000024,94.48730499999965,72.43603499999972
324,80.64111300000059,96.0258789999998,94.87158199999976,246.2822270000006,118.7177729999994,98.84619099999964,111.15380900000036,100.25634799999989,107.43603499999972,101.53857400000015,114.74365200000011,100.51269500000035,91.15380900000036,67.43603499999972
325,82.69238299999961,101.6665039999998,93.0771479999994,239.87158199999976,121.41015599999992,100.25634799999989,110.89746099999957,102.43603499999972,109.61523400000078,105.64111300000059,111.2822270000006,102.69238299999961,94.10253900000043,67.43603499999972
326,92.82031300000017,114.61523400000078,95.89746099999957,241.53857400000015,129.10253900000043,106.2822270000006,115.76904300000024,110.38476599999922,117.05126999999993,115.64111300000059,115.89746099999957,107.82031300000017,103.84619099999964,76.15380900000036
327,107.05126999999993,130.51269500000035,104.87158199999976,251.6665039999998,140.2563479999999,113.7177729999994,123.84619099999964,122.30761700000039,128.0771479999994,127.05126999999993,128.7177729999994,114.74365200000011,115.51269500000035,90.76904300000024
328,117.56396500000028,141.53857400000015,115.12841800000024,264.23095699999976,148.58984400000008,118.0771479999994,130.38476599999922,131.41015599999992,137.3076170000004,133.20507799999996,142.82031300000017,120.0,122.05126999999993,103.58984400000008
329,118.0771479999994,140.6411130000006,119.48730499999965,270.51269500000035,147.43603499999972,116.79492200000004,131.0258789999998,131.6665039999998,139.3588869999994,129.23095699999976,148.84619099999964,120.25634799999989,119.35888699999941,106.6665039999998
330,107.69238299999961,127.94873000000007,113.84619099999964,265.3847659999992,135.51269500000035,111.15380900000036,125.12841800000024,122.69238299999961,132.43603499999972,116.79492200000004,142.6923829999996,115.38476599999922,108.84619099999964,98.46142599999985
331,92.56396500000028,111.0258789999998,100.64111300000059,249.7436520000001,118.58984400000008,105.25634799999989,115.89746099999957,110.12841800000024,119.87158199999976,103.20507799999996,127.82031300000017,108.46142599999985,97.05126999999993,84.48730499999965
332,81.79492200000004,99.87158199999976,87.17968800000017,229.87158199999976,105.76904300000024,102.69238299999961,108.0771479999994,101.41015599999992,108.84619099999964,96.2822270000006,113.3334960000002,103.46142599999985,90.12841800000024,73.0771479999994
333,80.89746099999957,99.61523400000078,80.51269500000035,213.3334960000002,101.79492200000004,103.9741210000002,105.38476599999922,100.38476599999922,104.61523400000078,98.20507799999996,107.17968800000017,102.43603499999972,90.64111300000059,70.0
334,88.3334960000002,107.30761700000039,82.82031300000017,204.10253900000043,105.64111300000059,106.79492200000004,107.82031300000017,105.12841800000024,108.0771479999994,104.10253900000043,111.6665039999998,104.23095699999976,95.76904300000024,74.74365200000011
335,97.82031300000017,115.51269500000035,90.51269500000035,202.56396500000028,111.9228520000006,108.84619099999964,112.17968800000017,110.38476599999922,114.48730499999965,106.79492200000004,121.9228520000006,106.2822270000006,100.51269500000035,82.17968800000017
336,103.9741210000002,118.20507799999996,98.46142599999985,206.6665039999998,117.05126999999993,109.10253900000043,115.12841800000024,112.17968800000017,118.84619099999964,103.3334960000002,131.15380900000036,107.43603499999972,101.41015599999992,87.17968800000017
337,105.51269500000035,115.89746099999957,103.3334960000002,213.46142599999985,120.51269500000035,109.10253900000043,115.89746099999957,110.76904300000024,119.35888699999941,97.82031300000017,135.2563479999999,108.0771479999994,99.61523400000078,88.7177729999994
338,104.61523400000078,113.58984400000008,104.48730499999965,218.3334960000002,123.20507799999996,110.0,115.51269500000035,108.58984400000008,117.82031300000017,96.53857400000015,134.87158199999976,109.23095699999976,98.46142599999985,88.46142599999985
339,103.0771479999994,115.12841800000024,102.82031300000017,216.15380900000036,124.87158199999976,112.17968800000017,115.64111300000059,107.56396500000028,116.0258789999998,102.05126999999993,131.9228520000006,111.0258789999998,99.87158199999976,87.82031300000017
340,100.64111300000059,120.0,99.10253900000043,203.7177729999994,124.10253900000043,113.9741210000002,116.41015599999992,107.17968800000017,114.10253900000043,110.25634799999989,127.94873000000007,112.30761700000039,102.56396500000028,86.53857400000015
341,96.6665039999998,123.58984400000008,94.48730499999965,184.10253900000043,120.89746099999957,113.9741210000002,116.6665039999998,106.0258789999998,111.2822270000006,114.10253900000043,123.20507799999996,111.41015599999992,103.58984400000008,83.9741210000002
342,92.05126999999993,122.30761700000039,90.25634799999989,165.6411130000006,117.56396500000028,112.43603499999972,115.51269500000035,103.7177729999994,107.69238299999961,110.25634799999989,118.58984400000008,108.7177729999994,101.53857400000015,80.64111300000059
343,89.74365200000011,117.30761700000039,88.20507799999996,157.82031300000017,117.56396500000028,111.15380900000036,113.9741210000002,102.05126999999993,105.64111300000059,102.17968800000017,116.41015599999992,106.0258789999998,98.58984400000008,78.9741210000002
344,92.17968800000017,113.0771479999994,88.7177729999994,163.7177729999994,122.56396500000028,111.9228520000006,114.10253900000043,103.46142599999985,107.05126999999993,96.6665039999998,118.7177729999994,105.64111300000059,98.3334960000002,80.51269500000035
345,97.69238299999961,113.20507799999996,90.25634799999989,177.82031300000017,129.87158199999976,114.10253900000043,116.15380900000036,108.58984400000008,111.9228520000006,97.69238299999961,124.61523400000078,108.58984400000008,101.9228520000006,83.7177729999994
346,101.53857400000015,116.2822270000006,90.51269500000035,188.58984400000008,134.10253900000043,116.0258789999998,118.7177729999994,115.25634799999989,117.05126999999993,103.0771479999994,130.0,113.20507799999996,107.05126999999993,85.38476599999922
347,99.23095699999976,117.43603499999972,88.9741210000002,186.2822270000006,131.2822270000006,116.6665039999998,119.74365200000011,119.35888699999941,118.84619099999964,106.9228520000006,130.38476599999922,115.89746099999957,109.10253900000043,82.82031300000017
348,91.2822270000006,114.10253900000043,86.15380900000036,169.23095699999976,122.56396500000028,116.15380900000036,118.84619099999964,118.46142599999985,116.15380900000036,105.12841800000024,125.12841800000024,114.35888699999941,105.89746099999957,76.2822270000006
349,82.82031300000017,108.0771479999994,83.46142599999985,145.51269500000035,114.35888699999941,115.76904300000024,116.79492200000004,114.10253900000043,111.9228520000006,99.87158199999976,117.17968800000017,109.48730499999965,99.10253900000043,68.7177729999994
350,79.48730499999965,103.84619099999964,81.6665039999998,126.6665039999998,111.2822270000006,115.76904300000024,113.84619099999964,109.87158199999976,109.35888699999941,95.64111300000059,110.89746099999957,104.35888699999941,92.82031300000017,63.46142599999985
351,82.17968800000017,103.58984400000008,80.51269500000035,120.25634799999989,111.9228520000006,115.0,110.76904300000024,107.69238299999961,108.7177729999994,94.74365200000011,107.94873000000007,101.53857400000015,89.10253900000043,61.2822270000006
352,86.6665039999998,104.35888699999941,78.9741210000002,124.74365200000011,110.64111300000059,112.82031300000017,107.56396500000028,106.2822270000006,107.17968800000017,94.10253900000043,106.6665039999998,101.15380900000036,86.9228520000006,60.76904300000024
353,87.05126999999993,102.17968800000017,76.2822270000006,131.9228520000006,104.23095699999976,109.48730499999965,104.87158199999976,103.0771479999994,102.56396500000028,89.61523400000078,104.10253900000043,101.6665039999998,83.7177729999994,59.48730499999965
354,82.05126999999993,96.2822270000006,73.46142599999985,133.46142599999985,96.53857400000015,107.17968800000017,102.82031300000017,98.3334960000002,96.15380900000036,82.17968800000017,100.12841800000024,102.17968800000017,79.35888699999941,57.56396500000028
355,76.6665039999998,92.05126999999993,72.94873000000007,127.43603499999972,96.53857400000015,107.17968800000017,102.56396500000028,95.76904300000024,92.56396500000028,78.58984400000008,97.56396500000028,103.3334960000002,76.9228520000006,57.30761700000039
356,78.46142599999985,96.41015599999992,77.43603499999972,118.20507799999996,110.0,109.48730499999965,105.51269500000035,99.10253900000043,96.79492200000004,85.38476599999922,100.64111300000059,106.0258789999998,81.41015599999992,61.79492200000004
357,90.64111300000059,111.15380900000036,86.79492200000004,111.9228520000006,132.94873000000007,112.56396500000028,112.69238299999961,109.35888699999941,109.74365200000011,102.30761700000039,110.89746099999957,110.25634799999989,93.9741210000002,71.79492200000004
358,108.58984400000008,129.7436520000001,97.69238299999961,111.0258789999998,153.84619099999964,115.25634799999989,122.17968800000017,122.94873000000007,127.05126999999993,121.6665039999998,124.87158199999976,114.87158199999976,110.38476599999922,83.84619099999964
359,122.17968800000017,141.53857400000015,104.74365200000011,112.94873000000007,161.41015599999992,116.9228520000006,129.7436520000001,133.46142599999985,140.2563479999999,133.58984400000008,135.51269500000035,118.3334960000002,122.43603499999972,92.56396500000028
360,123.3334960000002,139.48730499999965,104.74365200000011,111.6665039999998,151.2822270000006,116.6665039999998,131.2822270000006,135.0,142.43603499999972,132.05126999999993,137.05126999999993,118.7177729999994,123.46142599999985,93.58984400000008
361,111.53857400000015,125.38476599999922,97.56396500000028,103.0771479999994,129.48730499999965,113.3334960000002,125.51269500000035,125.76904300000024,132.43603499999972,118.46142599999985,128.84619099999964,115.12841800000024,112.43603499999972,86.41015599999992
362,94.35888699999941,107.82031300000017,87.17968800000017,88.7177729999994,107.17968800000017,107.30761700000039,115.25634799999989,110.25634799999989,115.76904300000024,99.87158199999976,115.64111300000059,108.9741210000002,95.51269500000035,75.51269500000035
363,82.05126999999993,95.76904300000024,79.10253900000043,76.41015599999992,93.3334960000002,101.15380900000036,106.15380900000036,96.79492200000004,101.79492200000004,85.51269500000035,104.48730499999965,103.84619099999964,81.9228520000006,66.6665039999998
364,81.41015599999992,93.3334960000002,78.46142599999985,75.25634799999989,90.64111300000059,98.46142599999985,103.20507799999996,92.30761700000039,97.69238299999961,81.53857400000015,101.0258789999998,103.0771479999994,78.20507799999996,64.10253900000043
365,90.89746099999957,98.0771479999994,85.64111300000059,89.74365200000011,96.2822270000006,101.15380900000036,107.05126999999993,97.82031300000017,104.35888699999941,88.3334960000002,106.0258789999998,106.79492200000004,84.48730499999965,68.20507799999996
366,102.69238299999961,104.23095699999976,96.41015599999992,115.89746099999957,105.89746099999957,107.69238299999961,114.35888699999941,107.43603499999972,115.64111300000059,100.51269500000035,115.89746099999957,112.56396500000028,94.61523400000078,75.25634799999989
367,108.46142599999985,107.82031300000017,104.23095699999976,142.94873000000007,115.76904300000024,115.0,119.61523400000078,113.20507799999996,122.94873000000007,109.87158199999976,124.61523400000078,116.53857400000015,101.9228520000006,80.25634799999989
368,104.87158199999976,108.46142599999985,105.0,158.84619099999964,122.94873000000007,119.35888699999941,120.0,111.15380900000036,121.15380900000036,110.76904300000024,128.20507799999996,117.05126999999993,103.84619099999964,80.0
369,96.53857400000015,108.84619099999964,99.87158199999976,158.58984400000008,125.89746099999957,119.61523400000078,116.53857400000015,104.87158199999976,112.82031300000017,104.35888699999941,127.17968800000017,115.0,102.05126999999993,76.2822270000006
370,91.2822270000006,111.41015599999992,94.61523400000078,147.3076170000004,125.0,116.79492200000004,113.3334960000002,101.2822270000006,105.64111300000059,96.9228520000006,125.89746099999957,112.69238299999961,100.51269500000035,74.23095699999976
371,93.9741210000002,116.15380900000036,94.23095699999976,136.9228520000006,122.05126999999993,113.7177729999994,113.58984400000008,104.23095699999976,105.89746099999957,95.38476599999922,127.82031300000017,112.56396500000028,101.6665039999998,77.17968800000017
372,102.69238299999961,120.76904300000024,98.9741210000002,137.43603499999972,120.51269500000035,112.56396500000028,117.05126999999993,111.53857400000015,113.20507799999996,101.53857400000015,132.43603499999972,114.87158199999976,104.48730499999965,83.84619099999964
373,110.25634799999989,122.94873000000007,104.87158199999976,149.61523400000078,122.43603499999972,113.3334960000002,120.38476599999922,117.43603499999972,121.2822270000006,111.6665039999998,135.2563479999999,117.94873000000007,106.6665039999998,89.48730499999965
374,110.25634799999989,121.53857400000015,107.30761700000039,164.7436520000001,127.30761700000039,114.61523400000078,120.64111300000059,117.56396500000028,123.46142599999985,119.10253900000043,132.6923829999996,119.23095699999976,106.15380900000036,89.87158199999976
375,102.05126999999993,117.30761700000039,104.35888699999941,170.38476599999922,131.41015599999992,115.0,117.94873000000007,111.9228520000006,117.30761700000039,118.84619099999964,124.74365200000011,117.82031300000017,102.82031300000017,84.35888699999941
376,90.76904300000024,111.6665039999998,97.30761700000039,161.41015599999992,130.0,114.35888699999941,114.48730499999965,104.23095699999976,107.05126999999993,110.0,115.12841800000024,114.87158199999976,97.56396500000028,75.76904300000024
377,83.20507799999996,105.64111300000059,88.9741210000002,143.58984400000008,120.89746099999957,113.7177729999994,112.30761700000039,97.94873000000007,98.58984400000008,96.9228520000006,107.94873000000007,112.56396500000028,91.2822270000006,68.58984400000008
378,82.82031300000017,100.51269500000035,82.82031300000017,129.87158199999976,106.6665039999998,112.94873000000007,111.9228520000006,95.0,95.51269500000035,86.15380900000036,105.12841800000024,111.79492200000004,85.25634799999989,65.76904300000024
379,88.20507799999996,98.3334960000002,81.0258789999998,130.0,94.48730499999965,111.2822270000006,112.43603499999972,95.12841800000024,96.41015599999992,81.79492200000004,106.2822270000006,112.30761700000039,81.2822270000006,67.56396500000028
380,95.89746099999957,101.2822270000006,84.61523400000078,143.7177729999994,91.15380900000036,108.58984400000008,113.20507799999996,96.79492200000004,98.7177729999994,83.7177729999994,109.48730499999965,113.46142599999985,80.89746099999957,72.43603499999972
381,102.17968800000017,109.74365200000011,91.9228520000006,161.53857400000015,98.7177729999994,105.76904300000024,114.10253900000043,98.20507799999996,100.64111300000059,89.61523400000078,114.10253900000043,115.0,85.0,78.84619099999964
382,105.25634799999989,119.87158199999976,100.12841800000024,171.9228520000006,112.56396500000028,104.48730499999965,114.74365200000011,99.23095699999976,102.43603499999972,95.89746099999957,118.7177729999994,116.41015599999992,92.69238299999961,85.25634799999989
383,105.64111300000059,126.0258789999998,105.51269500000035,169.61523400000078,124.61523400000078,105.89746099999957,115.25634799999989,99.87158199999976,105.12841800000024,100.12841800000024,121.9228520000006,116.9228520000006,101.15380900000036,89.87158199999976
