,EEG.AF3,EEG.F7,EEG.F3,EEG.FC5,EEG.T7,EEG.P7,EEG.O1,EEG.O2,EEG.P8,EEG.T8,EEG.FC6,EEG.F4,EEG.F8,EEG.AF4
0,103.58984400000008,88.46142599999985,50.25634799999989,124.48730499999965,118.46142599999985,98.3334960000002,116.53857400000015,111.79492200000004,117.30761700000039,102.69238299999961,99.61523400000078,112.69238299999961,95.76904300000024,127.30761700000039
1,100.76904300000024,94.61523400000078,49.102539000000434,124.23095699999976,130.2563479999999,94.48730499999965,117.17968800000017,110.12841800000024,112.82031300000017,101.9228520000006,97.30761700000039,111.15380900000036,95.51269500000035,126.53857400000015
2,100.25634799999989,103.9741210000002,46.9228520000006,127.94873000000007,135.76904300000024,95.51269500000035,117.30761700000039,108.84619099999964,111.0258789999998,110.0,96.53857400000015,109.87158199999976,94.35888699999941,131.0258789999998
3,101.53857400000015,110.38476599999922,44.87158199999976,131.15380900000036,130.51269500000035,98.9741210000002,115.89746099999957,107.43603499999972,112.17968800000017,123.0771479999994,97.56396500000028,108.9741210000002,93.46142599999985,137.56396500000028
4,104.35888699999941,112.69238299999961,45.25634799999989,132.43603499999972,121.6665039999998,102.17968800000017,113.3334960000002,107.17968800000017,115.25634799999989,134.87158199999976,102.17968800000017,109.74365200000011,95.76904300000024,143.3334960000002
5,108.58984400000008,112.82031300000017,49.102539000000434,134.48730499999965,121.6665039999998,104.35888699999941,111.2822270000006,109.48730499999965,118.84619099999964,140.38476599999922,111.2822270000006,112.82031300000017,101.9228520000006,146.9228520000006
6,113.7177729999994,113.58984400000008,55.0,139.61523400000078,137.94873000000007,106.2822270000006,111.6665039999998,114.35888699999941,122.43603499999972,138.58984400000008,122.69238299999961,117.05126999999993,109.35888699999941,148.58984400000008
7,118.46142599999985,116.0258789999998,58.974121000000196,146.2822270000006,167.05126999999993,109.23095699999976,114.74365200000011,120.25634799999989,127.69238299999961,133.84619099999964,131.9228520000006,119.61523400000078,114.35888699999941,149.87158199999976
8,120.76904300000024,118.46142599999985,57.30761700000039,148.84619099999964,195.51269500000035,112.56396500000028,118.0771479999994,124.35888699999941,134.7436520000001,131.53857400000015,134.10253900000043,118.84619099999964,114.23095699999976,150.51269500000035
9,118.7177729999994,119.10253900000043,48.974121000000196,143.0771479999994,209.48730499999965,113.9741210000002,118.20507799999996,123.58984400000008,140.2563479999999,134.23095699999976,126.53857400000015,114.74365200000011,109.10253900000043,149.10253900000043
10,113.0771479999994,117.94873000000007,37.43603499999972,130.76904300000024,205.0,111.53857400000015,114.35888699999941,118.0771479999994,140.0,140.0,112.43603499999972,109.61523400000078,102.30761700000039,145.12841800000024
11,107.56396500000028,116.9228520000006,29.102539000000434,120.0,190.2563479999999,106.9228520000006,110.25634799999989,111.9228520000006,133.46142599999985,145.51269500000035,100.0,106.6665039999998,98.46142599999985,140.76904300000024
12,105.51269500000035,117.56396500000028,28.717772999999397,117.82031300000017,177.94873000000007,103.7177729999994,110.38476599999922,111.2822270000006,124.23095699999976,147.94873000000007,96.6665039999998,108.0771479999994,99.74365200000011,138.9741210000002
13,106.53857400000015,117.94873000000007,34.61523400000078,124.87158199999976,173.9741210000002,104.61523400000078,115.0,117.17968800000017,117.05126999999993,144.7436520000001,103.3334960000002,113.46142599999985,104.10253900000043,140.12841800000024
14,106.53857400000015,114.61523400000078,40.25634799999989,134.87158199999976,173.46142599999985,107.69238299999961,119.74365200000011,124.23095699999976,114.10253900000043,135.2563479999999,112.94873000000007,119.35888699999941,106.79492200000004,140.51269500000035
15,102.30761700000039,106.6665039999998,39.87158199999976,139.7436520000001,169.10253900000043,109.35888699999941,119.87158199999976,124.74365200000011,114.74365200000011,124.10253900000043,117.43603499999972,121.15380900000036,105.12841800000024,137.17968800000017
16,94.61523400000078,97.94873000000007,33.20507799999996,135.89746099999957,161.41015599999992,108.20507799999996,115.25634799999989,116.41015599999992,116.9228520000006,120.38476599999922,113.3334960000002,117.05126999999993,100.51269500000035,130.38476599999922
17,86.79492200000004,95.51269500000035,25.0,125.64111300000059,158.3334960000002,105.89746099999957,109.48730499999965,103.0771479999994,117.69238299999961,128.9741210000002,103.20507799999996,109.74365200000011,95.12841800000024,122.82031300000017
18,81.15380900000036,102.43603499999972,19.871581999999762,114.10253900000043,163.7177729999994,104.87158199999976,106.0258789999998,91.6665039999998,113.58984400000008,143.20507799999996,91.2822270000006,102.94873000000007,89.48730499999965,116.0258789999998
19,78.3334960000002,112.82031300000017,20.384765999999217,106.15380900000036,174.23095699999976,106.15380900000036,106.15380900000036,87.56396500000028,104.87158199999976,149.48730499999965,82.30761700000039,99.74365200000011,83.0771479999994,110.89746099999957
20,77.43603499999972,117.17968800000017,26.025878999999804,103.46142599999985,184.48730499999965,109.48730499999965,108.7177729999994,91.9228520000006,96.79492200000004,140.12841800000024,79.74365200000011,101.0258789999998,77.30761700000039,108.58984400000008
21,77.30761700000039,110.64111300000059,33.7177729999994,104.35888699999941,190.2563479999999,113.58984400000008,111.53857400000015,100.64111300000059,95.64111300000059,121.41015599999992,83.58984400000008,105.0,75.51269500000035,109.48730499999965
22,77.05126999999993,98.20507799999996,40.25634799999989,105.89746099999957,189.3588869999994,116.6665039999998,112.94873000000007,107.56396500000028,102.17968800000017,108.84619099999964,90.0,108.9741210000002,80.38476599999922,111.9228520000006
23,77.05126999999993,92.30761700000039,43.589844000000085,107.56396500000028,181.9228520000006,117.05126999999993,112.94873000000007,108.20507799999996,110.89746099999957,113.58984400000008,94.61523400000078,110.76904300000024,91.6665039999998,113.84619099999964
24,79.10253900000043,103.7177729999994,44.87158199999976,110.64111300000059,171.0258789999998,113.84619099999964,112.69238299999961,103.20507799999996,114.35888699999941,132.6923829999996,96.2822270000006,110.89746099999957,104.87158199999976,115.51269500000035
25,85.38476599999922,131.53857400000015,46.410155999999915,115.64111300000059,161.41015599999992,108.46142599999985,113.58984400000008,96.2822270000006,110.64111300000059,153.58984400000008,98.46142599999985,111.41015599999992,113.58984400000008,119.10253900000043
26,97.43603499999972,162.05126999999993,50.64111300000059,120.51269500000035,159.7436520000001,105.0,116.6665039999998,93.84619099999964,105.51269500000035,166.53857400000015,105.76904300000024,113.0771479999994,116.2822270000006,127.94873000000007
27,113.3334960000002,176.0258789999998,56.9228520000006,121.79492200000004,171.0258789999998,107.05126999999993,120.89746099999957,100.25634799999989,106.6665039999998,171.53857400000015,118.84619099999964,115.64111300000059,116.9228520000006,142.17968800000017
28,127.56396500000028,163.20507799999996,61.9228520000006,117.05126999999993,192.82031300000017,115.12841800000024,123.58984400000008,113.9741210000002,116.53857400000015,174.61523400000078,131.79492200000004,118.20507799999996,119.87158199999976,156.79492200000004
29,133.3334960000002,131.0258789999998,62.43603499999972,106.0258789999998,214.48730499999965,124.48730499999965,122.17968800000017,127.56396500000028,129.23095699999976,180.0,135.76904300000024,119.87158199999976,123.84619099999964,164.3588869999994
30,126.6665039999998,102.17968800000017,57.94873000000007,90.51269500000035,222.17968800000017,128.0771479999994,117.17968800000017,132.56396500000028,135.51269500000035,182.94873000000007,125.64111300000059,119.61523400000078,123.20507799999996,160.89746099999957
31,110.25634799999989,98.84619099999964,50.76904300000024,74.23095699999976,208.3334960000002,121.79492200000004,112.30761700000039,125.12841800000024,129.3588869999994,174.87158199999976,104.74365200000011,117.69238299999961,112.82031300000017,147.94873000000007
32,93.46142599999985,129.48730499999965,45.64111300000059,63.589844000000085,178.9741210000002,109.35888699999941,111.2822270000006,110.38476599999922,114.10253900000043,153.9741210000002,83.20507799999996,115.12841800000024,95.0,132.82031300000017
33,87.56396500000028,186.41015599999992,46.53857400000015,65.25634799999989,153.7177729999994,99.74365200000011,115.38476599999922,99.48730499999965,101.53857400000015,131.15380900000036,73.7177729999994,114.35888699999941,81.41015599999992,125.51269500000035
34,97.43603499999972,252.56396500000028,54.23095699999976,77.69238299999961,152.82031300000017,100.38476599999922,121.6665039999998,101.2822270000006,102.56396500000028,122.43603499999972,83.7177729999994,116.79492200000004,84.87158199999976,131.9228520000006
35,116.15380900000036,308.5898440000001,63.46142599999985,88.84619099999964,179.48730499999965,110.25634799999989,124.35888699999941,113.20507799999996,115.89746099999957,133.84619099999964,107.56396500000028,120.51269500000035,106.2822270000006,147.82031300000017
36,128.20507799999996,341.4101559999999,66.6665039999998,84.10253900000043,213.84619099999964,120.51269500000035,117.94873000000007,121.9228520000006,126.79492200000004,155.0,128.0771479999994,121.6665039999998,130.76904300000024,159.7436520000001
37,122.56396500000028,352.4360349999997,59.87158199999976,61.410155999999915,226.53857400000015,122.05126999999993,103.0771479999994,114.61523400000078,120.25634799999989,168.0771479999994,128.58984400000008,117.30761700000039,139.7436520000001,155.89746099999957
38,103.84619099999964,358.84619099999964,48.20507799999996,35.64111300000059,203.3334960000002,113.46142599999985,88.46142599999985,93.46142599999985,98.0771479999994,165.6411130000006,107.69238299999961,109.23095699999976,128.84619099999964,138.0771479999994
39,90.76904300000024,385.0,43.333496000000196,27.82031300000017,162.6923829999996,103.20507799999996,87.17968800000017,76.0258789999998,81.0258789999998,158.46142599999985,83.20507799999996,103.20507799999996,114.10253900000043,122.82031300000017
40,100.38476599999922,449.6152340000008,53.20507799999996,46.153809000000365,146.0258789999998,101.79492200000004,105.25634799999989,82.17968800000017,90.89746099999957,163.9741210000002,79.23095699999976,105.38476599999922,119.23095699999976,128.58984400000008
41,131.79492200000004,553.0771479999994,74.10253900000043,78.46142599999985,180.12841800000024,112.30761700000039,134.48730499999965,114.87158199999976,129.48730499999965,187.3076170000004,105.89746099999957,116.15380900000036,155.2563479999999,157.94873000000007
42,165.76904300000024,671.794922,92.69238299999961,100.51269500000035,248.0771479999994,127.17968800000017,157.56396500000028,155.6411130000006,174.10253900000043,213.0771479999994,149.7436520000001,130.0,210.0,195.2563479999999
43,180.76904300000024,769.2309569999998,97.30761700000039,93.9741210000002,301.79492200000004,135.0,160.89746099999957,178.20507799999996,195.38476599999922,219.61523400000078,182.82031300000017,139.10253900000043,256.2822270000006,218.3334960000002
44,167.56396500000028,819.8715819999998,86.15380900000036,58.846190999999635,302.82031300000017,130.0,144.7436520000001,168.3334960000002,180.76904300000024,200.6411130000006,182.43603499999972,138.0771479999994,271.53857400000015,214.3588869999994
45,134.87158199999976,831.5385740000002,67.43603499999972,13.717772999999397,252.43603499999972,115.25634799999989,121.0258789999998,133.46142599999985,141.2822270000006,171.53857400000015,146.2822270000006,127.43603499999972,254.10253900000043,186.41015599999992
46,101.79492200000004,840.0,52.82031300000017,-17.435790999999426,187.3076170000004,99.74365200000011,103.58984400000008,95.51269500000035,100.51269500000035,153.46142599999985,94.74365200000011,112.94873000000007,224.10253900000043,150.2563479999999
47,84.23095699999976,883.4614259999998,49.74365200000011,-19.487060999999812,148.46142599999985,91.41015599999992,99.10253900000043,74.74365200000011,77.56396500000028,152.6923829999996,55.897460999999566,101.9228520000006,207.3076170000004,124.35888699999941
48,87.17968800000017,972.0512699999999,58.589844000000085,4.358886999999413,151.15380900000036,92.30761700000039,104.87158199999976,76.79492200000004,76.2822270000006,156.6665039999998,46.666503999999804,98.58984400000008,216.53857400000015,119.74365200000011
49,103.9741210000002,1080.7690430000002,73.46142599999985,35.897460999999566,180.6411130000006,99.35888699999941,113.3334960000002,92.30761700000039,88.7177729999994,150.51269500000035,62.56396500000028,102.43603499999972,245.76904300000024,135.89746099999957
50,123.20507799999996,1167.6923829999996,87.05126999999993,55.38476599999922,210.6411130000006,107.94873000000007,118.3334960000002,107.94873000000007,102.69238299999961,133.58984400000008,82.56396500000028,109.48730499999965,279.7436520000001,162.6923829999996
51,135.0,1207.4360349999997,94.61523400000078,55.38476599999922,224.3588869999994,114.61523400000078,118.20507799999996,114.87158199999976,110.25634799999989,118.7177729999994,86.41015599999992,115.12841800000024,306.79492200000004,186.6665039999998
52,136.41015599999992,1209.6152340000008,95.89746099999957,43.974121000000196,222.05126999999993,117.69238299999961,115.12841800000024,113.84619099999964,110.76904300000024,119.61523400000078,69.10253900000043,117.30761700000039,325.89746099999957,198.9741210000002
53,131.53857400000015,1210.7690430000002,95.0,35.64111300000059,216.2822270000006,117.43603499999972,112.94873000000007,111.15380900000036,108.58984400000008,137.94873000000007,44.48730499999965,116.6665039999998,344.23095699999976,200.0
54,128.3334960000002,1245.3847659999992,97.69238299999961,40.12841800000024,220.76904300000024,115.51269500000035,114.61523400000078,112.82031300000017,108.3334960000002,162.43603499999972,33.7177729999994,115.64111300000059,370.2563479999999,198.58984400000008
55,133.46142599999985,1319.3588869999994,106.6665039999998,57.17968800000017,238.7177729999994,114.10253900000043,120.64111300000059,120.76904300000024,112.56396500000028,177.6923829999996,47.30761700000039,116.15380900000036,404.7436520000001,206.0258789999998
56,146.53857400000015,1407.3076170000004,119.23095699999976,80.0,259.48730499999965,113.84619099999964,127.82031300000017,130.89746099999957,120.25634799999989,176.53857400000015,76.6665039999998,118.3334960000002,440.0,228.58984400000008
57,160.76904300000024,1473.205078,128.58984400000008,99.48730499999965,265.2563479999999,113.0771479999994,131.53857400000015,136.6665039999998,128.3334960000002,162.94873000000007,99.35888699999941,120.89746099999957,465.76904300000024,263.9741210000002
58,165.89746099999957,1496.410156,128.7177729999994,109.10253900000043,246.41015599999992,108.58984400000008,128.3334960000002,133.0771479999994,132.56396500000028,148.46142599999985,97.43603499999972,122.05126999999993,476.79492200000004,303.7177729999994
59,156.79492200000004,1484.1025390000004,119.61523400000078,108.46142599999985,211.15380900000036,100.12841800000024,118.46142599999985,120.38476599999922,129.3588869999994,142.82031300000017,71.2822270000006,120.89746099999957,476.4101559999999,339.10253900000043
60,136.9228520000006,1462.4360349999997,107.43603499999972,103.58984400000008,180.76904300000024,91.15380900000036,105.89746099999957,103.9741210000002,118.3334960000002,149.10253900000043,38.20507799999996,117.69238299999961,473.5898440000001,366.53857400000015
61,118.3334960000002,1457.3076170000004,100.51269500000035,102.17968800000017,175.2563479999999,87.17968800000017,96.2822270000006,90.76904300000024,104.23095699999976,161.53857400000015,18.461425999999847,114.35888699999941,476.4101559999999,389.48730499999965
62,112.43603499999972,1476.2822270000006,103.46142599999985,109.10253900000043,201.2822270000006,91.2822270000006,93.3334960000002,86.0258789999998,95.51269500000035,170.6411130000006,21.025878999999804,112.94873000000007,488.9741210000002,414.6152340000008
63,122.43603499999972,1507.6923829999996,113.7177729999994,123.0771479999994,247.6923829999996,101.2822270000006,96.9228520000006,90.51269500000035,98.46142599999985,170.76904300000024,39.35888699999941,114.74365200000011,509.7436520000001,443.7177729999994
64,138.58984400000008,1534.3588869999994,123.0771479999994,139.7436520000001,289.10253900000043,110.12841800000024,103.20507799999996,100.0,111.2822270000006,164.10253900000043,58.333496000000196,118.7177729999994,532.0512699999999,470.3847659999992
65,146.0258789999998,1547.6923829999996,123.20507799999996,153.7177729999994,298.0771479999994,111.0258789999998,107.94873000000007,107.94873000000007,123.7177729999994,156.6665039999998,63.974121000000196,121.41015599999992,547.5639650000003,483.46142599999985
66,135.76904300000024,1550.7690430000002,112.56396500000028,161.15380900000036,263.46142599999985,102.94873000000007,108.46142599999985,109.10253900000043,125.51269500000035,152.05126999999993,50.76904300000024,120.12841800000024,550.5126950000003,476.0258789999998
67,112.69238299999961,1553.4614259999998,97.69238299999961,161.6665039999998,203.84619099999964,92.17968800000017,106.53857400000015,104.48730499999965,115.25634799999989,149.48730499999965,25.25634799999989,114.23095699999976,541.794922,453.20507799999996
68,92.05126999999993,1564.1025390000004,89.10253900000043,160.38476599999922,157.82031300000017,88.20507799999996,106.79492200000004,100.76904300000024,102.17968800000017,148.0771479999994,2.5639650000002803,106.79492200000004,530.2563479999999,430.89746099999957
69,88.0771479999994,1583.205078,92.69238299999961,164.3588869999994,156.15380900000036,96.0258789999998,112.30761700000039,105.51269500000035,98.7177729999994,148.9741210000002,-3.5898440000000846,102.30761700000039,527.6923829999996,424.48730499999965
70,102.30761700000039,1601.410156,105.0,176.79492200000004,199.23095699999976,111.6665039999998,121.6665039999998,118.9741210000002,109.48730499999965,153.0771479999994,8.717772999999397,103.7177729999994,539.3588869999994,437.6923829999996
71,123.20507799999996,1606.6665039999998,116.2822270000006,193.0771479999994,261.15380900000036,124.87158199999976,129.10253900000043,133.9741210000002,128.9741210000002,158.46142599999985,28.205077999999958,109.48730499999965,559.1025390000004,459.7436520000001
72,135.51269500000035,1596.1538090000004,118.3334960000002,204.3588869999994,309.23095699999976,127.05126999999993,129.87158199999976,141.0258789999998,145.38476599999922,162.43603499999972,39.23095699999976,115.64111300000059,573.7177729999994,473.9741210000002
73,131.41015599999992,1579.743652,109.74365200000011,203.84619099999964,323.0771479999994,118.46142599999985,123.84619099999964,136.41015599999992,149.10253900000043,163.7177729999994,33.333496000000196,117.82031300000017,573.205078,470.0
74,114.48730499999965,1573.3334960000002,96.9228520000006,192.56396500000028,302.94873000000007,106.79492200000004,115.64111300000059,123.84619099999964,138.58984400000008,162.56396500000028,14.871581999999762,114.74365200000011,559.6152340000008,450.3847659999992
75,95.0,1583.8461909999996,87.43603499999972,178.3334960000002,265.0,100.76904300000024,110.64111300000059,111.0258789999998,120.25634799999989,158.3334960000002,-5.128174000000399,108.20507799999996,544.4873049999997,426.4101559999999
76,79.87158199999976,1600.7690430000002,83.58984400000008,169.10253900000043,230.2563479999999,102.43603499999972,110.38476599999922,102.69238299999961,102.94873000000007,148.58984400000008,-17.948729999999614,101.41015599999992,539.2309569999998,407.17968800000017
77,69.48730499999965,1605.5126950000003,82.43603499999972,166.53857400000015,212.05126999999993,107.17968800000017,111.9228520000006,98.9741210000002,92.30761700000039,132.43603499999972,-22.564209000000574,96.79492200000004,545.8974609999996,394.87158199999976
78,62.43603499999972,1589.1025390000004,81.2822270000006,166.6665039999998,211.6665039999998,109.87158199999976,112.82031300000017,98.46142599999985,89.35888699999941,116.2822270000006,-22.051270000000386,95.76904300000024,558.5898440000001,388.46142599999985
79,60.897460999999566,1562.1796880000002,82.94873000000007,166.41015599999992,221.41015599999992,110.12841800000024,113.84619099999964,102.17968800000017,95.12841800000024,112.94873000000007,-17.69238299999961,98.46142599999985,572.0512699999999,388.84619099999964
80,69.87158199999976,1547.6923829999996,92.56396500000028,167.17968800000017,233.9741210000002,112.17968800000017,118.20507799999996,112.94873000000007,110.38476599999922,130.38476599999922,-8.846190999999635,104.87158199999976,584.6152340000008,399.23095699999976
81,89.48730499999965,1560.7690430000002,110.38476599999922,172.94873000000007,248.9741210000002,119.35888699999941,126.9228520000006,130.6411130000006,133.20507799999996,163.3334960000002,3.9741210000001956,113.46142599999985,596.794922,418.46142599999985
82,110.64111300000059,1594.3588869999994,129.10253900000043,183.84619099999964,269.23095699999976,129.48730499999965,136.79492200000004,148.7177729999994,155.89746099999957,194.10253900000043,16.410155999999915,120.64111300000059,607.6923829999996,437.5639650000003
83,118.20507799999996,1622.5639650000003,137.56396500000028,193.46142599999985,288.3334960000002,135.38476599999922,141.15380900000036,156.9228520000006,167.6923829999996,203.46142599999985,21.153809000000365,122.56396500000028,612.9487300000001,443.0771479999994
84,102.94873000000007,1620.3847659999992,129.48730499999965,193.0771479999994,290.76904300000024,130.2563479999999,135.12841800000024,147.56396500000028,160.89746099999957,182.94873000000007,11.666503999999804,117.43603499999972,607.5639650000003,426.15380900000036
85,69.61523400000078,1584.8715819999998,108.20507799999996,178.9741210000002,267.6923829999996,114.74365200000011,119.48730499999965,122.56396500000028,137.17968800000017,139.87158199999976,-12.692382999999609,107.43603499999972,591.2822270000006,390.89746099999957
86,35.64111300000059,1538.8461909999996,85.64111300000059,157.6923829999996,231.6665039999998,98.46142599999985,101.6665039999998,94.87158199999976,107.94873000000007,95.89746099999957,-42.30761700000039,97.94873000000007,571.5385740000002,353.84619099999964
87,20.128418000000238,1512.94873,74.61523400000078,141.79492200000004,208.20507799999996,92.82031300000017,90.89746099999957,80.51269500000035,89.23095699999976,76.0258789999998,-60.89746100000002,93.7177729999994,561.1538090000004,334.3588869999994
88,30.769043000000238,1521.5385740000002,80.51269500000035,139.23095699999976,213.58984400000008,102.56396500000028,92.94873000000007,87.82031300000017,90.76904300000024,93.3334960000002,-56.025634999999966,96.79492200000004,568.7177729999994,341.53857400000015
89,58.333496000000196,1552.8203130000002,97.43603499999972,146.79492200000004,241.2822270000006,121.9228520000006,105.25634799999989,110.89746099999957,109.74365200000011,138.3334960000002,-30.0,104.35888699999941,590.3847659999992,368.3334960000002
90,83.84619099999964,1581.9228520000006,113.3334960000002,152.94873000000007,270.6411130000006,138.3334960000002,118.7177729999994,133.84619099999964,133.20507799999996,183.20507799999996,0.512695000000349,111.2822270000006,613.205078,395.76904300000024
91,93.20507799999996,1591.2822270000006,118.58984400000008,149.48730499999965,283.9741210000002,141.53857400000015,124.74365200000011,143.46142599999985,147.82031300000017,201.79492200000004,17.56396500000028,114.23095699999976,625.1284180000002,406.53857400000015
92,85.38476599999922,1581.0258789999998,112.17968800000017,138.58984400000008,278.7177729999994,132.05126999999993,121.6665039999998,138.20507799999996,148.20507799999996,188.46142599999985,13.974121000000196,113.0771479999994,623.7177729999994,397.17968800000017
93,69.87158199999976,1564.3588869999994,100.51269500000035,128.3334960000002,265.0,118.84619099999964,115.12841800000024,126.6665039999998,138.20507799999996,159.48730499999965,-3.717772999999397,110.38476599999922,614.8715819999998,376.79492200000004
94,56.79492200000004,1553.0771479999994,90.0,122.56396500000028,254.7436520000001,111.79492200000004,110.25634799999989,117.05126999999993,125.12841800000024,136.6665039999998,-23.076904000000013,108.20507799999996,605.1284180000002,357.3076170000004
95,48.974121000000196,1548.9741210000002,82.69238299999961,117.69238299999961,251.79492200000004,114.48730499999965,108.20507799999996,112.05126999999993,113.7177729999994,128.9741210000002,-35.64111300000013,106.0258789999998,597.1796880000002,344.87158199999976
96,45.12841800000024,1546.1538090000004,78.58984400000008,109.23095699999976,251.0258789999998,122.69238299999961,107.05126999999993,110.12841800000024,106.79492200000004,131.0258789999998,-39.74365200000011,102.94873000000007,591.1538090000004,339.3588869999994
97,44.48730499999965,1540.0,78.0771479999994,98.58984400000008,245.6411130000006,129.23095699999976,107.05126999999993,111.15380900000036,107.82031300000017,134.3588869999994,-37.948729999999614,99.87158199999976,587.9487300000001,338.9741210000002
98,48.846190999999635,1532.1796880000002,82.30761700000039,92.94873000000007,236.6665039999998,129.48730499999965,110.51269500000035,116.79492200000004,119.35888699999941,136.79492200000004,-32.82055700000001,99.35888699999941,589.4873049999997,343.5898440000001
99,57.82031300000017,1526.794922,89.48730499999965,96.53857400000015,233.84619099999964,123.84619099999964,117.94873000000007,126.41015599999992,137.6923829999996,140.51269500000035,-26.923095999999987,102.69238299999961,594.8715819999998,350.6411130000006
100,65.12841800000024,1524.743652,93.7177729999994,104.35888699999941,245.2563479999999,116.0258789999998,125.64111300000059,134.7436520000001,152.6923829999996,145.12841800000024,-23.974365000000034,107.69238299999961,598.9741210000002,353.7177729999994
101,63.20507799999996,1522.4360349999997,90.12841800000024,105.0,264.7436520000001,110.64111300000059,128.84619099999964,135.6411130000006,153.3334960000002,145.89746099999957,-26.923095999999987,110.12841800000024,595.3847659999992,346.6665039999998
102,50.25634799999989,1515.8974609999996,79.87158199999976,91.41015599999992,274.3588869999994,110.0,126.0258789999998,128.0771479999994,137.56396500000028,138.7177729999994,-35.76928699999962,108.0771479999994,583.0771479999994,329.48730499999965
103,33.0771479999994,1505.6411130000006,68.9741210000002,67.05126999999993,260.0,113.84619099999964,119.48730499999965,117.30761700000039,114.23095699999976,125.12841800000024,-46.66674799999964,103.20507799999996,567.5639650000003,310.0
104,22.43603499999972,1496.9228520000006,65.12841800000024,43.333496000000196,227.94873000000007,119.87158199999976,114.10253900000043,111.41015599999992,97.05126999999993,111.6665039999998,-53.974365000000034,100.0,557.6923829999996,298.7177729999994
105,26.666503999999804,1494.6152340000008,70.89746099999957,30.384765999999217,203.3334960000002,125.51269500000035,114.61523400000078,114.48730499999965,95.89746099999957,107.43603499999972,-53.07690400000001,101.2822270000006,559.7436520000001,301.6665039999998
106,44.48730499999965,1499.2309569999998,82.56396500000028,31.922852000000603,209.48730499999965,128.84619099999964,122.30761700000039,123.9741210000002,110.38476599999922,117.56396500000028,-42.82055700000001,106.41015599999992,573.8461909999996,316.9228520000006
107,66.53857400000015,1505.5126950000003,92.56396500000028,44.23095699999976,245.76904300000024,128.58984400000008,133.3334960000002,132.6923829999996,130.2563479999999,137.17968800000017,-27.30761700000039,111.6665039999998,592.3076170000004,334.7436520000001
108,80.38476599999922,1506.2822270000006,93.84619099999964,59.48730499999965,286.2822270000006,123.84619099999964,139.87158199999976,133.84619099999964,141.2822270000006,152.43603499999972,-14.230713000000378,113.58984400000008,604.6152340000008,343.9741210000002
109,77.82031300000017,1498.7177729999994,84.87158199999976,68.3334960000002,302.4360349999997,115.89746099999957,136.15380900000036,125.25634799999989,134.61523400000078,150.2563479999999,-11.41015600000037,111.41015599999992,602.3076170000004,337.94873000000007
110,60.897460999999566,1485.3847659999992,69.87158199999976,63.974121000000196,285.76904300000024,107.82031300000017,122.17968800000017,111.41015599999992,113.46142599999985,129.48730499999965,-20.38452099999995,106.2822270000006,585.1284180000002,319.23095699999976
111,40.0,1470.8974609999996,56.025878999999804,45.51269500000035,252.05126999999993,103.0771479999994,105.38476599999922,99.61523400000078,91.0258789999998,103.3334960000002,-34.48706099999981,100.89746099999957,562.0512699999999,297.94873000000007
112,25.897460999999566,1457.94873,48.46142599999985,19.102539000000434,223.58984400000008,103.84619099999964,95.25634799999989,94.74365200000011,79.87158199999976,88.0771479999994,-44.48706099999981,97.56396500000028,545.0,284.10253900000043
113,23.461425999999847,1447.94873,47.94873000000007,-3.3334960000001956,211.9228520000006,108.9741210000002,96.6665039999998,96.15380900000036,83.7177729999994,90.51269500000035,-45.0,97.05126999999993,541.1538090000004,281.6665039999998
114,29.48730499999965,1442.94873,51.2822270000006,-11.538574000000153,213.7177729999994,114.87158199999976,106.41015599999992,100.0,95.64111300000059,103.58984400000008,-37.69238299999961,98.7177729999994,549.3588869999994,286.79492200000004
115,37.94873000000007,1443.7177729999994,54.87158199999976,-3.5898440000000846,219.3588869999994,118.20507799999996,116.53857400000015,102.82031300000017,105.51269500000035,115.0,-27.948729999999614,100.64111300000059,561.9228520000006,293.0771479999994
116,43.46142599999985,1447.8203130000002,56.53857400000015,12.692382999999609,222.6923829999996,117.30761700000039,120.64111300000059,103.84619099999964,108.0771479999994,117.94873000000007,-20.769286999999622,101.2822270000006,570.1284180000002,296.0258789999998
117,45.25634799999989,1449.2309569999998,55.897460999999566,25.641113000000587,223.58984400000008,114.10253900000043,117.30761700000039,103.46142599999985,104.10253900000043,114.74365200000011,-17.30761700000039,100.51269500000035,569.3588869999994,295.3847659999992
118,45.64111300000059,1443.8461909999996,54.48730499999965,28.205077999999958,225.38476599999922,112.17968800000017,110.51269500000035,102.82031300000017,98.20507799999996,111.41015599999992,-14.61547900000005,99.23095699999976,561.4101559999999,293.9741210000002
119,47.82031300000017,1433.9741210000002,54.102539000000434,23.333496000000196,230.89746099999957,113.9741210000002,106.15380900000036,102.82031300000017,95.51269500000035,111.53857400000015,-9.230713000000378,99.10253900000043,552.5639650000003,294.23095699999976
120,53.333496000000196,1426.9228520000006,56.53857400000015,19.871581999999762,240.38476599999922,119.35888699999941,108.3334960000002,105.0,98.9741210000002,115.89746099999957,-0.256347999999889,100.89746099999957,548.3334960000002,297.4360349999997
121,60.25634799999989,1429.6152340000008,61.2822270000006,25.769043000000238,252.82031300000017,125.76904300000024,115.51269500000035,109.48730499999965,108.0771479999994,123.0771479999994,9.743652000000111,104.23095699999976,548.4614259999998,301.79492200000004
122,63.7177729999994,1441.0258789999998,65.64111300000059,40.0,266.15380900000036,129.7436520000001,122.17968800000017,113.7177729999994,118.58984400000008,130.6411130000006,16.922852000000603,108.0771479999994,547.1796880000002,303.7177729999994
123,60.38476599999922,1452.5639650000003,66.9228520000006,53.46142599999985,277.05126999999993,128.84619099999964,122.17968800000017,113.84619099999964,124.61523400000078,134.87158199999976,18.974121000000196,110.25634799999989,539.8715819999998,299.48730499999965
124,51.79492200000004,1455.3847659999992,64.23095699999976,56.9228520000006,279.7436520000001,123.9741210000002,115.0,108.7177729999994,121.9228520000006,132.43603499999972,16.794922000000042,109.10253900000043,527.3076170000004,289.7436520000001
125,43.20507799999996,1447.05127,59.74365200000011,49.74365200000011,268.9741210000002,117.94873000000007,105.76904300000024,102.05126999999993,111.53857400000015,122.82031300000017,13.589844000000085,104.87158199999976,514.2309569999998,278.5898440000001
126,39.74365200000011,1432.8203130000002,56.53857400000015,40.51269500000035,245.76904300000024,114.35888699999941,101.15380900000036,98.7177729999994,98.9741210000002,109.74365200000011,12.307617000000391,99.87158199999976,505.12841800000024,271.9228520000006
127,42.43603499999972,1420.8974609999996,57.05126999999993,40.12841800000024,219.3588869999994,114.61523400000078,103.46142599999985,101.0258789999998,91.15380900000036,100.38476599999922,14.615234000000783,97.30761700000039,499.87158199999976,272.6923829999996
128,48.333496000000196,1414.743652,61.2822270000006,53.0771479999994,201.53857400000015,117.17968800000017,110.0,106.6665039999998,92.05126999999993,100.25634799999989,20.51269500000035,98.46142599999985,495.3847659999992,279.48730499999965
129,53.20507799999996,1412.4360349999997,66.9228520000006,74.61523400000078,198.9741210000002,119.10253900000043,115.38476599999922,110.76904300000024,100.51269500000035,108.20507799999996,28.974121000000196,101.9228520000006,487.6923829999996,287.4360349999997
130,55.64111300000059,1409.6152340000008,71.41015599999992,95.38476599999922,209.10253900000043,118.58984400000008,116.79492200000004,110.12841800000024,111.41015599999992,116.15380900000036,38.846190999999635,104.87158199999976,475.0,290.89746099999957
131,57.30761700000039,1403.8461909999996,75.0,109.87158199999976,222.3076170000004,117.30761700000039,115.64111300000059,106.2822270000006,119.10253900000043,116.6665039999998,48.46142599999985,105.89746099999957,458.5898440000001,287.3076170000004
132,61.153809000000365,1395.7690430000002,79.74365200000011,120.76904300000024,228.20507799999996,118.58984400000008,115.38476599999922,103.9741210000002,120.89746099999957,109.48730499999965,56.666503999999804,105.64111300000059,441.53857400000015,279.87158199999976
133,67.17968800000017,1384.8715819999998,86.6665039999998,135.0,222.43603499999972,123.3334960000002,117.17968800000017,106.53857400000015,117.94873000000007,101.41015599999992,61.666503999999804,105.38476599999922,425.0,273.84619099999964
134,70.89746099999957,1366.9228520000006,93.9741210000002,155.51269500000035,209.87158199999976,128.46142599999985,118.58984400000008,111.2822270000006,112.17968800000017,98.46142599999985,61.410155999999915,104.87158199999976,406.2822270000006,270.51269500000035
135,67.69238299999961,1338.4614259999998,98.3334960000002,178.20507799999996,199.61523400000078,129.7436520000001,116.6665039999998,111.53857400000015,104.74365200000011,100.0,54.35888699999941,103.20507799999996,381.79492200000004,266.79492200000004
136,58.0771479999994,1303.205078,99.87158199999976,195.76904300000024,198.58984400000008,126.0258789999998,111.2822270000006,103.9741210000002,97.30761700000039,100.76904300000024,43.589844000000085,100.51269500000035,353.7177729999994,258.46142599999985
137,50.51269500000035,1273.3334960000002,102.56396500000028,205.0,207.3076170000004,120.89746099999957,106.9228520000006,93.58984400000008,93.46142599999985,97.30761700000039,37.43603499999972,98.20507799999996,331.2822270000006,245.51269500000035
138,54.35888699999941,1259.1025390000004,110.89746099999957,208.46142599999985,219.7436520000001,118.9741210000002,108.20507799999996,89.61523400000078,96.15380900000036,91.6665039999998,43.589844000000085,98.3334960000002,322.17968800000017,230.12841800000024
139,69.48730499999965,1257.8203130000002,122.94873000000007,211.0258789999998,226.2822270000006,121.6665039999998,115.76904300000024,96.41015599999992,104.35888699999941,87.94873000000007,61.666503999999804,101.15380900000036,324.23095699999976,211.9228520000006
140,86.2822270000006,1254.6152340000008,131.6665039999998,216.0258789999998,220.76904300000024,125.12841800000024,124.35888699999941,109.10253900000043,112.43603499999972,88.0771479999994,82.05126999999993,105.12841800000024,326.79492200000004,188.0771479999994
141,93.84619099999964,1235.0,131.2822270000006,223.3334960000002,205.6411130000006,124.87158199999976,127.56396500000028,118.3334960000002,114.87158199999976,90.12841800000024,94.74365200000011,107.82031300000017,320.2563479999999,157.43603499999972
142,90.12841800000024,1197.5639650000003,122.30761700000039,230.38476599999922,189.7436520000001,119.48730499999965,123.3334960000002,118.58984400000008,110.0,91.6665039999998,97.56396500000028,108.0771479999994,305.3847659999992,124.23095699999976
143,82.30761700000039,1154.3588869999994,111.15380900000036,233.0771479999994,180.12841800000024,112.17968800000017,115.38476599999922,111.53857400000015,101.53857400000015,90.64111300000059,97.05126999999993,106.15380900000036,291.0258789999998,95.89746099999957
144,78.7177729999994,1120.0,104.87158199999976,230.12841800000024,176.0258789999998,108.58984400000008,109.23095699999976,102.94873000000007,94.23095699999976,87.43603499999972,100.76904300000024,103.9741210000002,285.0,77.43603499999972
145,82.69238299999961,1099.4873049999997,105.76904300000024,225.12841800000024,172.56396500000028,111.6665039999998,108.20507799999996,97.56396500000028,92.17968800000017,83.46142599999985,111.0258789999998,103.0771479999994,289.10253900000043,68.46142599999985
146,91.53857400000015,1086.0258789999998,111.2822270000006,224.87158199999976,167.3076170000004,119.48730499999965,111.0258789999998,96.41015599999992,95.76904300000024,79.74365200000011,124.10253900000043,103.9741210000002,298.5898440000001,65.64111300000059
147,101.0258789999998,1068.7177729999994,118.0771479999994,233.9741210000002,162.94873000000007,126.9228520000006,114.74365200000011,98.58984400000008,102.30761700000039,76.41015599999992,134.87158199999976,106.53857400000015,307.82031300000017,66.41015599999992
148,108.58984400000008,1041.410156,123.58984400000008,249.87158199999976,162.05126999999993,129.23095699999976,117.17968800000017,103.46142599999985,108.7177729999994,73.0771479999994,140.76904300000024,110.25634799999989,313.46142599999985,68.9741210000002
149,113.3334960000002,1006.1538090000004,127.69238299999961,263.7177729999994,163.20507799999996,125.64111300000059,117.82031300000017,110.51269500000035,113.0771479999994,69.35888699999941,143.9741210000002,114.10253900000043,314.6152340000008,70.89746099999957
150,115.38476599999922,969.6152340000008,130.89746099999957,267.5639650000003,161.9228520000006,119.74365200000011,117.30761700000039,117.69238299999961,115.51269500000035,65.25634799999989,148.0771479999994,116.6665039999998,311.53857400000015,68.20507799999996
151,115.25634799999989,937.0512699999999,133.9741210000002,260.2563479999999,154.61523400000078,115.76904300000024,116.9228520000006,121.6665039999998,117.05126999999993,62.05126999999993,154.87158199999976,116.79492200000004,305.3847659999992,57.43603499999972
152,113.0771479999994,908.205078,135.89746099999957,248.58984400000008,142.3076170000004,115.64111300000059,116.6665039999998,119.74365200000011,118.7177729999994,61.9228520000006,161.53857400000015,114.74365200000011,296.9228520000006,38.46142599999985
153,109.10253900000043,879.3588869999994,135.89746099999957,241.41015599999992,131.41015599999992,117.82031300000017,115.89746099999957,112.17968800000017,120.51269500000035,66.41015599999992,163.9741210000002,112.43603499999972,287.94873000000007,15.641113000000587
154,105.12841800000024,847.4360349999997,134.23095699999976,243.9741210000002,129.61523400000078,120.25634799999989,114.87158199999976,103.9741210000002,121.53857400000015,76.15380900000036,161.41015599999992,111.41015599999992,281.4101559999999,-4.102538999999979
155,103.46142599999985,814.2309569999998,132.6923829999996,255.2563479999999,139.23095699999976,121.6665039999998,114.61523400000078,101.15380900000036,121.0258789999998,87.69238299999961,157.94873000000007,111.79492200000004,280.3847659999992,-14.487060999999812
156,104.48730499999965,782.5639650000003,132.94873000000007,268.9741210000002,151.79492200000004,121.9228520000006,115.38476599999922,106.6665039999998,118.46142599999985,93.7177729999994,158.9741210000002,112.56396500000028,284.7436520000001,-14.358886999999868
157,106.0258789999998,753.205078,133.9741210000002,276.79492200000004,153.9741210000002,121.0258789999998,116.53857400000015,116.2822270000006,113.46142599999985,87.43603499999972,164.48730499999965,112.30761700000039,288.7177729999994,-9.230713000000378
158,105.0,723.5898440000001,133.84619099999964,272.17968800000017,139.7436520000001,119.10253900000043,116.79492200000004,122.17968800000017,106.9228520000006,68.84619099999964,168.7177729999994,110.12841800000024,284.7436520000001,-7.179442999999992
159,101.41015599999992,691.1538090000004,131.6665039999998,255.6411130000006,116.6665039999998,116.9228520000006,115.89746099999957,119.61523400000078,101.9228520000006,47.30761700000039,166.0258789999998,106.6665039999998,270.6411130000006,-11.923095999999987
160,97.94873000000007,655.8974609999996,128.3334960000002,234.7436520000001,98.7177729999994,115.64111300000059,114.48730499999965,111.15380900000036,100.64111300000059,35.12841800000024,157.17968800000017,103.7177729999994,251.41015599999992,-19.61547900000005
161,97.17968800000017,618.3334960000002,125.38476599999922,219.48730499999965,94.74365200000011,115.38476599999922,113.0771479999994,103.7177729999994,101.79492200000004,38.0771479999994,148.20507799999996,103.3334960000002,233.7177729999994,-24.487060999999812
162,98.84619099999964,580.3847659999992,123.20507799999996,217.05126999999993,102.05126999999993,115.64111300000059,112.43603499999972,103.20507799999996,102.43603499999972,51.410155999999915,145.76904300000024,105.76904300000024,220.2563479999999,-23.71801800000003
163,101.15380900000036,545.1284180000002,122.05126999999993,227.82031300000017,112.30761700000039,116.0258789999998,113.9741210000002,110.38476599999922,101.6665039999998,63.846190999999635,153.0771479999994,109.74365200000011,210.12841800000024,-18.71801800000003
164,103.20507799999996,515.6411130000006,123.7177729999994,245.0,120.64111300000059,116.9228520000006,118.9741210000002,121.41015599999992,103.0771479999994,66.41015599999992,167.94873000000007,113.58984400000008,202.43603499999972,-11.794922000000042
165,105.12841800000024,491.6665039999998,130.0,257.6923829999996,127.69238299999961,117.94873000000007,126.79492200000004,130.38476599999922,110.64111300000059,58.333496000000196,183.58984400000008,115.38476599999922,196.0258789999998,-5.512939000000188
166,106.41015599999992,468.5898440000001,140.51269500000035,256.79492200000004,134.10253900000043,118.46142599999985,133.7177729999994,132.56396500000028,123.0771479999994,47.69238299999961,192.05126999999993,114.74365200000011,188.7177729999994,-2.4360349999997197
167,105.0,441.0258789999998,151.2822270000006,240.6411130000006,136.53857400000015,118.0771479999994,135.51269500000035,127.05126999999993,133.20507799999996,44.23095699999976,188.46142599999985,111.6665039999998,177.6923829999996,-5.38452099999995
168,98.84619099999964,407.94873000000007,158.9741210000002,217.05126999999993,131.0258789999998,117.43603499999972,130.6411130000006,116.79492200000004,133.46142599999985,51.79492200000004,175.51269500000035,107.43603499999972,162.82031300000017,-14.8718259999996
169,89.35888699999941,373.5898440000001,162.6923829999996,197.43603499999972,117.30761700000039,117.05126999999993,122.56396500000028,106.41015599999992,122.17968800000017,65.0,162.17968800000017,103.84619099999964,149.48730499999965,-26.666747999999643
170,80.76904300000024,343.3334960000002,164.61523400000078,188.84619099999964,101.53857400000015,116.9228520000006,115.76904300000024,99.74365200000011,105.25634799999989,73.3334960000002,157.94873000000007,102.05126999999993,145.51269500000035,-34.35888699999987
171,77.69238299999961,319.87158199999976,166.53857400000015,189.61523400000078,91.2822270000006,117.05126999999993,112.82031300000017,98.0771479999994,92.56396500000028,70.0,166.2822270000006,102.17968800000017,155.0,-33.07690400000001
172,81.2822270000006,301.0258789999998,168.3334960000002,192.56396500000028,90.76904300000024,117.05126999999993,112.69238299999961,99.87158199999976,90.76904300000024,57.82031300000017,181.79492200000004,103.58984400000008,174.61523400000078,-23.846190999999635
173,88.20507799999996,282.3076170000004,168.3334960000002,190.38476599999922,97.05126999999993,117.05126999999993,112.56396500000028,102.43603499999972,98.7177729999994,46.410155999999915,195.12841800000024,104.87158199999976,194.48730499999965,-12.692382999999609
174,92.94873000000007,258.7177729999994,164.48730499999965,179.3588869999994,101.0258789999998,117.05126999999993,110.51269500000035,103.0771479999994,108.3334960000002,42.94873000000007,199.23095699999976,105.0,205.12841800000024,-6.923095999999987
175,91.79492200000004,227.3076170000004,156.6665039999998,160.76904300000024,93.9741210000002,116.53857400000015,106.41015599999992,100.64111300000059,110.38476599999922,46.025878999999804,193.7177729999994,103.58984400000008,203.58984400000008,-9.487060999999812
176,85.25634799999989,189.10253900000043,147.17968800000017,140.76904300000024,76.0258789999998,115.38476599999922,102.56396500000028,96.0258789999998,102.56396500000028,48.46142599999985,184.23095699999976,101.79492200000004,194.87158199999976,-17.69238299999961
177,78.46142599999985,150.2563479999999,140.2563479999999,127.94873000000007,58.589844000000085,113.7177729999994,102.30761700000039,93.58984400000008,91.41015599999992,46.666503999999804,178.84619099999964,101.9228520000006,188.0771479999994,-23.974365000000034
178,78.20507799999996,119.74365200000011,139.48730499999965,128.58984400000008,56.9228520000006,113.46142599999985,107.94873000000007,98.7177729999994,87.56396500000028,45.0,183.84619099999964,105.38476599999922,190.2563479999999,-21.538574000000153
179,87.05126999999993,102.43603499999972,144.3588869999994,141.15380900000036,76.2822270000006,115.38476599999922,118.3334960000002,111.9228520000006,96.6665039999998,50.64111300000059,198.20507799999996,111.0258789999998,200.76904300000024,-9.358886999999868
180,100.51269500000035,95.64111300000059,150.0,155.38476599999922,105.89746099999957,118.9741210000002,128.0771479999994,127.05126999999993,114.61523400000078,63.974121000000196,214.23095699999976,116.0258789999998,212.05126999999993,6.025878999999804
181,109.35888699999941,90.51269500000035,150.38476599999922,158.84619099999964,126.79492200000004,121.79492200000004,131.2822270000006,135.0,131.53857400000015,76.53857400000015,221.9228520000006,117.69238299999961,214.7436520000001,14.615234000000783
182,107.43603499999972,78.0771479999994,143.58984400000008,145.51269500000035,127.43603499999972,122.30761700000039,125.51269500000035,129.7436520000001,138.46142599999985,77.82031300000017,216.0258789999998,115.12841800000024,205.51269500000035,11.538574000000153
183,95.38476599999922,54.74365200000011,132.43603499999972,120.89746099999957,110.89746099999957,119.61523400000078,113.58984400000008,113.7177729999994,132.82031300000017,65.38476599999922,200.2563479999999,109.35888699999941,189.10253900000043,-0.512695000000349
184,80.38476599999922,24.230956999999762,121.53857400000015,97.05126999999993,91.41015599999992,113.9741210000002,101.9228520000006,95.25634799999989,117.94873000000007,47.05126999999993,183.46142599999985,103.46142599999985,173.84619099999964,-13.974365000000034
185,70.64111300000059,-5.512939000000188,115.12841800000024,85.12841800000024,81.79492200000004,106.9228520000006,95.64111300000059,83.3334960000002,100.25634799999989,36.025878999999804,173.7177729999994,100.0,165.0,-21.794922000000042
186,70.25634799999989,-27.30761700000039,114.61523400000078,87.69238299999961,84.10253900000043,101.2822270000006,96.2822270000006,81.53857400000015,86.79492200000004,40.12841800000024,173.0771479999994,99.87158199999976,162.94873000000007,-21.41015600000037
187,77.30761700000039,-39.10253899999998,118.84619099999964,98.58984400000008,88.9741210000002,99.61523400000078,100.76904300000024,86.53857400000015,82.30761700000039,55.51269500000035,177.94873000000007,101.6665039999998,163.58984400000008,-14.743652000000111
188,84.74365200000011,-46.025634999999966,124.48730499999965,106.2822270000006,85.25634799999989,102.17968800000017,104.35888699999941,91.53857400000015,86.41015599999992,69.23095699999976,181.79492200000004,102.94873000000007,162.82031300000017,-6.538574000000153
189,87.30761700000039,-55.1281740000004,127.69238299999961,103.20507799999996,72.82031300000017,106.53857400000015,104.35888699999941,91.41015599999992,93.3334960000002,70.12841800000024,180.76904300000024,102.82031300000017,158.46142599999985,-1.6665039999998044
190,85.64111300000059,-68.97436500000003,126.9228520000006,90.89746099999957,62.82031300000017,109.87158199999976,102.30761700000039,87.69238299999961,97.43603499999972,58.974121000000196,177.56396500000028,103.0771479999994,152.17968800000017,-0.6411130000005869
191,85.51269500000035,-83.33325200000036,124.10253900000043,79.87158199999976,67.56396500000028,111.2822270000006,103.20507799999996,87.05126999999993,96.9228520000006,46.9228520000006,177.94873000000007,106.15380900000036,147.94873000000007,0.256347999999889
192,91.53857400000015,-92.94872999999961,122.05126999999993,79.48730499999965,86.79492200000004,111.79492200000004,109.74365200000011,93.7177729999994,94.48730499999965,45.0,185.38476599999922,112.05126999999993,147.94873000000007,5.256347999999889
193,100.64111300000059,-98.84619099999964,121.41015599999992,88.84619099999964,104.61523400000078,112.05126999999993,118.3334960000002,103.84619099999964,92.43603499999972,52.43603499999972,194.87158199999976,117.43603499999972,148.7177729999994,12.692382999999609
194,103.7177729999994,-109.35888699999987,119.48730499999965,97.17968800000017,102.82031300000017,111.53857400000015,121.41015599999992,107.69238299999961,90.89746099999957,57.56396500000028,196.53857400000015,117.69238299999961,143.46142599999985,15.641113000000587
195,95.38476599999922,-130.0,115.0,95.0,79.61523400000078,110.38476599999922,114.61523400000078,99.35888699999941,88.3334960000002,50.38476599999922,186.0258789999998,112.43603499999972,129.61523400000078,9.230956999999762
196,80.89746099999957,-156.02563499999997,110.38476599999922,83.46142599999985,54.61523400000078,110.25634799999989,102.43603499999972,83.7177729999994,85.12841800000024,34.102539000000434,170.6411130000006,105.89746099999957,112.56396500000028,-2.8203119999998307
197,72.43603499999972,-175.2563479999999,110.64111300000059,72.82031300000017,52.30761700000039,113.0771479999994,95.12841800000024,73.3334960000002,84.10253900000043,22.56396500000028,163.84619099999964,103.46142599999985,102.43603499999972,-10.256347999999889
198,77.94873000000007,-179.61547900000005,117.30761700000039,70.64111300000059,78.7177729999994,118.84619099999964,99.35888699999941,77.05126999999993,87.56396500000028,26.922852000000603,173.20507799999996,106.53857400000015,105.12841800000024,-6.025634999999966
199,93.20507799999996,-173.71801800000003,126.53857400000015,75.76904300000024,113.7177729999994,124.87158199999976,111.9228520000006,91.53857400000015,94.10253900000043,44.87158199999976,191.9228520000006,111.6665039999998,116.9228520000006,7.051269999999931
200,106.15380900000036,-170.5129390000002,131.6665039999998,80.64111300000059,130.0,127.30761700000039,123.20507799999996,105.12841800000024,99.61523400000078,64.23095699999976,205.2563479999999,114.23095699999976,127.43603499999972,19.102539000000434
201,107.69238299999961,-179.10253899999998,129.7436520000001,80.38476599999922,117.56396500000028,125.0,126.0258789999998,109.23095699999976,101.2822270000006,75.25634799999989,203.0771479999994,112.17968800000017,127.82031300000017,22.17968800000017
202,98.9741210000002,-198.97436500000003,123.3334960000002,76.0258789999998,90.76904300000024,120.12841800000024,120.89746099999957,104.74365200000011,100.64111300000059,77.82031300000017,188.20507799999996,108.0771479999994,116.6665039999998,15.769043000000238
203,87.56396500000028,-221.28198199999997,117.56396500000028,71.15380900000036,72.30761700000039,115.51269500000035,113.3334960000002,98.84619099999964,100.76904300000024,78.0771479999994,171.79492200000004,105.25634799999989,100.12841800000024,5.256347999999889
204,81.0258789999998,-236.79492200000004,115.38476599999922,68.20507799999996,72.82031300000017,113.3334960000002,109.10253900000043,97.30761700000039,104.10253900000043,80.25634799999989,163.9741210000002,104.87158199999976,86.15380900000036,-2.5639650000002803
205,81.41015599999992,-242.56420900000057,116.15380900000036,66.6665039999998,85.0,114.35888699999941,109.35888699999941,100.64111300000059,110.25634799999989,82.17968800000017,167.3076170000004,104.74365200000011,79.48730499999965,-2.9487300000000687
206,86.0258789999998,-243.076904,117.56396500000028,64.74365200000011,92.82031300000017,117.43603499999972,112.30761700000039,106.0258789999998,116.53857400000015,78.9741210000002,176.79492200000004,103.20507799999996,79.87158199999976,3.3334960000001956
207,90.51269500000035,-246.53857400000015,118.20507799999996,61.79492200000004,87.30761700000039,120.12841800000024,115.25634799999989,110.12841800000024,118.84619099999964,69.10253900000043,185.0,101.79492200000004,83.46142599999985,12.051269999999931
208,92.69238299999961,-257.3076170000004,117.69238299999961,59.102539000000434,73.7177729999994,120.38476599999922,116.9228520000006,111.2822270000006,115.0,56.79492200000004,188.20507799999996,102.94873000000007,86.2822270000006,18.333496000000196
209,93.58984400000008,-272.0512700000004,117.69238299999961,59.61523400000078,66.2822270000006,118.46142599999985,117.56396500000028,110.76904300000024,107.69238299999961,50.25634799999989,188.0771479999994,107.82031300000017,86.6665039999998,21.282227000000603
210,95.51269500000035,-283.076904,119.87158199999976,65.0,74.48730499999965,117.05126999999993,117.69238299999961,110.64111300000059,103.20507799999996,54.61523400000078,188.20507799999996,113.9741210000002,85.12841800000024,22.94873000000007
211,98.58984400000008,-286.15380900000036,124.35888699999941,72.69238299999961,94.10253900000043,118.0771479999994,118.0771479999994,112.05126999999993,106.15380900000036,68.3334960000002,189.3588869999994,117.17968800000017,82.43603499999972,25.384765999999217
212,100.0,-283.97436500000003,128.20507799999996,76.9228520000006,111.79492200000004,120.64111300000059,118.46142599999985,113.46142599999985,114.87158199999976,84.23095699999976,188.58984400000008,115.38476599999922,78.20507799999996,27.30761700000039
213,97.43603499999972,-283.84619099999964,127.82031300000017,73.0771479999994,116.6665039999998,122.05126999999993,118.3334960000002,112.94873000000007,121.41015599999992,93.3334960000002,183.0771479999994,110.12841800000024,71.15380900000036,25.641113000000587
214,91.6665039999998,-290.897461,122.69238299999961,62.17968800000017,109.23095699999976,121.41015599999992,117.43603499999972,110.51269500000035,119.74365200000011,90.89746099999957,173.7177729999994,105.25634799999989,61.9228520000006,19.615234000000783
215,85.89746099999957,-304.61547900000005,116.6665039999998,51.025878999999804,98.0771479999994,119.61523400000078,116.79492200000004,108.84619099999964,111.0258789999998,78.46142599999985,165.76904300000024,104.10253900000043,52.56396500000028,11.922852000000603
216,83.58984400000008,-318.97436500000003,114.61523400000078,46.410155999999915,89.74365200000011,118.20507799999996,117.69238299999961,110.51269500000035,103.20507799999996,62.69238299999961,162.94873000000007,106.6665039999998,45.25634799999989,6.922852000000603
217,84.61523400000078,-328.97436500000003,118.0771479999994,49.48730499999965,84.74365200000011,116.9228520000006,119.87158199999976,115.0,103.20507799999996,50.38476599999922,164.48730499999965,109.61523400000078,40.64111300000059,6.410155999999915
218,87.17968800000017,-333.076904,124.48730499999965,55.897460999999566,80.12841800000024,115.25634799999989,122.43603499999972,118.84619099999964,111.0258789999998,46.79492200000004,165.76904300000024,110.64111300000059,37.94873000000007,9.230956999999762
219,88.9741210000002,-334.2307130000004,128.9741210000002,59.48730499999965,75.64111300000059,113.20507799999996,124.61523400000078,119.35888699999941,119.74365200000011,53.846190999999635,163.9741210000002,109.74365200000011,35.897460999999566,12.82031300000017
220,88.84619099999964,-336.923096,128.58984400000008,57.43603499999972,71.79492200000004,110.89746099999957,126.2822270000006,116.6665039999998,120.76904300000024,68.58984400000008,159.7436520000001,109.61523400000078,33.0771479999994,14.871581999999762
221,86.6665039999998,-345.0,122.82031300000017,50.897460999999566,67.05126999999993,107.94873000000007,126.2822270000006,112.69238299999961,110.76904300000024,82.17968800000017,154.87158199999976,110.64111300000059,28.461425999999847,13.846190999999635
222,81.79492200000004,-358.84619099999964,114.23095699999976,42.17968800000017,59.102539000000434,103.84619099999964,123.3334960000002,108.3334960000002,94.23095699999976,84.61523400000078,150.0,111.41015599999992,21.153809000000365,8.717772999999397
223,74.35888699999941,-375.5129390000002,106.41015599999992,33.20507799999996,49.74365200000011,99.23095699999976,117.82031300000017,103.3334960000002,80.25634799999989,71.15380900000036,145.0,109.74365200000011,11.538574000000153,0.512695000000349
224,66.53857400000015,-388.71801800000003,102.82031300000017,25.51269500000035,45.51269500000035,96.79492200000004,112.30761700000039,98.0771479999994,76.15380900000036,47.82031300000017,140.12841800000024,105.89746099999957,1.2822270000006029,-7.051270000000386
225,61.9228520000006,-393.84619099999964,104.10253900000043,21.666503999999804,50.64111300000059,98.7177729999994,110.64111300000059,94.48730499999965,81.79492200000004,27.94873000000007,136.6665039999998,102.43603499999972,-6.281981999999971,-10.641113000000132
226,62.82031300000017,-391.53857400000015,107.82031300000017,22.82031300000017,59.48730499999965,104.48730499999965,113.7177729999994,94.23095699999976,90.0,22.69238299999961,134.87158199999976,101.0258789999998,-8.846190999999635,-9.8718259999996
227,67.17968800000017,-388.076904,109.48730499999965,27.43603499999972,60.76904300000024,110.12841800000024,118.46142599999985,95.51269500000035,92.17968800000017,32.17968800000017,133.9741210000002,101.2822270000006,-7.692382999999609,-7.307617000000391
228,69.87158199999976,-390.0,106.41015599999992,31.922852000000603,48.974121000000196,112.56396500000028,119.74365200000011,95.0,85.0,46.410155999999915,132.6923829999996,101.53857400000015,-6.41015600000037,-6.025634999999966
229,68.20507799999996,-398.58984399999963,99.87158199999976,33.974121000000196,33.974121000000196,112.56396500000028,116.0258789999998,92.56396500000028,73.46142599999985,53.333496000000196,131.53857400000015,101.15380900000036,-7.564209000000574,-6.538574000000153
230,64.48730499999965,-407.9487299999996,94.48730499999965,34.23095699999976,33.333496000000196,113.3334960000002,111.41015599999992,92.56396500000028,68.20507799999996,50.51269500000035,133.0771479999994,101.2822270000006,-10.0,-5.769286999999622
231,63.333496000000196,-411.28198199999997,94.35888699999941,35.0,55.12841800000024,117.30761700000039,111.9228520000006,99.74365200000011,76.2822270000006,45.76904300000024,138.7177729999994,103.7177729999994,-10.512939000000188,-1.2822270000006029
232,66.2822270000006,-407.6923829999996,98.58984400000008,37.05126999999993,88.3334960000002,123.3334960000002,118.84619099999964,112.43603499999972,95.25634799999989,48.974121000000196,146.6665039999998,108.20507799999996,-7.948729999999614,6.282227000000603
233,70.25634799999989,-402.5642090000006,102.94873000000007,38.846190999999635,109.87158199999976,127.56396500000028,127.82031300000017,123.58984400000008,114.23095699999976,61.153809000000365,152.17968800000017,112.30761700000039,-4.743652000000111,12.948730000000069
234,71.15380900000036,-402.9487299999996,103.7177729999994,38.589844000000085,104.48730499999965,127.43603499999972,132.94873000000007,127.17968800000017,122.30761700000039,73.84619099999964,151.9228520000006,113.20507799999996,-4.743652000000111,14.358886999999413
235,68.46142599999985,-410.5129390000002,101.6665039999998,36.2822270000006,76.9228520000006,123.3334960000002,132.05126999999993,124.10253900000043,117.82031300000017,78.58984400000008,146.9228520000006,111.0258789999998,-8.974365000000034,10.256347999999889
236,65.12841800000024,-420.5129390000002,99.87158199999976,34.102539000000434,47.43603499999972,118.46142599999985,128.20507799999996,121.2822270000006,107.43603499999972,74.23095699999976,141.79492200000004,109.10253900000043,-15.256347999999889,4.487304999999651
237,64.48730499999965,-427.0512700000004,100.51269500000035,33.974121000000196,34.48730499999965,116.0258789999998,125.76904300000024,124.35888699999941,100.76904300000024,66.15380900000036,140.38476599999922,110.51269500000035,-20.1281740000004,1.5385740000001533
238,66.6665039999998,-428.076904,103.0771479999994,36.153809000000365,40.76904300000024,117.17968800000017,127.17968800000017,133.3334960000002,102.17968800000017,61.025878999999804,142.82031300000017,114.87158199999976,-22.051270000000386,2.6923829999996087
239,68.84619099999964,-427.0512700000004,104.74365200000011,38.589844000000085,53.333496000000196,120.0,131.2822270000006,142.43603499999972,108.9741210000002,60.76904300000024,146.0258789999998,118.84619099999964,-22.051270000000386,5.897460999999566
240,67.56396500000028,-429.35888699999987,103.7177729999994,38.46142599999985,58.333496000000196,121.53857400000015,134.61523400000078,144.7436520000001,113.3334960000002,62.30761700000039,145.76904300000024,118.58984400000008,-22.948729999999614,6.410155999999915
241,61.9228520000006,-437.4357909999994,100.51269500000035,34.102539000000434,53.333496000000196,120.0,134.23095699999976,138.84619099999964,108.9741210000002,61.9228520000006,140.0,113.84619099999964,-27.051270000000386,1.7949220000000423
242,55.25634799999989,-447.820557,97.69238299999961,26.410155999999915,47.43603499999972,116.53857400000015,131.0258789999998,129.7436520000001,97.43603499999972,60.0,131.15380900000036,107.94873000000007,-33.07690400000001,-6.025634999999966
243,51.410155999999915,-454.4870609999998,97.05126999999993,19.102539000000434,48.0771479999994,113.7177729999994,127.94873000000007,124.35888699999941,87.56396500000028,60.897460999999566,124.23095699999976,104.61523400000078,-37.435790999999426,-12.051270000000386
244,52.43603499999972,-454.102539,98.3334960000002,16.282227000000603,50.64111300000059,113.20507799999996,127.43603499999972,125.64111300000059,87.56396500000028,66.2822270000006,122.82031300000017,104.87158199999976,-37.17944299999999,-12.692382999999609
245,56.53857400000015,-449.7436520000001,99.87158199999976,19.230956999999762,44.87158199999976,114.61523400000078,128.9741210000002,129.87158199999976,97.82031300000017,72.56396500000028,126.9228520000006,106.6665039999998,-32.17944299999999,-8.205077999999958
246,61.410155999999915,-446.66674799999964,100.38476599999922,25.897460999999566,29.102539000000434,116.41015599999992,130.51269500000035,131.6665039999998,111.15380900000036,73.20507799999996,133.0771479999994,107.43603499999972,-25.89746100000002,-2.0512699999999313
247,65.89746099999957,-447.179443,100.89746099999957,32.69238299999961,16.410155999999915,117.56396500000028,130.6411130000006,128.7177729999994,118.7177729999994,65.51269500000035,138.9741210000002,106.6665039999998,-21.025634999999966,3.717772999999397
248,71.15380900000036,-448.20507799999996,102.94873000000007,37.43603499999972,21.666503999999804,118.7177729999994,129.7436520000001,123.9741210000002,117.30761700000039,54.23095699999976,143.84619099999964,106.2822270000006,-18.461425999999847,9.102539000000434
249,78.46142599999985,-445.64111300000013,106.79492200000004,39.35888699999941,46.410155999999915,120.0,129.7436520000001,121.9228520000006,110.12841800000024,48.333496000000196,147.82031300000017,108.46142599999985,-17.179442999999992,14.615234000000783
250,85.76904300000024,-439.7436520000001,110.76904300000024,39.35888699999941,74.74365200000011,120.89746099999957,131.6665039999998,124.35888699999941,103.0771479999994,53.0771479999994,150.51269500000035,112.69238299999961,-16.794922000000042,19.74365200000011
251,89.48730499999965,-435.1281740000004,112.69238299999961,39.102539000000434,86.6665039999998,120.38476599999922,134.23095699999976,128.0771479999994,99.61523400000078,64.87158199999976,150.51269500000035,116.2822270000006,-18.333252000000357,22.56396500000028
252,88.20507799999996,-436.15380900000036,111.2822270000006,39.87158199999976,75.25634799999989,118.84619099999964,135.89746099999957,129.87158199999976,99.48730499999965,74.23095699999976,148.20507799999996,116.9228520000006,-22.564209000000574,21.794922000000042
253,85.64111300000059,-441.02563499999997,108.46142599999985,42.94873000000007,52.56396500000028,117.94873000000007,136.79492200000004,129.87158199999976,101.15380900000036,73.20507799999996,145.76904300000024,114.87158199999976,-27.435790999999426,20.0
254,87.94873000000007,-443.71801800000003,107.69238299999961,47.94873000000007,38.846190999999635,118.46142599999985,139.10253900000043,132.05126999999993,104.35888699999941,63.846190999999635,147.3076170000004,112.94873000000007,-28.461425999999847,21.410155999999915
255,98.3334960000002,-438.84619099999964,111.0258789999998,52.56396500000028,45.25634799999989,120.0,143.9741210000002,139.3588869999994,110.51269500000035,57.05126999999993,155.12841800000024,113.58984400000008,-22.948729999999614,28.589844000000085
256,112.30761700000039,-428.20507799999996,117.05126999999993,53.20507799999996,63.974121000000196,120.51269500000035,149.48730499999965,149.10253900000043,118.9741210000002,63.333496000000196,166.79492200000004,117.05126999999993,-12.435790999999426,39.48730499999965
257,121.9228520000006,-419.35888699999987,121.2822270000006,48.846190999999635,77.30761700000039,119.35888699999941,152.05126999999993,153.58984400000008,126.2822270000006,82.30761700000039,176.15380900000036,120.76904300000024,-3.077147999999397,47.69238299999961
258,121.79492200000004,-419.102539,120.38476599999922,41.2822270000006,73.9741210000002,117.17968800000017,149.3588869999994,147.82031300000017,127.43603499999972,102.82031300000017,176.9228520000006,121.0258789999998,-0.769043000000238,47.82031300000017
259,112.94873000000007,-428.33325200000036,114.87158199999976,34.35888699999941,59.35888699999941,115.51269500000035,141.79492200000004,132.94873000000007,120.25634799999989,111.41015599999992,167.43603499999972,116.9228520000006,-8.205077999999958,39.35888699999941
260,102.43603499999972,-440.897461,108.20507799999996,31.410155999999915,47.69238299999961,115.25634799999989,132.56396500000028,116.79492200000004,107.43603499999972,102.43603499999972,152.05126999999993,110.64111300000059,-21.538574000000153,27.69238299999961
261,98.58984400000008,-447.3076170000004,105.0,34.61523400000078,47.05126999999993,116.0258789999998,126.0258789999998,108.20507799999996,95.89746099999957,82.69238299999961,139.61523400000078,106.41015599999992,-32.69238299999961,21.666503999999804
262,106.0258789999998,-442.3076170000004,107.30761700000039,44.102539000000434,53.333496000000196,117.17968800000017,125.12841800000024,111.2822270000006,93.3334960000002,66.0258789999998,137.82031300000017,107.17968800000017,-34.23071300000038,27.30761700000039
263,121.2822270000006,-429.35888699999987,113.20507799999996,57.43603499999972,56.410155999999915,118.84619099999964,129.23095699999976,123.20507799999996,102.17968800000017,63.589844000000085,147.3076170000004,112.43603499999972,-25.38452099999995,42.05126999999993
264,134.48730499999965,-418.33325200000036,117.56396500000028,68.84619099999964,51.53857400000015,121.0258789999998,134.61523400000078,135.2563479999999,117.56396500000028,74.35888699999941,160.51269500000035,118.0771479999994,-13.58984399999963,55.38476599999922
265,137.05126999999993,-417.820557,116.41015599999992,73.3334960000002,43.46142599999985,123.20507799999996,137.43603499999972,139.87158199999976,130.51269500000035,86.9228520000006,168.0771479999994,120.51269500000035,-8.974365000000034,57.56396500000028
266,127.82031300000017,-428.46142599999985,110.0,70.89746099999957,39.87158199999976,123.20507799999996,136.15380900000036,135.89746099999957,134.48730499999965,90.0,165.0,118.0771479999994,-16.28198199999997,47.56396500000028
267,113.84619099999964,-442.6923829999996,103.0771479999994,66.15380900000036,44.23095699999976,120.38476599999922,132.43603499999972,128.46142599999985,128.9741210000002,81.6665039999998,154.87158199999976,112.82031300000017,-30.641113000000132,33.46142599999985
268,104.10253900000043,-451.923096,100.0,63.46142599999985,51.2822270000006,116.0258789999998,129.61523400000078,124.48730499999965,119.23095699999976,70.51269500000035,145.76904300000024,107.82031300000017,-42.17944299999999,25.51269500000035
269,103.20507799999996,-453.20507799999996,102.05126999999993,63.20507799999996,53.7177729999994,113.46142599999985,129.87158199999976,126.53857400000015,111.41015599999992,65.38476599999922,144.23095699999976,105.51269500000035,-43.71801800000003,27.69238299999961
270,110.51269500000035,-447.9487299999996,107.82031300000017,63.46142599999985,51.9228520000006,115.76904300000024,133.0771479999994,132.56396500000028,109.61523400000078,68.9741210000002,151.6665039999998,107.05126999999993,-34.61547900000005,37.69238299999961
271,123.58984400000008,-438.97436500000003,114.74365200000011,64.48730499999965,55.76904300000024,123.20507799999996,137.05126999999993,138.7177729999994,114.61523400000078,78.58984400000008,165.0,111.6665039999998,-19.74365200000011,50.38476599999922
272,138.84619099999964,-428.076904,120.38476599999922,69.10253900000043,73.0771479999994,131.6665039999998,139.7436520000001,142.56396500000028,124.10253900000043,90.12841800000024,178.3334960000002,117.05126999999993,-6.281981999999971,61.79492200000004
273,152.43603499999972,-418.076904,122.69238299999961,78.58984400000008,98.46142599999985,135.6411130000006,139.87158199999976,142.94873000000007,132.94873000000007,100.38476599999922,185.38476599999922,120.0,0.769043000000238,69.23095699999976
274,159.61523400000078,-412.0512700000004,121.0258789999998,90.12841800000024,113.7177729999994,131.2822270000006,137.82031300000017,140.2563479999999,136.0258789999998,106.2822270000006,183.20507799999996,119.10253900000043,-0.12841800000023795,72.05126999999993
275,157.82031300000017,-412.3076170000004,116.53857400000015,97.82031300000017,103.7177729999994,120.25634799999989,134.48730499999965,135.38476599999922,131.15380900000036,105.0,173.58984400000008,115.12841800000024,-6.666747999999643,70.25634799999989
276,148.9741210000002,-418.33325200000036,111.53857400000015,97.56396500000028,70.51269500000035,108.58984400000008,131.6665039999998,129.7436520000001,120.76904300000024,96.15380900000036,161.6665039999998,110.51269500000035,-13.974365000000034,64.87158199999976
277,139.10253900000043,-426.923096,108.20507799999996,90.0,35.0,102.30761700000039,130.12841800000024,125.12841800000024,110.89746099999957,84.10253900000043,152.6923829999996,107.69238299999961,-18.205077999999958,58.0771479999994
278,134.61523400000078,-434.35888699999987,107.30761700000039,80.51269500000035,20.51269500000035,103.58984400000008,129.87158199999976,122.94873000000007,106.79492200000004,76.2822270000006,149.87158199999976,108.3334960000002,-18.58984399999963,52.43603499999972
279,138.3334960000002,-437.5642090000006,108.84619099999964,75.89746099999957,35.0,109.35888699999941,130.51269500000035,123.58984400000008,110.0,77.82031300000017,153.3334960000002,111.6665039999998,-16.41015600000037,50.0
280,147.94873000000007,-436.02563499999997,112.56396500000028,79.48730499999965,64.10253900000043,114.61523400000078,131.2822270000006,126.41015599999992,117.05126999999993,87.56396500000028,160.12841800000024,115.64111300000059,-13.205077999999958,51.666503999999804
281,158.20507799999996,-431.923096,117.69238299999961,90.25634799999989,82.94873000000007,116.53857400000015,132.05126999999993,129.3588869999994,122.17968800000017,98.7177729999994,166.2822270000006,118.0771479999994,-9.743652000000111,56.025878999999804
282,163.58984400000008,-428.71801800000003,122.82031300000017,102.17968800000017,76.9228520000006,115.51269500000035,132.82031300000017,130.0,121.53857400000015,103.46142599999985,168.3334960000002,117.94873000000007,-6.794922000000042,60.0
283,161.79492200000004,-429.35888699999987,126.41015599999992,109.48730499999965,52.56396500000028,113.46142599999985,132.94873000000007,126.79492200000004,115.51269500000035,98.46142599999985,165.2563479999999,115.76904300000024,-5.38452099999995,60.25634799999989
284,155.6411130000006,-434.102539,127.82031300000017,109.61523400000078,29.230956999999762,111.6665039999998,131.6665039999998,120.51269500000035,107.05126999999993,86.2822270000006,159.23095699999976,113.20507799999996,-6.538574000000153,56.2822270000006
285,151.15380900000036,-439.2307130000004,127.17968800000017,106.15380900000036,23.589844000000085,110.38476599999922,129.3588869999994,113.84619099999964,101.0258789999998,74.10253900000043,154.61523400000078,111.6665039999998,-9.230713000000378,50.897460999999566
286,153.58984400000008,-439.61547900000005,126.0258789999998,104.61523400000078,38.46142599999985,110.25634799999989,127.43603499999972,110.64111300000059,100.89746099999957,69.74365200000011,155.12841800000024,112.17968800000017,-10.0,48.846190999999635
287,162.94873000000007,-432.4357909999994,126.0258789999998,108.3334960000002,62.82031300000017,112.94873000000007,127.69238299999961,113.3334960000002,107.05126999999993,75.12841800000024,160.6411130000006,114.61523400000078,-6.025634999999966,52.43603499999972
288,173.9741210000002,-420.38452099999995,127.69238299999961,115.12841800000024,82.56396500000028,119.35888699999941,129.48730499999965,120.38476599999922,115.89746099999957,84.61523400000078,168.0771479999994,117.30761700000039,2.1796880000001693,59.74365200000011
289,181.2822270000006,-409.2307130000004,130.12841800000024,121.53857400000015,90.38476599999922,127.17968800000017,131.15380900000036,128.20507799999996,122.69238299999961,91.15380900000036,173.84619099999964,118.9741210000002,10.256347999999889,66.79492200000004
290,183.9741210000002,-403.076904,133.3334960000002,126.2822270000006,89.10253900000043,132.56396500000028,132.05126999999993,134.7436520000001,126.79492200000004,93.20507799999996,176.79492200000004,119.10253900000043,15.384765999999217,71.53857400000015
291,185.2563479999999,-401.923096,137.94873000000007,130.6411130000006,85.0,132.6923829999996,133.20507799999996,140.12841800000024,130.89746099999957,95.89746099999957,178.58984400000008,118.84619099999964,17.56396500000028,74.35888699999941
292,188.3334960000002,-404.4870609999998,142.94873000000007,135.51269500000035,79.48730499999965,128.20507799999996,136.0258789999998,145.0,136.6665039999998,103.3334960000002,180.38476599999922,118.7177729999994,17.56396500000028,75.64111300000059
293,192.43603499999972,-408.97436500000003,146.15380900000036,139.61523400000078,68.84619099999964,122.30761700000039,140.38476599999922,147.94873000000007,141.53857400000015,112.05126999999993,181.9228520000006,118.84619099999964,16.282227000000603,74.87158199999976
294,195.38476599999922,-412.9487299999996,146.2822270000006,141.9228520000006,52.30761700000039,118.7177729999994,144.48730499999965,147.6923829999996,141.9228520000006,114.74365200000011,182.3076170000004,118.9741210000002,14.615234000000783,72.05126999999993
295,195.6411130000006,-414.61547900000005,143.9741210000002,142.82031300000017,36.025878999999804,119.61523400000078,146.15380900000036,145.12841800000024,137.6923829999996,108.84619099999964,182.05126999999993,118.9741210000002,14.358886999999413,68.20507799999996
296,192.56396500000028,-414.102539,140.2563479999999,142.6923829999996,29.615234000000783,123.9741210000002,143.9741210000002,142.05126999999993,131.79492200000004,99.10253900000043,180.76904300000024,118.58984400000008,16.025878999999804,64.48730499999965
297,186.0258789999998,-414.61547900000005,135.89746099999957,141.79492200000004,37.82031300000017,129.10253900000043,138.0771479999994,138.46142599999985,126.9228520000006,93.0771479999994,177.43603499999972,117.43603499999972,17.94873000000007,60.25634799999989
298,177.82031300000017,-418.58984399999963,131.53857400000015,140.51269500000035,57.05126999999993,132.56396500000028,130.6411130000006,133.7177729999994,123.20507799999996,93.20507799999996,171.15380900000036,115.64111300000059,17.43603499999972,54.61523400000078
299,172.43603499999972,-423.84619099999964,129.3588869999994,140.76904300000024,77.69238299999961,133.20507799999996,125.64111300000059,128.84619099999964,120.64111300000059,96.9228520000006,164.10253900000043,114.10253900000043,14.615234000000783,48.589844000000085
300,175.51269500000035,-425.64111300000013,132.17968800000017,144.23095699999976,89.87158199999976,131.9228520000006,125.64111300000059,127.43603499999972,120.51269500000035,100.76904300000024,160.89746099999957,114.10253900000043,12.43603499999972,46.153809000000365
301,187.82031300000017,-421.66674799999964,139.48730499999965,148.58984400000008,87.94873000000007,129.61523400000078,130.6411130000006,132.05126999999993,124.87158199999976,102.94873000000007,164.23095699999976,116.15380900000036,13.589844000000085,49.74365200000011
302,203.0771479999994,-415.0,147.56396500000028,149.61523400000078,74.10253900000043,126.6665039999998,136.6665039999998,141.0258789999998,132.94873000000007,103.0771479999994,172.05126999999993,118.9741210000002,17.69238299999961,57.17968800000017
303,211.9228520000006,-411.28198199999997,151.53857400000015,144.3588869999994,56.53857400000015,122.69238299999961,138.84619099999964,148.0771479999994,140.38476599999922,101.0258789999998,178.46142599999985,120.89746099999957,21.410155999999915,62.69238299999961
304,210.6411130000006,-412.3076170000004,149.7436520000001,136.15380900000036,42.94873000000007,118.0771479999994,135.89746099999957,148.3334960000002,143.7177729999994,97.56396500000028,179.10253900000043,120.64111300000059,22.82031300000017,61.9228520000006
305,203.84619099999964,-414.8718259999996,144.61523400000078,131.53857400000015,35.51269500000035,114.61523400000078,130.51269500000035,142.17968800000017,142.56396500000028,93.84619099999964,174.48730499999965,118.3334960000002,22.69238299999961,56.025878999999804
306,199.61523400000078,-414.4870609999998,140.12841800000024,135.12841800000024,32.05126999999993,114.23095699999976,127.17968800000017,135.12841800000024,140.6411130000006,91.2822270000006,168.7177729999994,115.51269500000035,23.846190999999635,50.51269500000035
307,204.23095699999976,-408.97436500000003,139.61523400000078,146.15380900000036,32.56396500000028,116.6665039999998,128.58984400000008,133.84619099999964,141.6665039999998,91.53857400000015,167.05126999999993,113.9741210000002,28.077147999999397,51.153809000000365
308,217.05126999999993,-400.0,143.3334960000002,159.3588869999994,40.76904300000024,120.51269500000035,133.7177729999994,140.89746099999957,147.17968800000017,96.6665039999998,171.2822270000006,114.74365200000011,34.35888699999941,58.974121000000196
309,231.41015599999992,-390.7692869999996,149.3588869999994,168.84619099999964,58.7177729999994,123.46142599999985,138.9741210000002,153.0771479999994,155.12841800000024,107.82031300000017,179.3588869999994,117.17968800000017,40.12841800000024,69.48730499999965
310,239.48730499999965,-384.61547900000005,153.84619099999964,172.56396500000028,79.74365200000011,124.10253900000043,141.41015599999992,163.3334960000002,160.6411130000006,121.2822270000006,186.15380900000036,119.48730499999965,43.333496000000196,75.51269500000035
311,237.94873000000007,-383.46142599999985,153.9741210000002,172.6923829999996,92.30761700000039,122.69238299999961,139.87158199999976,166.0258789999998,160.0,128.7177729999994,186.9228520000006,119.87158199999976,43.7177729999994,73.0771479999994
312,230.51269500000035,-386.66674799999964,149.87158199999976,173.46142599999985,89.23095699999976,120.25634799999989,136.0258789999998,161.2822270000006,154.48730499999965,124.35888699999941,181.2822270000006,118.20507799999996,42.82031300000017,63.846190999999635
313,224.7436520000001,-391.02563499999997,144.3588869999994,177.56396500000028,73.7177729999994,118.20507799999996,132.94873000000007,154.48730499999965,150.2563479999999,112.82031300000017,174.61523400000078,116.2822270000006,43.974121000000196,54.61523400000078
314,225.89746099999957,-392.9487299999996,140.0,183.20507799999996,56.9228520000006,117.30761700000039,132.94873000000007,150.6411130000006,152.6923829999996,105.38476599999922,172.56396500000028,115.76904300000024,48.846190999999635,51.53857400000015
315,231.9228520000006,-392.0512700000004,137.43603499999972,185.6411130000006,48.333496000000196,116.53857400000015,134.87158199999976,150.0,159.7436520000001,108.0771479999994,175.51269500000035,116.53857400000015,54.61523400000078,54.48730499999965
316,236.9228520000006,-391.15380900000036,135.12841800000024,181.6665039999998,50.12841800000024,115.51269500000035,135.51269500000035,148.84619099999964,163.20507799999996,115.25634799999989,178.7177729999994,116.9228520000006,57.05126999999993,58.20507799999996
317,237.94873000000007,-391.41015600000037,133.0771479999994,174.87158199999976,56.79492200000004,115.12841800000024,133.46142599999985,144.3588869999994,156.53857400000015,115.89746099999957,177.56396500000028,116.6665039999998,54.74365200000011,57.56396500000028
318,237.56396500000028,-390.2563479999999,132.94873000000007,173.84619099999964,61.410155999999915,117.17968800000017,131.0258789999998,138.58984400000008,143.0771479999994,105.76904300000024,172.6923829999996,116.79492200000004,52.05126999999993,53.589844000000085
319,241.2822270000006,-384.7436520000001,136.2822270000006,183.9741210000002,59.61523400000078,121.2822270000006,131.6665039999998,136.53857400000015,132.56396500000028,91.6665039999998,169.3588869999994,118.20507799999996,53.974121000000196,51.410155999999915
320,250.0,-375.897461,141.53857400000015,201.53857400000015,52.05126999999993,125.76904300000024,136.41015599999992,140.38476599999922,133.0771479999994,84.48730499999965,171.2822270000006,120.25634799999989,60.51269500000035,54.61523400000078
321,259.48730499999965,-368.33325200000036,145.89746099999957,216.41015599999992,44.35888699999941,128.46142599999985,143.0771479999994,147.56396500000028,143.7177729999994,89.35888699999941,177.82031300000017,121.6665039999998,67.30761700000039,61.666503999999804
322,265.6411130000006,-364.4870609999998,147.94873000000007,221.2822270000006,43.7177729999994,128.20507799999996,148.20507799999996,153.3334960000002,157.05126999999993,103.0771479999994,185.6411130000006,122.82031300000017,71.15380900000036,68.0771479999994
323,268.5898440000001,-362.4357909999994,148.9741210000002,217.17968800000017,53.589844000000085,126.41015599999992,150.2563479999999,156.2822270000006,166.15380900000036,118.20507799999996,192.3076170000004,123.84619099999964,73.7177729999994,71.15380900000036
324,271.6665039999998,-358.46142599999985,150.89746099999957,211.79492200000004,69.10253900000043,125.12841800000024,149.7436520000001,158.0771479999994,168.58984400000008,128.3334960000002,197.3076170000004,124.61523400000078,78.84619099999964,71.53857400000015
325,276.6665039999998,-352.5642090000006,153.3334960000002,213.58984400000008,79.23095699999976,125.25634799999989,148.46142599999985,160.76904300000024,165.76904300000024,130.0,199.61523400000078,125.0,87.82031300000017,70.89746099999957
326,281.6665039999998,-348.46142599999985,154.61523400000078,225.0,75.51269500000035,125.12841800000024,147.05126999999993,163.46142599999985,160.0,123.7177729999994,197.82031300000017,125.12841800000024,96.53857400000015,69.48730499999965
327,283.84619099999964,-349.35888699999987,153.9741210000002,241.9228520000006,59.87158199999976,123.0771479999994,145.38476599999922,163.0771479999994,153.3334960000002,112.56396500000028,191.6665039999998,125.25634799999989,99.23095699999976,66.0258789999998
328,282.5639650000003,-354.8718259999996,152.17968800000017,255.89746099999957,41.666503999999804,118.9741210000002,143.46142599999985,157.82031300000017,147.56396500000028,100.89746099999957,183.46142599999985,124.61523400000078,93.9741210000002,59.74365200000011
329,279.3588869999994,-360.64111300000013,151.2822270000006,260.6411130000006,29.74365200000011,115.64111300000059,141.53857400000015,149.7436520000001,143.9741210000002,91.2822270000006,176.6665039999998,123.20507799999996,85.12841800000024,52.82031300000017
330,277.82031300000017,-361.66674799999964,152.82031300000017,256.53857400000015,26.666503999999804,116.0258789999998,140.89746099999957,143.7177729999994,143.7177729999994,84.74365200000011,174.87158199999976,121.53857400000015,79.87158199999976,48.846190999999635
331,281.0258789999998,-356.02563499999997,157.05126999999993,249.61523400000078,28.717772999999397,120.64111300000059,142.05126999999993,143.58984400000008,148.3334960000002,82.94873000000007,178.9741210000002,121.15380900000036,83.58984400000008,50.51269500000035
332,288.9741210000002,-346.15380900000036,162.82031300000017,246.2822270000006,29.102539000000434,127.17968800000017,145.0,149.61523400000078,156.9228520000006,87.94873000000007,187.3076170000004,122.56396500000028,94.87158199999976,56.666503999999804
333,298.0771479999994,-337.179443,167.94873000000007,248.84619099999964,23.333496000000196,131.53857400000015,147.94873000000007,157.43603499999972,165.51269500000035,99.48730499999965,195.51269500000035,125.25634799999989,107.43603499999972,62.82031300000017
334,304.23095699999976,-333.58984399999963,171.41015599999992,255.51269500000035,15.0,131.53857400000015,149.23095699999976,162.05126999999993,168.84619099999964,112.69238299999961,198.84619099999964,127.94873000000007,115.12841800000024,65.38476599999922
335,306.6665039999998,-334.4870609999998,173.46142599999985,264.10253900000043,14.871581999999762,128.46142599999985,148.7177729999994,162.3076170000004,165.6411130000006,120.89746099999957,196.6665039999998,129.3588869999994,116.79492200000004,64.10253900000043
336,308.7177729999994,-334.8718259999996,175.38476599999922,273.7177729999994,30.51269500000035,126.2822270000006,147.43603499999972,161.15380900000036,160.12841800000024,120.38476599999922,192.56396500000028,129.61523400000078,116.2822270000006,61.79492200000004
337,313.3334960000002,-330.7692869999996,177.43603499999972,284.10253900000043,56.9228520000006,127.30761700000039,146.53857400000015,161.41015599999992,157.17968800000017,113.46142599999985,191.2822270000006,129.61523400000078,118.20507799999996,60.897460999999566
338,319.7436520000001,-323.33325200000036,177.6923829999996,293.0771479999994,78.20507799999996,130.0,146.15380900000036,162.82031300000017,158.46142599999985,105.64111300000059,193.3334960000002,129.7436520000001,123.3334960000002,61.025878999999804
339,324.3588869999994,-317.3076170000004,175.89746099999957,298.5898440000001,80.38476599999922,131.6665039999998,146.0258789999998,163.20507799999996,161.0258789999998,101.41015599999992,196.2822270000006,129.61523400000078,129.10253900000043,60.51269500000035
340,326.0258789999998,-315.0,174.3588869999994,300.89746099999957,63.7177729999994,131.53857400000015,146.79492200000004,162.17968800000017,162.43603499999972,102.30761700000039,198.7177729999994,129.61523400000078,133.3334960000002,59.35888699999941
341,327.3076170000004,-314.102539,176.41015599999992,303.5898440000001,42.30761700000039,131.53857400000015,149.3588869999994,162.05126999999993,162.82031300000017,107.43603499999972,201.2822270000006,131.0258789999998,136.53857400000015,59.74365200000011
342,331.9228520000006,-311.66674799999964,182.6923829999996,309.48730499999965,30.0,132.94873000000007,153.46142599999985,164.7436520000001,162.82031300000017,113.58984400000008,205.0,133.84619099999964,140.76904300000024,62.69238299999961
343,339.87158199999976,-307.5642090000006,190.0,317.17968800000017,29.48730499999965,134.48730499999965,157.17968800000017,169.3588869999994,162.56396500000028,116.6665039999998,208.9741210000002,136.41015599999992,145.89746099999957,65.89746099999957
344,348.7177729999994,-303.71801800000003,195.0,323.84619099999964,33.46142599999985,133.46142599999985,158.46142599999985,172.94873000000007,161.6665039999998,114.10253900000043,210.89746099999957,136.79492200000004,150.51269500000035,65.76904300000024
345,355.51269500000035,-301.28198199999997,197.05126999999993,328.5898440000001,35.51269500000035,128.58984400000008,157.94873000000007,174.10253900000043,161.53857400000015,107.69238299999961,210.51269500000035,135.0,153.84619099999964,61.53857400000015
346,359.48730499999965,-298.71801800000003,198.20507799999996,332.3076170000004,35.897460999999566,121.9228520000006,157.94873000000007,174.3588869999994,163.20507799999996,101.79492200000004,209.87158199999976,133.3334960000002,156.79492200000004,55.897460999999566
347,361.2822270000006,-295.38452099999995,200.12841800000024,334.87158199999976,38.333496000000196,116.6665039999998,160.38476599999922,175.2563479999999,166.15380900000036,99.35888699999941,211.41015599999992,133.20507799999996,159.87158199999976,52.43603499999972
348,361.53857400000015,-292.0512700000004,202.43603499999972,335.89746099999957,42.43603499999972,115.51269500000035,163.9741210000002,177.17968800000017,168.3334960000002,99.74365200000011,215.38476599999922,134.3588869999994,162.43603499999972,52.43603499999972
349,361.0258789999998,-290.5129390000002,204.23095699999976,336.0258789999998,42.94873000000007,117.69238299999961,165.6411130000006,178.9741210000002,168.46142599999985,100.64111300000059,220.2563479999999,135.89746099999957,164.10253900000043,54.48730499999965
350,359.87158199999976,-291.79492200000004,204.87158199999976,337.05126999999993,34.48730499999965,120.25634799999989,162.82031300000017,178.3334960000002,166.9228520000006,100.64111300000059,222.94873000000007,136.53857400000015,164.87158199999976,55.0
351,358.0771479999994,-295.38452099999995,204.87158199999976,339.6152340000008,17.43603499999972,120.51269500000035,156.0258789999998,174.10253900000043,164.87158199999976,100.64111300000059,221.41015599999992,135.6411130000006,165.51269500000035,50.897460999999566
352,356.0258789999998,-298.58984399999963,205.2563479999999,343.5898440000001,-0.12841800000023795,118.3334960000002,149.10253900000043,167.43603499999972,162.56396500000028,102.05126999999993,214.87158199999976,133.3334960000002,166.53857400000015,42.56396500000028
353,354.3588869999994,-299.2307130000004,206.0258789999998,348.3334960000002,-7.435790999999426,115.64111300000059,145.51269500000035,161.2822270000006,160.12841800000024,105.89746099999957,205.76904300000024,131.2822270000006,168.46142599999985,34.102539000000434
354,355.12841800000024,-295.38452099999995,208.0771479999994,354.3588869999994,1.6665039999998044,115.64111300000059,146.6665039999998,158.84619099999964,158.46142599999985,111.53857400000015,199.23095699999976,131.79492200000004,171.53857400000015,30.897460999999566
355,361.2822270000006,-286.53857400000015,212.3076170000004,363.0771479999994,24.358886999999413,119.61523400000078,151.6665039999998,162.6923829999996,159.61523400000078,118.0771479999994,200.6411130000006,136.15380900000036,176.9228520000006,35.897460999999566
356,374.48730499999965,-273.58984399999963,218.9741210000002,375.76904300000024,50.64111300000059,125.89746099999957,158.7177729999994,173.7177729999994,166.79492200000004,124.61523400000078,212.56396500000028,143.20507799999996,185.76904300000024,47.94873000000007
357,392.4360349999997,-259.35888699999987,226.79492200000004,391.4101559999999,68.84619099999964,131.79492200000004,165.51269500000035,190.12841800000024,180.51269500000035,129.3588869999994,231.2822270000006,149.61523400000078,198.20507799999996,62.17968800000017
358,408.20507799999996,-248.97436500000003,232.82031300000017,405.3847659999992,71.15380900000036,134.61523400000078,169.87158199999976,206.41015599999992,196.41015599999992,129.3588869999994,247.94873000000007,152.3076170000004,210.6411130000006,72.05126999999993
359,414.48730499999965,-246.923096,234.3588869999994,411.9228520000006,57.30761700000039,134.23095699999976,170.76904300000024,215.2563479999999,206.15380900000036,122.43603499999972,253.9741210000002,151.15380900000036,217.6923829999996,72.56396500000028
360,409.48730499999965,-253.46142599999985,231.41015599999992,408.46142599999985,34.74365200000011,132.3076170000004,168.58984400000008,212.43603499999972,203.7177729999994,110.64111300000059,247.17968800000017,148.46142599999985,216.6665039999998,63.7177729999994
361,398.9741210000002,-263.84619099999964,226.79492200000004,398.7177729999994,15.128418000000238,130.6411130000006,165.38476599999922,200.38476599999922,190.51269500000035,100.76904300000024,233.3334960000002,146.9228520000006,210.51269500000035,50.76904300000024
362,392.4360349999997,-270.1281740000004,225.0,390.51269500000035,7.179688000000169,130.12841800000024,163.9741210000002,187.43603499999972,175.12841800000024,100.76904300000024,221.53857400000015,147.43603499999972,206.41015599999992,41.53857400000015
363,396.53857400000015,-266.28198199999997,228.58984400000008,391.0258789999998,13.077147999999397,131.15380900000036,166.2822270000006,182.6923829999996,168.46142599999985,111.9228520000006,219.61523400000078,149.3588869999994,209.7436520000001,41.9228520000006
364,410.89746099999957,-251.923096,236.53857400000015,402.6923829999996,27.69238299999961,133.58984400000008,172.43603499999972,190.12841800000024,175.6411130000006,127.69238299999961,228.58984400000008,151.6665039999998,219.7436520000001,51.410155999999915
365,428.7177729999994,-233.33325200000036,243.84619099999964,420.0,43.333496000000196,136.53857400000015,179.48730499999965,205.12841800000024,191.79492200000004,137.82031300000017,241.9228520000006,153.58984400000008,231.0258789999998,63.846190999999635
366,441.53857400000015,-220.2563479999999,245.6411130000006,433.9741210000002,52.82031300000017,138.58984400000008,183.0771479999994,217.56396500000028,205.12841800000024,137.05126999999993,250.51269500000035,154.7436520000001,237.94873000000007,71.41015599999992
367,445.6411130000006,-217.820557,242.17968800000017,438.9741210000002,53.846190999999635,138.9741210000002,181.53857400000015,220.12841800000024,207.17968800000017,130.12841800000024,249.87158199999976,155.38476599999922,240.2563479999999,71.41015599999992
368,445.2563479999999,-222.6923829999996,238.9741210000002,438.5898440000001,49.23095699999976,138.0771479999994,177.43603499999972,213.9741210000002,199.3588869999994,127.82031300000017,243.46142599999985,156.9228520000006,242.94873000000007,68.0771479999994
369,447.17968800000017,-226.28198199999997,241.79492200000004,441.4101559999999,43.7177729999994,136.6665039999998,175.38476599999922,207.56396500000028,191.15380900000036,136.15380900000036,239.61523400000078,160.38476599999922,251.15380900000036,67.94873000000007
370,454.10253900000043,-223.97436500000003,250.38476599999922,451.53857400000015,40.12841800000024,135.38476599999922,177.17968800000017,207.56396500000028,190.12841800000024,148.84619099999964,241.6665039999998,163.9741210000002,262.82031300000017,72.43603499999972
371,461.6665039999998,-218.076904,258.84619099999964,465.12841800000024,37.94873000000007,133.84619099999964,180.12841800000024,213.20507799999996,195.12841800000024,153.0771479999994,245.6411130000006,165.0,269.7436520000001,75.89746099999957
372,463.0771479999994,-215.0,260.89746099999957,473.84619099999964,35.897460999999566,132.3076170000004,179.7436520000001,216.9228520000006,198.84619099999964,142.56396500000028,244.3588869999994,162.3076170000004,265.6411130000006,71.9228520000006
373,456.15380900000036,-218.20507799999996,255.12841800000024,473.20507799999996,32.43603499999972,130.76904300000024,174.61523400000078,212.43603499999972,195.38476599999922,123.3334960000002,235.0,156.9228520000006,252.43603499999972,59.35888699999941
374,445.51269500000035,-225.38452099999995,246.15380900000036,465.89746099999957,26.282227000000603,129.61523400000078,167.17968800000017,200.89746099999957,185.51269500000035,108.20507799999996,222.43603499999972,151.15380900000036,239.7436520000001,44.48730499999965
375,438.9741210000002,-231.15380900000036,240.89746099999957,458.7177729999994,18.846190999999635,129.10253900000043,162.3076170000004,190.38476599999922,175.6411130000006,103.9741210000002,214.87158199999976,146.9228520000006,236.15380900000036,35.0
376,442.17968800000017,-230.64111300000013,243.20507799999996,458.46142599999985,14.230956999999762,129.61523400000078,163.58984400000008,189.10253900000043,172.82031300000017,108.58984400000008,217.6923829999996,145.38476599999922,243.7177729999994,35.25634799999989
377,454.7436520000001,-222.3076170000004,252.3076170000004,468.0771479999994,17.30761700000039,131.41015599999992,170.51269500000035,198.84619099999964,179.61523400000078,115.89746099999957,229.48730499999965,147.56396500000028,257.4360349999997,43.974121000000196
378,471.0258789999998,-209.10253899999998,263.20507799999996,483.5898440000001,27.94873000000007,133.9741210000002,178.9741210000002,213.46142599999985,191.79492200000004,122.17968800000017,243.9741210000002,152.6923829999996,269.7436520000001,55.38476599999922
379,484.10253900000043,-195.76928699999962,269.87158199999976,497.4360349999997,40.38476599999922,136.2822270000006,184.61523400000078,223.84619099999964,201.6665039999998,127.17968800000017,253.58984400000008,158.46142599999985,276.2822270000006,62.69238299999961
380,490.0,-187.179443,269.10253900000043,503.46142599999985,46.53857400000015,137.05126999999993,184.3588869999994,224.61523400000078,203.46142599999985,131.41015599999992,254.10253900000043,161.79492200000004,277.5639650000003,62.30761700000039
381,489.23095699999976,-185.2563479999999,262.5639650000003,501.6665039999998,41.666503999999804,136.2822270000006,178.84619099999964,217.56396500000028,197.56396500000028,132.94873000000007,247.3076170000004,161.6665039999998,278.0771479999994,55.51269500000035
382,485.6411130000006,-188.97436500000003,255.89746099999957,497.6923829999996,27.69238299999961,134.48730499999965,171.53857400000015,209.23095699999976,188.46142599999985,129.3588869999994,239.61523400000078,159.48730499999965,281.2822270000006,47.17968800000017
383,483.3334960000002,-195.0,254.10253900000043,497.5639650000003,11.794922000000042,132.43603499999972,166.9228520000006,205.12841800000024,181.2822270000006,120.12841800000024,236.6665039999998,157.17968800000017,287.4360349999997,41.666503999999804
