,EEG.AF3,EEG.F7,EEG.F3,EEG.FC5,EEG.T7,EEG.P7,EEG.O1,EEG.O2,EEG.P8,EEG.T8,EEG.FC6,EEG.F4,EEG.F8,EEG.AF4
0,117.17968800000017,120.0,49.87158199999976,115.38476599999922,113.7177729999994,118.46142599999985,103.46142599999985,106.15380900000036,95.64111300000059,90.51269500000035,99.74365200000011,117.17968800000017,103.9741210000002,130.89746099999957
1,113.20507799999996,117.69238299999961,52.30761700000039,119.10253900000043,112.69238299999961,116.6665039999998,101.41015599999992,104.74365200000011,95.51269500000035,88.3334960000002,99.48730499999965,116.9228520000006,102.82031300000017,131.0258789999998
2,108.7177729999994,115.0,53.589844000000085,118.3334960000002,110.38476599999922,115.0,99.35888699999941,101.15380900000036,92.94873000000007,85.76904300000024,97.17968800000017,116.2822270000006,103.3334960000002,129.87158199999976
3,109.10253900000043,116.15380900000036,53.46142599999985,116.0258789999998,111.0258789999998,115.12841800000024,99.35888699999941,99.35888699999941,92.30761700000039,87.17968800000017,96.15380900000036,115.25634799999989,107.30761700000039,129.10253900000043
4,115.89746099999957,121.9228520000006,52.69238299999961,115.76904300000024,116.0258789999998,116.6665039999998,101.2822270000006,101.79492200000004,95.76904300000024,94.10253900000043,97.94873000000007,114.35888699999941,112.82031300000017,130.6411130000006
5,125.51269500000035,128.7177729999994,52.43603499999972,118.0771479999994,121.53857400000015,117.82031300000017,103.20507799999996,106.9228520000006,101.2822270000006,102.56396500000028,100.51269500000035,113.58984400000008,116.0258789999998,133.84619099999964
6,131.0258789999998,131.2822270000006,52.69238299999961,120.64111300000059,120.76904300000024,117.05126999999993,103.7177729999994,110.64111300000059,104.23095699999976,105.89746099999957,100.89746099999957,112.82031300000017,113.9741210000002,136.0258789999998
7,128.7177729999994,126.53857400000015,53.20507799999996,119.87158199999976,109.61523400000078,113.58984400000008,102.30761700000039,109.74365200000011,101.15380900000036,100.64111300000059,97.94873000000007,111.6665039999998,106.53857400000015,134.87158199999976
8,120.51269500000035,117.05126999999993,53.974121000000196,114.87158199999976,93.9741210000002,108.7177729999994,100.0,105.0,93.20507799999996,90.12841800000024,93.46142599999985,110.38476599999922,97.82031300000017,130.76904300000024
9,112.94873000000007,108.84619099999964,56.025878999999804,108.46142599999985,85.76904300000024,104.87158199999976,98.3334960000002,100.64111300000059,85.64111300000059,82.17968800000017,90.64111300000059,110.76904300000024,93.0771479999994,127.05126999999993
10,111.79492200000004,106.2822270000006,58.846190999999635,104.61523400000078,90.76904300000024,103.58984400000008,97.69238299999961,99.87158199999976,83.7177729999994,82.69238299999961,91.79492200000004,113.3334960000002,95.51269500000035,126.6665039999998
11,116.53857400000015,108.3334960000002,60.38476599999922,104.48730499999965,101.79492200000004,104.48730499999965,97.30761700000039,101.9228520000006,87.94873000000007,89.74365200000011,95.64111300000059,116.15380900000036,102.43603499999972,129.87158199999976
12,120.76904300000024,110.64111300000059,58.46142599999985,106.0258789999998,105.0,105.38476599999922,95.51269500000035,103.0771479999994,92.82031300000017,95.25634799999989,97.69238299999961,116.41015599999992,107.56396500000028,132.82031300000017
13,118.20507799999996,110.64111300000059,52.56396500000028,105.38476599999922,92.56396500000028,104.35888699999941,91.0258789999998,99.10253900000043,91.2822270000006,91.6665039999998,93.9741210000002,112.82031300000017,105.64111300000059,131.41015599999992
14,108.20507799999996,110.76904300000024,45.38476599999922,102.05126999999993,69.74365200000011,101.53857400000015,85.0,90.0,81.0258789999998,78.84619099999964,84.74365200000011,106.79492200000004,97.43603499999972,124.10253900000043
15,97.82031300000017,113.84619099999964,41.53857400000015,98.9741210000002,50.76904300000024,99.23095699999976,81.0258789999998,80.51269500000035,68.46142599999985,66.15380900000036,76.2822270000006,102.43603499999972,90.12841800000024,115.76904300000024
16,95.76904300000024,118.3334960000002,44.102539000000434,99.10253900000043,47.17968800000017,99.87158199999976,82.05126999999993,77.05126999999993,63.974121000000196,65.38476599999922,76.15380900000036,102.56396500000028,91.79492200000004,114.23095699999976
17,104.48730499999965,118.58984400000008,51.53857400000015,101.9228520000006,56.79492200000004,103.3334960000002,86.9228520000006,81.53857400000015,70.89746099999957,78.9741210000002,86.79492200000004,106.9228520000006,103.84619099999964,122.94873000000007
18,117.17968800000017,112.94873000000007,58.46142599999985,103.84619099999964,64.23095699999976,106.15380900000036,90.64111300000059,87.30761700000039,80.89746099999957,95.12841800000024,101.0258789999998,111.53857400000015,119.10253900000043,136.53857400000015
19,123.0771479999994,107.69238299999961,58.589844000000085,103.84619099999964,55.51269500000035,104.74365200000011,87.82031300000017,83.9741210000002,79.61523400000078,96.0258789999998,107.30761700000039,111.2822270000006,127.69238299999961,144.3588869999994
20,118.46142599999985,113.46142599999985,51.153809000000365,105.89746099999957,34.48730499999965,99.10253900000043,78.58984400000008,67.82031300000017,60.64111300000059,74.10253900000043,100.38476599999922,105.25634799999989,128.46142599999985,141.9228520000006
21,110.89746099999957,133.84619099999964,42.94873000000007,115.89746099999957,23.717772999999397,94.10253900000043,69.23095699999976,48.7177729999994,34.74365200000011,41.666503999999804,88.58984400000008,97.94873000000007,130.2563479999999,136.53857400000015
22,114.61523400000078,160.0,43.333496000000196,134.87158199999976,43.846190999999635,95.51269500000035,68.0771479999994,43.7177729999994,23.333496000000196,23.846190999999635,88.0771479999994,96.0258789999998,143.3334960000002,142.3076170000004
23,137.05126999999993,177.17968800000017,56.410155999999915,155.51269500000035,91.2822270000006,104.61523400000078,78.3334960000002,62.30761700000039,40.0,38.0771479999994,108.9741210000002,103.3334960000002,168.46142599999985,167.56396500000028
24,172.3076170000004,178.7177729999994,75.89746099999957,167.43603499999972,136.41015599999992,116.53857400000015,95.0,95.89746099999957,78.0771479999994,78.84619099999964,144.87158199999976,116.9228520000006,196.15380900000036,205.2563479999999
25,203.84619099999964,170.89746099999957,90.25634799999989,165.0,147.82031300000017,124.10253900000043,107.43603499999972,122.69238299999961,113.0771479999994,120.0,176.0258789999998,129.3588869999994,213.46142599999985,237.3076170000004
26,216.79492200000004,165.0,90.76904300000024,151.9228520000006,118.58984400000008,122.69238299999961,107.56396500000028,123.9741210000002,121.0258789999998,133.58984400000008,183.3334960000002,134.10253900000043,212.82031300000017,248.46142599999985
27,207.94873000000007,164.87158199999976,78.84619099999964,137.82031300000017,70.12841800000024,112.94873000000007,95.64111300000059,97.94873000000007,95.25634799999989,109.74365200000011,162.3076170000004,129.10253900000043,195.38476599999922,236.9228520000006
28,188.46142599999985,163.84619099999964,63.846190999999635,130.89746099999957,32.56396500000028,100.51269500000035,80.64111300000059,61.79492200000004,52.56396500000028,63.7177729999994,126.9228520000006,118.58984400000008,169.23095699999976,215.2563479999999
29,176.15380900000036,153.7177729999994,57.30761700000039,132.6923829999996,24.230956999999762,93.46142599999985,73.7177729999994,40.0,21.282227000000603,26.025878999999804,100.38476599999922,110.0,145.76904300000024,202.17968800000017
30,182.94873000000007,135.2563479999999,63.846190999999635,138.7177729999994,44.74365200000011,97.05126999999993,79.87158199999976,47.17968800000017,22.05126999999993,21.666503999999804,100.64111300000059,108.84619099999964,136.0258789999998,210.0
31,207.05126999999993,123.3334960000002,79.35888699999941,143.0771479999994,80.64111300000059,110.12841800000024,94.61523400000078,78.0771479999994,53.0771479999994,52.43603499999972,126.79492200000004,115.51269500000035,144.3588869999994,236.79492200000004
32,234.3588869999994,136.6665039999998,93.58984400000008,143.0771479999994,113.58984400000008,124.61523400000078,107.30761700000039,111.9228520000006,91.9228520000006,96.2822270000006,160.2563479999999,125.12841800000024,165.76904300000024,267.82031300000017
33,249.3588869999994,183.7177729999994,97.94873000000007,140.76904300000024,129.10253900000043,131.53857400000015,110.0,128.0771479999994,113.3334960000002,123.3334960000002,178.0771479999994,131.41015599999992,187.82031300000017,286.0258789999998
34,246.0258789999998,252.94873000000007,91.2822270000006,138.9741210000002,123.0771479999994,128.20507799999996,103.3334960000002,120.89746099999957,108.3334960000002,117.43603499999972,168.7177729999994,131.41015599999992,198.46142599999985,282.94873000000007
35,231.53857400000015,319.23095699999976,80.12841800000024,138.0771479999994,104.48730499999965,118.9741210000002,95.25634799999989,102.17968800000017,88.20507799999996,88.3334960000002,139.61523400000078,126.53857400000015,195.51269500000035,264.6152340000008
36,220.12841800000024,362.6923829999996,73.46142599999985,136.2822270000006,90.0,111.6665039999998,92.94873000000007,89.35888699999941,72.69238299999961,63.0771479999994,110.76904300000024,121.0258789999998,187.6923829999996,246.0258789999998
37,223.58984400000008,384.3588869999994,75.89746099999957,132.17968800000017,92.43603499999972,111.2822270000006,97.69238299999961,92.30761700000039,74.74365200000011,63.589844000000085,100.64111300000059,118.84619099999964,186.9228520000006,241.79492200000004
38,242.82031300000017,403.0771479999994,85.12841800000024,127.17968800000017,113.20507799999996,117.56396500000028,104.87158199999976,107.43603499999972,91.9228520000006,88.0771479999994,111.9228520000006,121.41015599999992,196.9228520000006,256.15380900000036
39,266.4101559999999,435.89746099999957,93.46142599999985,124.61523400000078,140.6411130000006,125.64111300000059,108.20507799999996,121.79492200000004,110.12841800000024,114.61523400000078,130.89746099999957,126.2822270000006,209.7436520000001,279.3588869999994
40,278.0771479999994,481.9228520000006,93.20507799999996,124.35888699999941,154.23095699999976,129.3588869999994,103.84619099999964,122.30761700000039,113.58984400000008,118.46142599999985,137.05126999999993,128.7177729999994,211.53857400000015,292.82031300000017
41,268.84619099999964,526.9228520000006,82.56396500000028,121.79492200000004,136.79492200000004,125.64111300000059,92.82031300000017,105.38476599999922,96.53857400000015,93.20507799999996,118.84619099999964,125.51269500000035,194.7436520000001,282.05126999999993
42,244.61523400000078,560.1284180000002,67.17968800000017,112.43603499999972,90.38476599999922,116.79492200000004,80.76904300000024,79.74365200000011,67.56396500000028,54.61523400000078,82.17968800000017,117.56396500000028,166.41015599999992,249.3588869999994
43,222.6923829999996,587.4360349999997,57.05126999999993,97.69238299999961,43.20507799999996,109.87158199999976,75.76904300000024,61.9228520000006,44.48730499999965,28.846190999999635,47.17968800000017,110.25634799999989,144.3588869999994,214.3588869999994
44,219.23095699999976,626.6665039999998,58.974121000000196,83.9741210000002,31.410155999999915,111.6665039999998,81.6665039999998,64.74365200000011,43.333496000000196,31.794922000000042,33.0771479999994,109.23095699999976,145.76904300000024,200.12841800000024
45,236.15380900000036,689.6152340000008,71.53857400000015,76.2822270000006,68.46142599999985,122.43603499999972,95.25634799999989,88.3334960000002,65.76904300000024,58.589844000000085,44.74365200000011,115.89746099999957,173.20507799999996,215.2563479999999
46,259.10253900000043,771.5385740000002,85.12841800000024,71.6665039999998,128.58984400000008,135.6411130000006,107.17968800000017,117.56396500000028,97.05126999999993,88.46142599999985,67.05126999999993,125.64111300000059,210.2563479999999,245.2563479999999
47,268.5898440000001,855.3847659999992,89.48730499999965,62.05126999999993,167.94873000000007,142.3076170000004,108.9741210000002,133.0771479999994,116.15380900000036,100.89746099999957,77.94873000000007,131.2822270000006,235.2563479999999,264.3588869999994
48,256.4101559999999,927.4360349999997,82.17968800000017,40.897460999999566,162.82031300000017,138.9741210000002,100.25634799999989,125.64111300000059,112.43603499999972,92.05126999999993,65.64111300000059,128.58984400000008,241.0258789999998,257.05126999999993
49,231.53857400000015,987.8203130000002,69.87158199999976,8.717772999999397,129.7436520000001,130.6411130000006,88.20507799999996,105.0,93.7177729999994,75.64111300000059,38.846190999999635,120.38476599999922,240.0,230.51269500000035
50,211.2822270000006,1048.8461909999996,62.94873000000007,-27.051270000000386,104.87158199999976,125.51269500000035,82.17968800000017,89.87158199999976,77.43603499999972,69.74365200000011,17.43603499999972,113.20507799999996,249.23095699999976,206.41015599999992
51,206.53857400000015,1122.94873,66.79492200000004,-58.20507799999996,107.94873000000007,128.3334960000002,85.89746099999957,92.56396500000028,75.89746099999957,79.87158199999976,13.077147999999397,111.79492200000004,271.2822270000006,201.41015599999992
52,214.23095699999976,1210.6411130000006,78.0771479999994,-80.89746100000002,129.10253900000043,137.3076170000004,95.76904300000024,108.0771479999994,87.56396500000028,97.30761700000039,20.128418000000238,115.38476599999922,292.4360349999997,214.3588869999994
53,223.0771479999994,1299.1025390000004,88.84619099999964,-98.07690400000001,146.6665039999998,147.05126999999993,103.84619099999964,121.6665039999998,101.53857400000015,109.10253900000043,22.30761700000039,119.48730499999965,298.20507799999996,231.0258789999998
54,224.3588869999994,1373.9741210000002,93.3334960000002,-115.51293900000019,149.48730499999965,152.6923829999996,105.12841800000024,121.79492200000004,108.0771479999994,110.12841800000024,10.128418000000238,120.64111300000059,290.51269500000035,237.6923829999996
55,217.6923829999996,1432.94873,92.43603499999972,-136.15380900000036,141.6665039999998,152.82031300000017,100.25634799999989,109.61523400000078,104.61523400000078,104.48730499999965,-10.769286999999622,118.58984400000008,286.4101559999999,231.53857400000015
56,210.51269500000035,1487.8203130000002,91.0258789999998,-156.79492200000004,135.0,149.10253900000043,94.10253900000043,96.0258789999998,96.15380900000036,99.23095699999976,-25.769286999999622,115.12841800000024,301.15380900000036,220.89746099999957
57,209.7436520000001,1550.5126950000003,93.58984400000008,-170.89746100000002,138.58984400000008,146.0258789999998,92.05126999999993,92.94873000000007,90.76904300000024,98.46142599999985,-25.1281740000004,113.58984400000008,334.3588869999994,217.56396500000028
58,216.41015599999992,1620.1284180000002,100.38476599999922,-173.58984399999963,153.3334960000002,147.05126999999993,95.64111300000059,103.46142599999985,93.46142599999985,101.0258789999998,-13.205077999999958,115.51269500000035,370.76904300000024,227.94873000000007
59,224.23095699999976,1684.4873049999997,108.84619099999964,-165.1281740000004,169.87158199999976,152.56396500000028,102.05126999999993,119.74365200000011,101.0258789999998,104.35888699999941,-5.256347999999889,119.48730499999965,392.94873000000007,248.84619099999964
60,225.76904300000024,1734.4873049999997,115.25634799999989,-150.64111300000013,177.05126999999993,159.10253900000043,106.53857400000015,129.3588869999994,106.15380900000036,107.17968800000017,-15.1281740000004,121.79492200000004,395.0,272.94873000000007
61,220.89746099999957,1773.3334960000002,118.46142599999985,-136.79492200000004,173.0771479999994,162.94873000000007,106.6665039999998,126.41015599999992,104.23095699999976,110.0,-42.82055700000001,120.12841800000024,385.6411130000006,296.0258789999998
62,215.6411130000006,1812.05127,120.64111300000059,-128.58984399999963,166.79492200000004,163.0771479999994,103.9741210000002,116.2822270000006,98.84619099999964,114.35888699999941,-74.23071300000038,115.64111300000059,381.2822270000006,319.87158199999976
63,216.2822270000006,1857.6923829999996,124.10253900000043,-127.43579099999943,167.3076170000004,161.6665039999998,101.79492200000004,110.12841800000024,97.05126999999993,120.51269500000035,-91.92309599999999,112.56396500000028,394.48730499999965,346.9228520000006
64,222.05126999999993,1907.4360349999997,129.7436520000001,-131.79492200000004,174.23095699999976,161.41015599999992,101.6665039999998,112.82031300000017,101.6665039999998,126.53857400000015,-88.71801800000003,113.3334960000002,424.87158199999976,375.6411130000006
65,227.3076170000004,1953.205078,135.76904300000024,-138.84619099999964,180.76904300000024,163.9741210000002,102.43603499999972,120.25634799999989,108.58984400000008,128.84619099999964,-73.46142599999985,116.79492200000004,459.23095699999976,400.89746099999957
66,226.15380900000036,1990.0,139.10253900000043,-145.1281740000004,184.3588869999994,168.58984400000008,102.05126999999993,123.3334960000002,110.89746099999957,126.41015599999992,-63.33325200000036,118.46142599999985,481.15380900000036,417.82031300000017
67,218.7177729999994,2021.5385740000002,139.61523400000078,-147.43579099999943,188.9741210000002,173.9741210000002,100.12841800000024,118.0771479999994,105.89746099999957,122.56396500000028,-68.58984399999963,115.76904300000024,484.23095699999976,425.2563479999999
68,210.0,2059.3588869999994,140.0,-143.71801800000003,196.9228520000006,177.94873000000007,98.20507799999996,108.20507799999996,97.05126999999993,123.3334960000002,-84.10253899999998,109.87158199999976,480.0,426.79492200000004
69,205.6411130000006,2115.8974609999996,143.0771479999994,-134.23071300000038,203.58984400000008,179.3588869999994,97.43603499999972,101.2822270000006,90.64111300000059,132.17968800000017,-95.38452099999995,105.12841800000024,486.15380900000036,426.9228520000006
70,206.79492200000004,2195.0,148.9741210000002,-121.02563499999997,202.05126999999993,177.82031300000017,97.69238299999961,101.2822270000006,90.12841800000024,144.48730499999965,-92.94872999999961,104.10253900000043,509.48730499999965,428.3334960000002
71,210.0,2287.820313,155.76904300000024,-107.05127000000039,193.46142599999985,175.51269500000035,97.94873000000007,106.79492200000004,94.23095699999976,150.6411130000006,-81.02563499999997,105.89746099999957,539.8715819999998,430.51269500000035
72,210.89746099999957,2378.589844,160.51269500000035,-93.97436500000003,188.3334960000002,174.87158199999976,97.69238299999961,113.0771479999994,99.87158199999976,144.61523400000078,-71.15380900000036,107.94873000000007,562.5639650000003,430.89746099999957
73,207.17968800000017,2456.794922,161.6665039999998,-82.43579099999943,195.76904300000024,176.9228520000006,97.94873000000007,117.43603499999972,104.74365200000011,131.41015599999992,-71.41015600000037,108.20507799999996,572.0512699999999,427.94873000000007
74,200.89746099999957,2524.743652,159.48730499999965,-72.05127000000039,212.6923829999996,179.7436520000001,100.0,120.38476599999922,108.58984400000008,122.94873000000007,-79.23071300000038,107.30761700000039,575.1284180000002,422.17968800000017
75,196.53857400000015,2593.589844,156.2822270000006,-61.53857400000015,228.3334960000002,181.0258789999998,104.74365200000011,124.61523400000078,112.56396500000028,128.9741210000002,-85.64111300000013,107.30761700000039,582.0512699999999,417.17968800000017
76,197.94873000000007,2671.1538090000004,155.51269500000035,-48.46142599999985,237.17968800000017,180.38476599999922,111.79492200000004,132.3076170000004,118.9741210000002,149.3588869999994,-83.58984399999963,109.48730499999965,597.4360349999997,417.17968800000017
77,204.23095699999976,2754.1025390000004,158.7177729999994,-31.153809000000365,243.7177729999994,179.23095699999976,118.58984400000008,141.6665039999998,127.94873000000007,173.9741210000002,-73.71801800000003,112.82031300000017,617.9487300000001,422.4360349999997
78,209.23095699999976,2832.3076170000004,163.7177729999994,-9.358886999999868,252.17968800000017,178.7177729999994,121.6665039999998,147.3076170000004,135.89746099999957,188.46142599999985,-64.10253899999998,114.35888699999941,636.794922,427.82031300000017
79,206.53857400000015,2896.794922,166.2822270000006,15.256347999999889,258.3334960000002,178.7177729999994,118.84619099999964,143.7177729999994,136.6665039999998,184.48730499999965,-63.20507799999996,111.6665039999998,648.5898440000001,425.6411130000006
80,194.87158199999976,2946.0258790000007,163.7177729999994,39.87158199999976,256.4101559999999,178.3334960000002,111.15380900000036,131.0258789999998,127.69238299999961,166.79492200000004,-72.17944299999999,105.64111300000059,653.4614259999998,412.94873000000007
81,179.48730499999965,2984.871581999999,157.43603499999972,62.69238299999961,248.3334960000002,177.6923829999996,103.20507799999996,116.53857400000015,113.9741210000002,150.38476599999922,-83.58984399999963,100.0,657.4360349999997,394.3588869999994
82,167.3076170000004,3021.410156,151.53857400000015,83.0771479999994,243.0771479999994,177.05126999999993,99.35888699999941,108.58984400000008,104.10253900000043,148.20507799999996,-88.97436500000003,98.3334960000002,667.5639650000003,378.46142599999985
83,160.38476599999922,3062.1796879999993,148.3334960000002,101.6665039999998,247.3076170000004,176.2822270000006,100.25634799999989,110.25634799999989,102.17968800000017,159.3588869999994,-86.53857400000015,100.89746099999957,685.2563479999999,370.89746099999957
84,156.41015599999992,3107.1796879999993,147.17968800000017,117.94873000000007,258.46142599999985,175.12841800000024,102.94873000000007,116.41015599999992,105.51269500000035,170.38476599999922,-82.69238299999961,104.10253900000043,705.8974609999996,371.15380900000036
85,152.43603499999972,3148.205078,146.0258789999998,129.87158199999976,268.20507799999996,173.7177729999994,103.58984400000008,120.25634799999989,108.58984400000008,169.3588869999994,-84.8718259999996,104.48730499999965,723.4614259999998,374.6152340000008
86,148.7177729999994,3174.230956999999,144.87158199999976,137.3076170000004,270.51269500000035,173.0771479999994,101.9228520000006,119.87158199999976,110.12841800000024,157.94873000000007,-92.17944299999999,101.9228520000006,737.0512699999999,377.05126999999993
87,147.94873000000007,3181.5385739999992,145.38476599999922,143.9741210000002,267.4360349999997,174.23095699999976,100.89746099999957,119.35888699999941,112.05126999999993,148.9741210000002,-97.05127000000039,99.48730499999965,751.0258789999998,377.5639650000003
88,151.79492200000004,3177.8203129999993,148.84619099999964,155.38476599999922,266.9228520000006,177.3076170000004,103.58984400000008,123.20507799999996,116.9228520000006,153.46142599999985,-93.71801800000003,100.51269500000035,768.4614259999998,377.17968800000017
89,157.6923829999996,3175.6411129999997,153.46142599999985,173.7177729999994,275.51269500000035,181.15380900000036,109.61523400000078,130.51269500000035,123.0771479999994,169.48730499999965,-84.8718259999996,104.35888699999941,786.0258789999998,376.2822270000006
90,159.87158199999976,3181.5385739999992,155.89746099999957,194.87158199999976,291.4101559999999,184.10253900000043,114.74365200000011,136.15380900000036,126.79492200000004,184.87158199999976,-78.84619099999964,107.56396500000028,796.1538090000004,372.94873000000007
91,154.10253900000043,3192.94873,153.9741210000002,211.41015599999992,307.17968800000017,184.48730499999965,115.0,135.51269500000035,125.64111300000059,188.84619099999964,-79.61547900000005,107.30761700000039,795.5126950000003,365.76904300000024
92,141.79492200000004,3203.7177730000003,148.46142599999985,218.84619099999964,315.3847659999992,182.17968800000017,110.12841800000024,128.9741210000002,121.2822270000006,180.51269500000035,-83.33325200000036,103.9741210000002,788.5898440000001,356.4101559999999
93,128.58984400000008,3208.9741209999993,142.43603499999972,218.58984400000008,315.12841800000024,178.7177729999994,103.3334960000002,120.89746099999957,116.6665039999998,167.56396500000028,-82.30761700000039,100.51269500000035,782.3076170000004,347.94873000000007
94,119.48730499999965,3205.128418000001,137.94873000000007,215.12841800000024,310.6411130000006,176.53857400000015,98.7177729999994,115.25634799999989,113.0771479999994,158.46142599999985,-73.46142599999985,98.84619099999964,779.4873049999997,342.05126999999993
95,115.25634799999989,3189.3588870000003,135.6411130000006,213.7177729999994,306.79492200000004,177.3076170000004,98.0771479999994,112.82031300000017,109.87158199999976,156.53857400000015,-61.28198199999997,98.58984400000008,778.0771479999994,337.17968800000017
96,113.9741210000002,3162.6923829999996,134.61523400000078,217.94873000000007,307.6923829999996,181.41015599999992,100.38476599999922,113.0771479999994,106.6665039999998,159.87158199999976,-52.051270000000386,98.9741210000002,776.9228520000006,331.53857400000015
97,113.9741210000002,3133.0771480000003,134.23095699999976,228.7177729999994,314.23095699999976,187.82031300000017,103.20507799999996,115.38476599999922,105.12841800000024,164.48730499999965,-48.58984399999963,99.23095699999976,777.8203130000002,325.6411130000006
98,115.0,3110.6411129999997,133.84619099999964,244.3588869999994,322.82031300000017,194.7436520000001,105.12841800000024,119.61523400000078,107.05126999999993,167.43603499999972,-47.82055700000001,99.74365200000011,782.0512699999999,321.79492200000004
99,116.53857400000015,3098.7177730000003,132.82031300000017,261.79492200000004,328.5898440000001,199.48730499999965,105.64111300000059,124.48730499999965,112.05126999999993,168.20507799999996,-44.48706099999981,100.38476599999922,786.1538090000004,320.51269500000035
100,115.76904300000024,3090.256348000001,130.89746099999957,278.9741210000002,329.23095699999976,200.0,105.12841800000024,127.05126999999993,116.79492200000004,167.05126999999993,-35.0,100.38476599999922,784.2309569999998,319.48730499999965
101,110.12841800000024,3075.256348000001,128.58984400000008,295.12841800000024,325.76904300000024,196.41015599999992,103.84619099999964,123.7177729999994,117.30761700000039,163.46142599999985,-19.61547900000005,99.35888699999941,773.8461909999996,314.7436520000001
102,100.38476599999922,3052.05127,126.6665039999998,310.76904300000024,321.0258789999998,190.2563479999999,101.79492200000004,113.9741210000002,111.53857400000015,156.2822270000006,-1.2822270000006029,97.43603499999972,758.7177729999994,305.12841800000024
103,90.76904300000024,3030.5126950000003,126.53857400000015,326.2822270000006,318.3334960000002,185.2563479999999,99.35888699999941,102.82031300000017,101.79492200000004,146.15380900000036,17.43603499999972,95.64111300000059,745.8974609999996,294.10253900000043
104,86.79492200000004,3022.94873,129.48730499999965,341.2822270000006,320.76904300000024,184.48730499999965,97.82031300000017,97.94873000000007,93.84619099999964,137.56396500000028,36.2822270000006,95.25634799999989,740.3847659999992,287.17968800000017
105,89.87158199999976,3029.743651999999,135.89746099999957,354.6152340000008,329.87158199999976,187.56396500000028,98.46142599999985,102.94873000000007,93.0771479999994,136.0258789999998,53.974121000000196,97.05126999999993,741.794922,287.3076170000004
106,96.15380900000036,3034.871581999999,143.84619099999964,364.6152340000008,341.79492200000004,190.51269500000035,100.64111300000059,113.58984400000008,98.84619099999964,141.79492200000004,67.05126999999993,100.12841800000024,744.4873049999997,291.4101559999999
107,99.61523400000078,3016.794922,150.0,370.2563479999999,347.82031300000017,188.3334960000002,101.79492200000004,120.76904300000024,105.38476599999922,149.3588869999994,71.79492200000004,102.30761700000039,741.794922,293.20507799999996
108,97.43603499999972,2966.0258790000007,152.94873000000007,372.5639650000003,341.6665039999998,180.2563479999999,100.64111300000059,118.84619099999964,107.30761700000039,151.6665039999998,69.48730499999965,102.17968800000017,731.5385740000002,288.5898440000001
109,92.30761700000039,2894.230956999999,154.7436520000001,375.12841800000024,326.6665039999998,170.0,98.58984400000008,110.38476599999922,104.35888699999941,146.6665039999998,66.9228520000006,100.38476599999922,717.8203130000002,279.3588869999994
110,89.23095699999976,2825.384765999999,158.46142599999985,382.3076170000004,312.82031300000017,162.94873000000007,98.3334960000002,103.20507799999996,100.76904300000024,138.58984400000008,71.2822270000006,99.10253900000043,707.1796880000002,271.15380900000036
111,91.0258789999998,2777.5639650000003,164.7436520000001,396.79492200000004,308.0771479999994,161.2822270000006,100.25634799999989,102.56396500000028,99.87158199999976,132.56396500000028,83.58984400000008,99.35888699999941,702.3076170000004,267.6923829999996
112,96.41015599999992,2750.128418000001,170.89746099999957,416.53857400000015,310.51269500000035,162.6923829999996,102.30761700000039,107.30761700000039,100.76904300000024,129.3588869999994,97.43603499999972,100.89746099999957,700.2563479999999,266.9228520000006
113,101.2822270000006,2727.3076170000004,172.56396500000028,436.15380900000036,311.9228520000006,163.46142599999985,101.6665039999998,111.15380900000036,99.48730499999965,126.41015599999992,104.23095699999976,101.9228520000006,695.1284180000002,262.05126999999993
114,102.30761700000039,2694.4873049999997,167.82031300000017,450.3847659999992,306.2822270000006,161.0258789999998,97.82031300000017,109.74365200000011,94.61523400000078,121.41015599999992,101.41015599999992,101.41015599999992,685.3847659999992,247.82031300000017
115,100.25634799999989,2648.8461909999996,159.23095699999976,457.3076170000004,295.3847659999992,155.76904300000024,93.3334960000002,105.0,89.61523400000078,116.0258789999998,95.25634799999989,100.12841800000024,674.3588869999994,225.76904300000024
116,99.23095699999976,2598.461426,151.2822270000006,457.94873000000007,285.3847659999992,149.48730499999965,91.79492200000004,102.17968800000017,89.48730499999965,113.46142599999985,95.25634799999989,99.48730499999965,667.1796880000002,203.46142599999985
117,101.6665039999998,2549.615234000001,146.79492200000004,455.0,279.10253900000043,143.9741210000002,93.7177729999994,103.9741210000002,95.12841800000024,113.84619099999964,105.51269500000035,99.87158199999976,665.1284180000002,187.82031300000017
118,106.15380900000036,2501.9228520000006,144.23095699999976,451.4101559999999,274.23095699999976,139.61523400000078,96.9228520000006,107.05126999999993,101.6665039999998,113.9741210000002,121.0258789999998,100.25634799999989,664.4873049999997,178.9741210000002
119,110.12841800000024,2452.3076170000004,140.0,449.87158199999976,266.53857400000015,135.38476599999922,98.58984400000008,107.30761700000039,103.3334960000002,110.51269500000035,132.56396500000028,100.12841800000024,661.1538090000004,170.51269500000035
120,112.82031300000017,2403.333496,131.53857400000015,452.6923829999996,255.76904300000024,131.9228520000006,98.3334960000002,104.23095699999976,99.48730499999965,104.48730499999965,134.87158199999976,100.12841800000024,654.7436520000001,155.51269500000035
121,115.38476599999922,2362.5639650000003,119.61523400000078,460.12841800000024,244.7436520000001,130.38476599999922,97.94873000000007,101.53857400000015,95.25634799999989,99.74365200000011,130.6411130000006,101.53857400000015,648.205078,131.2822270000006
122,118.9741210000002,2334.743652,106.79492200000004,469.6152340000008,236.15380900000036,131.41015599999992,98.58984400000008,102.56396500000028,95.25634799999989,98.58984400000008,127.05126999999993,104.23095699999976,644.6152340000008,101.15380900000036
123,121.79492200000004,2316.794922,96.2822270000006,476.53857400000015,230.38476599999922,133.7177729999994,99.61523400000078,106.6665039999998,98.9741210000002,100.0,128.84619099999964,106.79492200000004,643.0771479999994,71.53857400000015
124,121.9228520000006,2299.8715819999998,89.23095699999976,478.3334960000002,226.15380900000036,135.51269500000035,98.9741210000002,110.38476599999922,102.69238299999961,100.0,135.2563479999999,107.82031300000017,640.8974609999996,49.61523400000078
125,120.0,2276.9228520000006,85.64111300000059,476.0258789999998,223.58984400000008,135.38476599999922,95.89746099999957,110.64111300000059,103.46142599999985,96.41015599999992,142.82031300000017,106.9228520000006,636.5385740000002,39.87158199999976
126,119.23095699999976,2249.1025390000004,84.23095699999976,474.3588869999994,223.58984400000008,133.9741210000002,92.05126999999993,108.46142599999985,102.94873000000007,90.64111300000059,148.9741210000002,105.0,632.0512699999999,42.05126999999993
127,122.43603499999972,2222.94873,83.20507799999996,477.05126999999993,226.0258789999998,132.3076170000004,90.51269500000035,107.82031300000017,103.84619099999964,86.79492200000004,153.20507799999996,104.10253900000043,630.3847659999992,50.51269500000035
128,127.05126999999993,2203.7177729999994,81.0258789999998,483.46142599999985,227.56396500000028,130.76904300000024,92.94873000000007,111.15380900000036,107.43603499999972,87.05126999999993,156.15380900000036,104.87158199999976,632.5639650000003,56.79492200000004
129,128.20507799999996,2188.589844,77.30761700000039,488.46142599999985,223.7177729999994,128.58984400000008,97.94873000000007,116.6665039999998,111.0258789999998,89.87158199999976,156.79492200000004,105.89746099999957,636.1538090000004,55.12841800000024
130,122.56396500000028,2170.8974609999996,72.30761700000039,487.4360349999997,213.0771479999994,125.0,101.6665039999998,120.51269500000035,111.53857400000015,91.2822270000006,154.48730499999965,105.25634799999989,637.9487300000001,46.2822270000006
131,112.82031300000017,2146.1538090000004,68.0771479999994,480.3847659999992,200.38476599999922,120.38476599999922,101.53857400000015,120.25634799999989,108.20507799999996,89.23095699999976,151.6665039999998,102.69238299999961,637.5639650000003,37.43603499999972
132,105.38476599999922,2116.538574,66.6665039999998,473.20507799999996,192.82031300000017,116.6665039999998,98.58984400000008,117.05126999999993,104.35888699999941,84.87158199999976,151.79492200000004,100.76904300000024,637.0512699999999,35.64111300000059
133,104.61523400000078,2087.179688,68.58984400000008,470.89746099999957,193.58984400000008,115.38476599999922,95.64111300000059,113.46142599999985,103.20507799999996,80.38476599999922,156.2822270000006,101.41015599999992,637.5639650000003,41.79492200000004
134,108.46142599999985,2060.256348,71.9228520000006,472.94873000000007,198.46142599999985,115.76904300000024,95.12841800000024,111.2822270000006,104.87158199999976,76.79492200000004,161.6665039999998,104.48730499999965,637.8203130000002,50.12841800000024
135,111.79492200000004,2032.4360349999997,73.7177729999994,474.10253900000043,199.7436520000001,115.76904300000024,96.6665039999998,110.38476599999922,105.89746099999957,73.7177729999994,163.0771479999994,107.69238299999961,635.0,53.589844000000085
136,110.76904300000024,1998.9741210000002,72.69238299999961,469.87158199999976,193.46142599999985,114.35888699999941,98.58984400000008,110.25634799999989,103.84619099999964,70.76904300000024,158.84619099999964,108.84619099999964,627.8203130000002,49.87158199999976
137,106.0258789999998,1959.6152340000008,70.64111300000059,460.2563479999999,182.3076170000004,113.0771479999994,100.38476599999922,111.0258789999998,100.25634799999989,68.84619099999964,152.94873000000007,107.30761700000039,618.205078,43.20507799999996
138,101.0258789999998,1919.1025390000004,69.74365200000011,449.6152340000008,173.46142599999985,113.46142599999985,101.79492200000004,112.69238299999961,99.10253900000043,68.3334960000002,151.15380900000036,104.87158199999976,610.0,38.7177729999994
139,98.58984400000008,1882.5639650000003,70.51269500000035,441.4101559999999,170.89746099999957,115.51269500000035,102.30761700000039,114.23095699999976,102.17968800000017,68.20507799999996,155.12841800000024,103.84619099999964,603.9741210000002,38.846190999999635
140,97.56396500000028,1850.5126950000003,70.51269500000035,435.89746099999957,173.0771479999994,117.30761700000039,100.89746099999957,113.3334960000002,105.64111300000059,65.89746099999957,160.38476599999922,104.61523400000078,597.9487300000001,40.51269500000035
141,94.61523400000078,1819.3588869999994,67.82031300000017,430.12841800000024,175.12841800000024,116.2822270000006,96.6665039999998,107.82031300000017,103.9741210000002,59.61523400000078,160.2563479999999,105.89746099999957,588.0771479999994,39.23095699999976
142,88.84619099999964,1786.6665039999998,62.94873000000007,421.9228520000006,173.0771479999994,112.17968800000017,90.64111300000059,99.35888699999941,95.64111300000059,51.153809000000365,152.3076170000004,105.51269500000035,574.1025390000004,32.94873000000007
143,82.82031300000017,1753.9741210000002,59.48730499999965,411.15380900000036,167.17968800000017,106.53857400000015,86.2822270000006,93.20507799999996,85.76904300000024,45.25634799999989,140.6411130000006,103.84619099999964,559.6152340000008,24.871581999999762
144,79.74365200000011,1724.4873049999997,60.12841800000024,400.12841800000024,160.12841800000024,102.05126999999993,86.2822270000006,93.3334960000002,81.6665039999998,45.76904300000024,132.94873000000007,102.17968800000017,549.2309569999998,19.871581999999762
145,80.25634799999989,1698.4614259999998,63.7177729999994,391.53857400000015,154.61523400000078,99.74365200000011,90.64111300000059,98.7177729999994,86.2822270000006,51.153809000000365,133.46142599999985,101.41015599999992,544.1025390000004,20.25634799999989
146,81.9228520000006,1672.94873,67.30761700000039,387.17968800000017,150.89746099999957,99.35888699999941,95.89746099999957,104.74365200000011,95.0,56.2822270000006,140.38476599999922,100.89746099999957,541.794922,23.333496000000196
147,81.9228520000006,1646.1538090000004,68.7177729999994,385.51269500000035,148.58984400000008,99.74365200000011,98.9741210000002,106.6665039999998,100.64111300000059,57.43603499999972,147.17968800000017,100.0,538.5898440000001,25.0
148,79.87158199999976,1618.7177729999994,68.20507799999996,383.9741210000002,146.79492200000004,100.25634799999989,99.74365200000011,103.84619099999964,99.87158199999976,55.25634799999989,149.23095699999976,99.74365200000011,533.5898440000001,24.48730499999965
149,78.20507799999996,1592.3076170000004,67.30761700000039,381.6665039999998,145.12841800000024,100.76904300000024,99.74365200000011,99.87158199999976,95.51269500000035,53.46142599999985,146.9228520000006,101.2822270000006,527.4360349999997,24.102539000000434
150,79.74365200000011,1567.5639650000003,66.79492200000004,379.23095699999976,144.3588869999994,101.2822270000006,100.12841800000024,98.3334960000002,92.82031300000017,54.35888699999941,144.10253900000043,104.61523400000078,521.794922,25.769043000000238
151,83.9741210000002,1543.3334960000002,66.0258789999998,377.3076170000004,145.38476599999922,101.41015599999992,99.87158199999976,100.51269500000035,95.0,56.9228520000006,144.10253900000043,108.58984400000008,516.4101559999999,28.589844000000085
152,87.17968800000017,1517.3076170000004,63.7177729999994,373.5898440000001,146.53857400000015,101.2822270000006,98.46142599999985,103.9741210000002,100.38476599999922,58.7177729999994,147.05126999999993,110.64111300000059,509.7436520000001,29.230956999999762
153,85.51269500000035,1488.7177729999994,59.35888699999941,365.0,144.23095699999976,101.0258789999998,96.15380900000036,105.76904300000024,105.12841800000024,57.82031300000017,149.61523400000078,108.7177729999994,500.76904300000024,25.769043000000238
154,78.84619099999964,1458.7177729999994,54.35888699999941,351.2822270000006,136.53857400000015,100.51269500000035,94.10253900000043,104.74365200000011,105.51269500000035,55.38476599999922,149.10253900000043,103.58984400000008,490.6411130000006,19.871581999999762
155,71.0258789999998,1430.3847659999992,51.025878999999804,337.5639650000003,126.15380900000036,100.0,93.3334960000002,102.43603499999972,101.15380900000036,53.7177729999994,145.0,98.20507799999996,481.53857400000015,15.256347999999889
156,67.05126999999993,1405.5126950000003,51.2822270000006,329.6152340000008,119.10253900000043,99.87158199999976,94.23095699999976,100.64111300000059,95.0,54.102539000000434,139.48730499999965,96.15380900000036,474.87158199999976,14.615234000000783
157,68.7177729999994,1383.3334960000002,54.61523400000078,328.7177729999994,119.10253900000043,100.38476599999922,95.64111300000059,100.38476599999922,90.38476599999922,55.51269500000035,134.87158199999976,98.3334960000002,469.23095699999976,16.666503999999804
158,73.58984400000008,1360.8974609999996,57.94873000000007,330.3847659999992,124.61523400000078,100.89746099999957,95.76904300000024,100.76904300000024,88.3334960000002,55.76904300000024,132.17968800000017,102.30761700000039,461.79492200000004,17.82031300000017
159,77.56396500000028,1336.1538090000004,58.333496000000196,328.9741210000002,129.7436520000001,100.12841800000024,93.20507799999996,100.64111300000059,87.82031300000017,53.974121000000196,130.76904300000024,104.48730499999965,450.89746099999957,15.641113000000587
160,77.43603499999972,1310.0,56.2822270000006,322.4360349999997,129.23095699999976,98.3334960000002,89.48730499999965,99.48730499999965,87.43603499999972,51.410155999999915,130.2563479999999,103.20507799999996,438.5898440000001,11.282227000000603
161,73.46142599999985,1284.8715819999998,54.74365200000011,312.94873000000007,121.9228520000006,96.15380900000036,87.43603499999972,97.82031300000017,87.30761700000039,49.74365200000011,130.6411130000006,100.12841800000024,428.46142599999985,8.589844000000085
162,69.35888699999941,1262.94873,55.897460999999566,305.3847659999992,111.15380900000036,94.61523400000078,88.9741210000002,96.9228520000006,87.30761700000039,49.87158199999976,130.89746099999957,97.94873000000007,422.94873000000007,10.128418000000238
163,68.7177729999994,1243.7177729999994,58.7177729999994,302.94873000000007,102.94873000000007,94.48730499999965,92.56396500000028,97.56396500000028,86.9228520000006,51.025878999999804,130.12841800000024,98.46142599999985,421.2822270000006,15.512695000000349
164,72.82031300000017,1225.1284180000002,61.2822270000006,304.87158199999976,101.6665039999998,95.25634799999989,95.89746099999957,98.84619099999964,86.0258789999998,51.79492200000004,128.9741210000002,101.0258789999998,420.3847659999992,21.794922000000042
165,79.23095699999976,1205.6411130000006,62.56396500000028,306.9228520000006,107.56396500000028,96.0258789999998,97.05126999999993,99.61523400000078,85.12841800000024,51.79492200000004,129.23095699999976,104.10253900000043,416.79492200000004,25.641113000000587
166,83.7177729999994,1185.1284180000002,62.94873000000007,304.87158199999976,115.76904300000024,96.15380900000036,96.0258789999998,99.23095699999976,85.25634799999989,51.53857400000015,132.05126999999993,106.15380900000036,409.7436520000001,25.769043000000238
167,83.20507799999996,1164.3588869999994,62.82031300000017,297.4360349999997,120.64111300000059,95.76904300000024,94.48730499999965,98.7177729999994,87.17968800000017,52.30761700000039,135.89746099999957,106.15380900000036,400.89746099999957,23.589844000000085
168,78.7177729999994,1144.4873049999997,61.9228520000006,286.79492200000004,120.0,96.41015599999992,94.48730499999965,100.0,91.15380900000036,55.51269500000035,138.58984400000008,104.48730499999965,393.46142599999985,22.69238299999961
169,74.48730499999965,1126.794922,59.74365200000011,276.79492200000004,116.41015599999992,99.87158199999976,96.6665039999998,104.35888699999941,97.30761700000039,61.79492200000004,140.2563479999999,102.69238299999961,389.87158199999976,25.384765999999217
170,75.38476599999922,1111.794922,56.79492200000004,270.2563479999999,114.61523400000078,105.64111300000059,100.12841800000024,110.76904300000024,105.25634799999989,70.76904300000024,143.58984400000008,102.94873000000007,390.3847659999992,31.410155999999915
171,82.56396500000028,1098.4614259999998,53.974121000000196,267.05126999999993,116.0258789999998,111.2822270000006,103.20507799999996,116.53857400000015,112.82031300000017,80.0,150.38476599999922,105.64111300000059,393.0771479999994,38.20507799999996
172,92.30761700000039,1084.3588869999994,51.79492200000004,265.2563479999999,118.58984400000008,113.58984400000008,104.61523400000078,119.35888699999941,117.56396500000028,86.53857400000015,158.58984400000008,109.35888699999941,394.87158199999976,43.0771479999994
173,99.61523400000078,1067.6923829999996,50.76904300000024,263.3334960000002,119.74365200000011,111.41015599999992,104.10253900000043,119.10253900000043,117.82031300000017,87.82031300000017,163.84619099999964,112.05126999999993,393.3334960000002,45.12841800000024
174,101.15380900000036,1049.3588869999994,51.9228520000006,260.89746099999957,119.48730499999965,106.6665039999998,102.17968800000017,117.30761700000039,114.61523400000078,83.7177729999994,163.46142599999985,112.56396500000028,387.82031300000017,44.61523400000078
175,97.43603499999972,1031.1538090000004,55.0,258.7177729999994,119.48730499999965,102.30761700000039,100.25634799999989,115.89746099999957,110.12841800000024,76.9228520000006,157.94873000000007,111.0258789999998,378.84619099999964,43.46142599999985
176,91.79492200000004,1013.3334960000002,58.20507799999996,256.79492200000004,119.74365200000011,100.76904300000024,99.35888699999941,114.87158199999976,106.9228520000006,71.0258789999998,150.89746099999957,107.94873000000007,368.3334960000002,42.43603499999972
177,87.17968800000017,995.1284180000002,59.23095699999976,253.9741210000002,118.58984400000008,101.9228520000006,99.61523400000078,113.58984400000008,105.51269500000035,68.0771479999994,146.15380900000036,104.61523400000078,357.82031300000017,41.025878999999804
178,84.35888699999941,975.0,56.9228520000006,249.10253900000043,115.12841800000024,103.7177729999994,99.87158199999976,110.89746099999957,105.12841800000024,68.58984400000008,145.12841800000024,102.69238299999961,348.7177729999994,37.94873000000007
179,82.05126999999993,952.9487300000001,52.43603499999972,241.9228520000006,110.12841800000024,104.35888699999941,99.87158199999976,107.43603499999972,104.35888699999941,70.64111300000059,146.6665039999998,103.46142599999985,341.2822270000006,33.20507799999996
180,78.9741210000002,930.7690430000002,48.589844000000085,233.7177729999994,105.76904300000024,103.7177729999994,100.25634799999989,104.61523400000078,103.0771479999994,72.69238299999961,148.20507799999996,106.15380900000036,335.0,28.333496000000196
181,75.51269500000035,910.2563479999999,47.43603499999972,225.89746099999957,103.46142599999985,102.69238299999961,101.2822270000006,103.84619099999964,101.79492200000004,73.46142599999985,147.6923829999996,109.61523400000078,328.9741210000002,25.25634799999989
182,72.94873000000007,892.4360349999997,48.846190999999635,218.84619099999964,102.82031300000017,102.30761700000039,101.9228520000006,104.48730499999965,100.89746099999957,72.94873000000007,144.48730499999965,111.53857400000015,322.4360349999997,24.615234000000783
183,71.9228520000006,876.2822270000006,50.51269500000035,212.56396500000028,102.69238299999961,102.43603499999972,101.15380900000036,104.48730499999965,100.12841800000024,71.6665039999998,139.48730499999965,110.51269500000035,315.12841800000024,25.384765999999217
184,71.15380900000036,859.6152340000008,50.897460999999566,206.2822270000006,102.05126999999993,102.17968800000017,98.9741210000002,102.05126999999993,98.7177729999994,69.74365200000011,134.7436520000001,106.79492200000004,307.3076170000004,25.25634799999989
185,70.12841800000024,840.8974609999996,50.12841800000024,200.51269500000035,100.12841800000024,101.0258789999998,96.79492200000004,97.94873000000007,96.53857400000015,67.94873000000007,131.79492200000004,102.05126999999993,300.76904300000024,23.461425999999847
186,69.10253900000043,821.2822270000006,49.87158199999976,196.9228520000006,97.43603499999972,99.61523400000078,96.15380900000036,95.12841800000024,94.61523400000078,66.6665039999998,131.15380900000036,98.9741210000002,297.17968800000017,21.153809000000365
187,69.48730499999965,803.5898440000001,51.153809000000365,196.41015599999992,95.64111300000059,99.35888699999941,97.82031300000017,96.2822270000006,94.48730499999965,66.79492200000004,132.17968800000017,98.58984400000008,296.9228520000006,20.51269500000035
188,71.15380900000036,789.4873049999997,54.23095699999976,197.6923829999996,96.6665039999998,100.64111300000059,101.0258789999998,101.41015599999992,96.9228520000006,68.3334960000002,134.23095699999976,100.38476599999922,297.5639650000003,22.17968800000017
189,72.82031300000017,777.1796880000002,57.56396500000028,197.94873000000007,100.38476599999922,102.17968800000017,103.84619099999964,107.30761700000039,100.64111300000059,69.87158199999976,135.89746099999957,102.94873000000007,295.2563479999999,24.74365200000011
190,73.0771479999994,762.5639650000003,59.102539000000434,195.89746099999957,104.35888699999941,102.69238299999961,104.48730499999965,109.74365200000011,102.69238299999961,69.74365200000011,135.51269500000035,104.35888699999941,287.4360349999997,26.153809000000365
191,71.79492200000004,742.9487300000001,58.333496000000196,192.6923829999996,105.0,101.2822270000006,102.69238299999961,107.17968800000017,100.76904300000024,67.05126999999993,132.82031300000017,104.10253900000043,275.2563479999999,25.641113000000587
192,69.87158199999976,720.1284180000002,56.025878999999804,190.76904300000024,101.79492200000004,99.10253900000043,99.74365200000011,101.53857400000015,95.51269500000035,62.82031300000017,129.3588869999994,102.94873000000007,263.84619099999964,23.974121000000196
193,68.7177729999994,698.8461909999996,53.46142599999985,191.15380900000036,96.53857400000015,97.82031300000017,97.43603499999972,96.9228520000006,89.23095699999976,58.846190999999635,127.82031300000017,102.05126999999993,257.05126999999993,22.17968800000017
194,68.7177729999994,683.3334960000002,51.666503999999804,192.43603499999972,92.43603499999972,98.46142599999985,96.79492200000004,95.64111300000059,84.48730499999965,56.53857400000015,128.46142599999985,101.6665039999998,255.51269500000035,20.641113000000587
195,69.48730499999965,674.6152340000008,50.64111300000059,191.53857400000015,90.76904300000024,100.38476599999922,97.30761700000039,97.43603499999972,83.0771479999994,55.897460999999566,130.12841800000024,100.89746099999957,255.89746099999957,19.74365200000011
196,71.0258789999998,669.8715819999998,50.12841800000024,186.6665039999998,91.9228520000006,102.43603499999972,98.46142599999985,100.12841800000024,85.89746099999957,57.05126999999993,130.89746099999957,99.87158199999976,254.87158199999976,20.0
197,74.48730499999965,664.6152340000008,50.51269500000035,178.0771479999994,95.64111300000059,103.20507799999996,99.61523400000078,102.43603499999972,92.05126999999993,59.87158199999976,131.6665039999998,100.12841800000024,251.0258789999998,22.69238299999961
198,80.12841800000024,655.0,52.17968800000017,168.58984400000008,101.2822270000006,103.0771479999994,101.41015599999992,104.35888699999941,98.58984400000008,63.846190999999635,134.23095699999976,102.94873000000007,245.89746099999957,28.461425999999847
199,86.0258789999998,639.6152340000008,54.87158199999976,162.05126999999993,106.79492200000004,102.56396500000028,103.46142599999985,105.64111300000059,102.30761700000039,67.94873000000007,138.3334960000002,107.05126999999993,241.53857400000015,35.38476599999922
200,88.84619099999964,620.1284180000002,57.05126999999993,159.7436520000001,109.10253900000043,102.43603499999972,104.23095699999976,105.38476599999922,100.89746099999957,70.25634799999989,141.0258789999998,109.87158199999976,238.0771479999994,39.48730499999965
201,86.41015599999992,599.3588869999994,57.17968800000017,159.3588869999994,106.0258789999998,102.94873000000007,102.56396500000028,102.30761700000039,94.61523400000078,68.9741210000002,139.10253900000043,109.35888699999941,233.9741210000002,37.43603499999972
202,78.46142599999985,579.6152340000008,54.23095699999976,156.53857400000015,98.0771479999994,103.20507799999996,98.58984400000008,96.53857400000015,85.64111300000059,62.82031300000017,131.79492200000004,105.76904300000024,227.05126999999993,28.846190999999635
203,68.58984400000008,561.1538090000004,49.74365200000011,148.9741210000002,88.58984400000008,102.17968800000017,94.61523400000078,89.61523400000078,77.94873000000007,53.46142599999985,121.9228520000006,101.6665039999998,217.3076170000004,17.82031300000017
204,62.05126999999993,544.3588869999994,47.05126999999993,139.23095699999976,82.43603499999972,100.64111300000059,92.94873000000007,85.51269500000035,75.64111300000059,45.897460999999566,115.51269500000035,99.48730499999965,208.20507799999996,10.769043000000238
205,62.43603499999972,529.8715819999998,49.23095699999976,132.94873000000007,84.10253900000043,100.0,94.61523400000078,87.30761700000039,80.38476599999922,45.25634799999989,117.43603499999972,100.12841800000024,204.3588869999994,11.794922000000042
206,68.84619099999964,517.6923829999996,55.897460999999566,133.7177729999994,93.20507799999996,101.2822270000006,98.0771479999994,94.61523400000078,90.0,52.69238299999961,126.41015599999992,102.56396500000028,206.9228520000006,19.74365200000011
207,75.76904300000024,506.15380900000036,63.333496000000196,139.23095699999976,103.84619099999964,103.0771479999994,101.0258789999998,102.56396500000028,99.23095699999976,62.94873000000007,135.51269500000035,104.61523400000078,211.41015599999992,28.589844000000085
208,77.69238299999961,493.0771479999994,66.9228520000006,142.6923829999996,108.84619099999964,103.0771479999994,101.6665039999998,106.0258789999998,102.82031300000017,68.58984400000008,137.56396500000028,104.74365200000011,211.9228520000006,32.17968800000017
209,74.10253900000043,478.9741210000002,64.87158199999976,139.48730499999965,104.48730499999965,100.89746099999957,100.12841800000024,103.58984400000008,100.25634799999989,66.2822270000006,131.0258789999998,103.20507799999996,206.15380900000036,29.615234000000783
210,69.87158199999976,466.6665039999998,59.87158199999976,130.2563479999999,94.74365200000011,98.0771479999994,98.0771479999994,99.23095699999976,95.25634799999989,60.12841800000024,121.41015599999992,101.6665039999998,197.82031300000017,25.25634799999989
211,70.12841800000024,458.84619099999964,57.05126999999993,119.87158199999976,87.69238299999961,97.17968800000017,97.82031300000017,98.20507799999996,92.94873000000007,57.05126999999993,116.2822270000006,101.6665039999998,192.82031300000017,25.25634799999989
212,76.0258789999998,454.6152340000008,59.61523400000078,113.3334960000002,89.10253900000043,99.10253900000043,99.87158199999976,102.43603499999972,95.64111300000059,60.76904300000024,119.48730499999965,103.46142599999985,193.3334960000002,31.410155999999915
213,84.23095699999976,450.3847659999992,66.6665039999998,112.43603499999972,97.43603499999972,102.82031300000017,103.3334960000002,109.23095699999976,101.2822270000006,68.7177729999994,128.20507799999996,105.64111300000059,196.15380900000036,39.61523400000078
214,89.74365200000011,442.3076170000004,73.20507799999996,114.61523400000078,104.87158199999976,105.64111300000059,105.89746099999957,113.84619099999964,105.76904300000024,74.87158199999976,136.15380900000036,106.6665039999998,195.51269500000035,43.7177729999994
215,89.10253900000043,428.3334960000002,74.23095699999976,115.51269500000035,104.35888699999941,105.25634799999989,105.76904300000024,112.43603499999972,106.15380900000036,74.87158199999976,137.94873000000007,106.41015599999992,188.20507799999996,40.0
216,82.43603499999972,409.23095699999976,68.84619099999964,113.0771479999994,95.25634799999989,102.17968800000017,102.56396500000028,105.89746099999957,102.43603499999972,68.9741210000002,132.17968800000017,105.51269500000035,176.0258789999998,30.51269500000035
217,73.3334960000002,388.5898440000001,60.64111300000059,108.46142599999985,84.61523400000078,99.10253900000043,97.82031300000017,98.46142599999985,97.05126999999993,61.666503999999804,122.17968800000017,104.23095699999976,164.10253900000043,21.025878999999804
218,67.17968800000017,371.15380900000036,55.25634799999989,106.0258789999998,80.25634799999989,98.3334960000002,94.48730499999965,95.0,93.84619099999964,58.846190999999635,113.46142599999985,102.17968800000017,157.6923829999996,17.69238299999961
219,67.30761700000039,360.0,56.410155999999915,108.46142599999985,85.25634799999989,99.74365200000011,94.23095699999976,97.30761700000039,95.0,62.82031300000017,110.76904300000024,100.0,158.46142599999985,22.69238299999961
220,73.0771479999994,354.3588869999994,63.333496000000196,113.7177729999994,95.64111300000059,101.0258789999998,97.43603499999972,103.7177729999994,99.61523400000078,70.38476599999922,115.25634799999989,99.35888699999941,163.20507799999996,33.0771479999994
221,80.51269500000035,349.87158199999976,71.2822270000006,116.53857400000015,104.23095699999976,100.25634799999989,102.17968800000017,110.64111300000059,104.74365200000011,75.76904300000024,123.9741210000002,101.9228520000006,166.9228520000006,42.17968800000017
222,85.89746099999957,341.9228520000006,75.12841800000024,113.84619099999964,106.15380900000036,97.43603499999972,105.89746099999957,114.61523400000078,108.0771479999994,75.38476599999922,131.41015599999992,106.79492200000004,166.15380900000036,45.12841800000024
223,88.0771479999994,330.0,73.58984400000008,107.43603499999972,101.9228520000006,94.87158199999976,106.79492200000004,115.12841800000024,109.48730499999965,71.15380900000036,134.10253900000043,111.2822270000006,161.6665039999998,42.05126999999993
224,89.35888699999941,317.6923829999996,69.23095699999976,101.53857400000015,96.41015599999992,94.10253900000043,104.87158199999976,113.84619099999964,111.15380900000036,68.7177729999994,132.43603499999972,112.94873000000007,157.82031300000017,37.69238299999961
225,92.17968800000017,309.3588869999994,66.9228520000006,99.35888699999941,95.0,95.64111300000059,102.30761700000039,113.7177729999994,114.74365200000011,72.30761700000039,130.0,111.79492200000004,157.82031300000017,37.69238299999961
226,96.6665039999998,305.3847659999992,68.0771479999994,99.61523400000078,98.84619099999964,97.56396500000028,101.6665039999998,116.0258789999998,119.35888699999941,80.89746099999957,129.7436520000001,109.87158199999976,161.41015599999992,43.589844000000085
227,99.87158199999976,302.17968800000017,71.15380900000036,99.10253900000043,104.23095699999976,97.69238299999961,103.7177729999994,119.48730499999965,122.82031300000017,88.58984400000008,132.05126999999993,109.23095699999976,164.87158199999976,51.410155999999915
228,98.58984400000008,294.6152340000008,72.17968800000017,95.38476599999922,106.0258789999998,95.38476599999922,106.15380900000036,120.89746099999957,122.56396500000028,90.0,134.61523400000078,110.12841800000024,163.0771479999994,55.51269500000035
229,91.79492200000004,280.0,68.84619099999964,88.7177729999994,101.79492200000004,91.9228520000006,106.0258789999998,117.82031300000017,118.20507799999996,83.3334960000002,134.23095699999976,110.89746099999957,154.48730499999965,52.30761700000039
230,81.9228520000006,260.2563479999999,61.9228520000006,81.9228520000006,93.20507799999996,88.7177729999994,101.6665039999998,110.12841800000024,110.25634799999989,71.79492200000004,129.3588869999994,109.35888699999941,141.6665039999998,43.20507799999996
231,72.69238299999961,240.6411130000006,54.87158199999976,77.82031300000017,84.74365200000011,86.41015599999992,95.25634799999989,100.51269500000035,101.41015599999992,60.76904300000024,121.0258789999998,105.25634799999989,130.12841800000024,33.333496000000196
232,67.69238299999961,227.17968800000017,51.666503999999804,77.69238299999961,80.64111300000059,84.74365200000011,90.38476599999922,93.3334960000002,94.61523400000078,55.38476599999922,113.20507799999996,100.25634799999989,124.74365200000011,28.589844000000085
233,68.0771479999994,221.6665039999998,53.974121000000196,81.41015599999992,82.05126999999993,84.74365200000011,90.25634799999989,92.05126999999993,92.56396500000028,57.56396500000028,110.12841800000024,97.30761700000039,126.2822270000006,31.153809000000365
234,71.2822270000006,220.51269500000035,59.102539000000434,86.2822270000006,86.9228520000006,86.79492200000004,94.23095699999976,96.41015599999992,95.51269500000035,64.61523400000078,112.82031300000017,97.82031300000017,131.2822270000006,37.94873000000007
235,73.46142599999985,217.17968800000017,62.82031300000017,87.17968800000017,90.64111300000059,89.87158199999976,99.23095699999976,102.43603499999972,100.0,70.12841800000024,117.30761700000039,100.38476599999922,133.58984400000008,42.69238299999961
236,72.05126999999993,206.9228520000006,61.9228520000006,81.2822270000006,90.0,92.17968800000017,101.2822270000006,104.87158199999976,101.2822270000006,68.3334960000002,118.20507799999996,102.05126999999993,128.9741210000002,40.38476599999922
237,68.3334960000002,190.6411130000006,57.30761700000039,70.51269500000035,85.12841800000024,93.0771479999994,99.87158199999976,102.17968800000017,97.17968800000017,59.61523400000078,113.7177729999994,101.0258789999998,118.9741210000002,31.794922000000042
238,66.0258789999998,174.3588869999994,53.589844000000085,61.666503999999804,79.61523400000078,92.56396500000028,97.43603499999972,97.43603499999972,90.76904300000024,50.51269500000035,108.0771479999994,98.46142599999985,110.0,23.205077999999958
239,68.0771479999994,164.48730499999965,55.0,60.38476599999922,78.0771479999994,91.6665039999998,97.43603499999972,95.76904300000024,87.82031300000017,48.846190999999635,107.82031300000017,97.56396500000028,108.3334960000002,21.794922000000042
240,74.10253900000043,162.56396500000028,62.17968800000017,67.56396500000028,83.0771479999994,91.2822270000006,100.89746099999957,100.51269500000035,92.17968800000017,57.17968800000017,116.2822270000006,100.25634799999989,114.61523400000078,30.0
241,81.6665039999998,164.87158199999976,70.76904300000024,77.69238299999961,92.94873000000007,91.15380900000036,105.64111300000059,109.48730499999965,102.30761700000039,71.79492200000004,129.7436520000001,105.0,124.48730499999965,43.46142599999985
242,87.69238299999961,165.12841800000024,75.25634799999989,83.58984400000008,103.20507799999996,91.0258789999998,108.3334960000002,117.43603499999972,112.69238299999961,84.23095699999976,139.7436520000001,108.20507799999996,130.76904300000024,54.61523400000078
243,90.12841800000024,158.84619099999964,72.17968800000017,81.53857400000015,108.46142599999985,90.64111300000059,107.05126999999993,119.10253900000043,116.9228520000006,88.3334960000002,139.48730499999965,107.17968800000017,129.61523400000078,57.56396500000028
244,88.20507799999996,146.0258789999998,62.94873000000007,72.94873000000007,106.15380900000036,90.64111300000059,102.69238299999961,113.20507799999996,112.69238299999961,82.69238299999961,128.3334960000002,103.0771479999994,122.30761700000039,51.410155999999915
245,83.58984400000008,131.15380900000036,52.82031300000017,64.23095699999976,97.69238299999961,91.79492200000004,98.46142599999985,103.9741210000002,103.7177729999994,72.56396500000028,112.56396500000028,99.74365200000011,113.7177729999994,40.76904300000024
246,79.87158199999976,120.12841800000024,48.0771479999994,62.30761700000039,88.20507799999996,94.74365200000011,96.9228520000006,97.69238299999961,96.41015599999992,64.87158199999976,101.53857400000015,99.74365200000011,108.84619099999964,33.333496000000196
247,80.0,115.64111300000059,50.64111300000059,68.46142599999985,82.43603499999972,98.58984400000008,97.94873000000007,97.82031300000017,94.87158199999976,63.7177729999994,101.79492200000004,102.43603499999972,109.48730499999965,33.7177729999994
248,84.35888699999941,114.87158199999976,57.82031300000017,77.05126999999993,81.79492200000004,101.0258789999998,99.23095699999976,102.43603499999972,98.3334960000002,67.56396500000028,112.05126999999993,104.61523400000078,113.3334960000002,40.897460999999566
249,90.51269500000035,111.9228520000006,64.35888699999941,80.38476599999922,84.35888699999941,101.0258789999998,99.23095699999976,105.64111300000059,101.9228520000006,71.6665039999998,124.35888699999941,103.9741210000002,115.89746099999957,49.102539000000434
250,95.64111300000059,103.9741210000002,67.43603499999972,76.2822270000006,87.43603499999972,99.74365200000011,98.20507799999996,104.35888699999941,102.69238299999961,73.0771479999994,131.15380900000036,101.6665039999998,115.25634799999989,53.589844000000085
251,98.84619099999964,93.7177729999994,67.94873000000007,69.61523400000078,91.0258789999998,99.48730499999965,98.0771479999994,100.76904300000024,101.9228520000006,73.20507799999996,131.15380900000036,100.38476599999922,113.0771479999994,54.61523400000078
252,101.2822270000006,87.05126999999993,69.35888699999941,67.30761700000039,96.53857400000015,101.6665039999998,100.0,100.12841800000024,103.58984400000008,75.76904300000024,129.3588869999994,102.69238299999961,112.94873000000007,55.64111300000059
253,104.10253900000043,86.6665039999998,73.0771479999994,72.43603499999972,104.23095699999976,105.89746099999957,103.3334960000002,105.51269500000035,109.48730499999965,81.9228520000006,130.0,107.69238299999961,116.2822270000006,59.102539000000434
254,106.6665039999998,89.61523400000078,77.82031300000017,80.64111300000059,111.53857400000015,109.23095699999976,105.89746099999957,114.23095699999976,116.53857400000015,88.3334960000002,132.6923829999996,112.17968800000017,120.76904300000024,63.974121000000196
255,107.56396500000028,89.10253900000043,80.0,84.48730499999965,114.74365200000011,109.23095699999976,105.38476599999922,119.87158199999976,119.61523400000078,89.87158199999976,132.82031300000017,112.56396500000028,121.15380900000036,66.2822270000006
256,105.51269500000035,80.25634799999989,77.82031300000017,79.61523400000078,111.6665039999998,105.51269500000035,101.9228520000006,117.56396500000028,115.51269500000035,83.9741210000002,127.94873000000007,108.0771479999994,115.12841800000024,63.20507799999996
257,101.9228520000006,64.48730499999965,72.82031300000017,68.46142599999985,103.84619099999964,100.64111300000059,97.94873000000007,108.46142599999985,106.6665039999998,73.84619099999964,120.0,102.05126999999993,105.0,56.2822270000006
258,98.7177729999994,48.333496000000196,68.20507799999996,57.94873000000007,96.15380900000036,97.43603499999972,96.53857400000015,98.3334960000002,98.46142599999985,66.0258789999998,113.46142599999985,98.3334960000002,95.76904300000024,49.74365200000011
259,98.0771479999994,38.0771479999994,66.6665039999998,53.589844000000085,93.84619099999964,97.30761700000039,98.0771479999994,93.3334960000002,95.76904300000024,64.87158199999976,111.15380900000036,98.46142599999985,91.53857400000015,47.56396500000028
260,100.25634799999989,35.76904300000024,68.58984400000008,56.666503999999804,98.84619099999964,99.48730499999965,101.15380900000036,95.25634799999989,98.7177729999994,69.74365200000011,112.82031300000017,101.15380900000036,92.82031300000017,49.87158199999976
261,103.0771479999994,37.05126999999993,71.41015599999992,64.74365200000011,107.05126999999993,102.17968800000017,103.46142599999985,101.0258789999998,103.58984400000008,75.76904300000024,115.51269500000035,103.3334960000002,96.15380900000036,53.846190999999635
262,103.46142599999985,35.25634799999989,71.9228520000006,72.94873000000007,111.41015599999992,103.7177729999994,103.7177729999994,105.38476599999922,105.25634799999989,76.9228520000006,115.38476599999922,103.3334960000002,96.15380900000036,55.12841800000024
263,99.61523400000078,25.51269500000035,68.3334960000002,76.6665039999998,107.56396500000028,103.3334960000002,102.30761700000039,104.48730499999965,101.15380900000036,70.64111300000059,110.64111300000059,101.0258789999998,89.48730499999965,51.2822270000006
264,92.43603499999972,9.358886999999413,61.9228520000006,73.9741210000002,97.05126999999993,101.6665039999998,100.64111300000059,98.9741210000002,92.94873000000007,60.12841800000024,102.30761700000039,98.0771479999994,77.82031300000017,43.46142599999985
265,86.15380900000036,-6.666747999999643,56.410155999999915,67.05126999999993,86.41015599999992,100.25634799999989,99.87158199999976,93.58984400000008,85.25634799999989,52.17968800000017,94.35888699999941,96.9228520000006,66.53857400000015,36.2822270000006
266,85.0,-15.769286999999622,55.25634799999989,59.48730499999965,82.69238299999961,100.12841800000024,100.89746099999957,92.69238299999961,82.30761700000039,52.05126999999993,90.25634799999989,98.0771479999994,60.76904300000024,33.333496000000196
267,89.74365200000011,-15.769286999999622,58.846190999999635,54.35888699999941,87.94873000000007,101.41015599999992,102.82031300000017,97.17968800000017,84.87158199999976,58.589844000000085,90.76904300000024,100.25634799999989,61.666503999999804,34.61523400000078
268,97.05126999999993,-10.897461000000021,64.35888699999941,51.9228520000006,97.94873000000007,102.56396500000028,104.23095699999976,104.35888699999941,91.0258789999998,66.41015599999992,94.10253900000043,101.0258789999998,66.0258789999998,37.43603499999972
269,102.82031300000017,-7.435790999999426,68.7177729999994,51.410155999999915,105.76904300000024,103.20507799999996,104.61523400000078,111.53857400000015,97.94873000000007,70.76904300000024,98.3334960000002,99.48730499999965,70.12841800000024,39.61523400000078
270,104.61523400000078,-9.743652000000111,70.64111300000059,50.897460999999566,107.05126999999993,103.58984400000008,104.10253900000043,116.6665039999998,103.7177729999994,71.41015599999992,101.79492200000004,97.56396500000028,72.30761700000039,40.897460999999566
271,103.46142599999985,-18.974365000000034,70.89746099999957,47.94873000000007,101.9228520000006,103.9741210000002,103.58984400000008,118.58984400000008,106.9228520000006,71.15380900000036,102.69238299999961,97.56396500000028,72.05126999999993,41.53857400000015
272,101.15380900000036,-32.564209000000574,70.76904300000024,41.025878999999804,93.9741210000002,104.35888699999941,103.3334960000002,117.05126999999993,106.9228520000006,72.56396500000028,100.0,100.38476599999922,69.74365200000011,40.64111300000059
273,99.23095699999976,-46.79492200000004,71.15380900000036,32.30761700000039,87.82031300000017,104.87158199999976,103.3334960000002,112.94873000000007,104.23095699999976,76.0258789999998,94.61523400000078,104.10253900000043,65.89746099999957,37.82031300000017
274,98.0771479999994,-58.20507799999996,71.2822270000006,25.641113000000587,85.64111300000059,105.25634799999989,103.20507799999996,108.20507799999996,101.0258789999998,79.35888699999941,89.87158199999976,105.51269500000035,61.410155999999915,33.7177729999994
275,96.53857400000015,-65.89746100000002,69.61523400000078,23.589844000000085,86.0258789999998,105.12841800000024,102.82031300000017,103.9741210000002,98.84619099999964,79.48730499999965,88.3334960000002,102.94873000000007,57.05126999999993,30.25634799999989
276,93.58984400000008,-72.05127000000039,65.25634799999989,24.615234000000783,85.38476599999922,103.46142599999985,101.6665039999998,100.12841800000024,97.69238299999961,75.12841800000024,89.87158199999976,97.05126999999993,52.94873000000007,28.077147999999397
277,90.12841800000024,-78.07690400000001,59.48730499999965,25.641113000000587,82.43603499999972,100.38476599999922,100.0,96.9228520000006,97.05126999999993,68.58984400000008,93.0771479999994,91.0258789999998,50.0,28.333496000000196
278,88.9741210000002,-82.94872999999961,55.64111300000059,25.384765999999217,80.38476599999922,97.82031300000017,98.9741210000002,96.0258789999998,97.69238299999961,65.38476599999922,97.43603499999972,88.9741210000002,50.0,31.410155999999915
279,92.43603499999972,-84.61547900000005,55.897460999999566,24.871581999999762,83.20507799999996,98.3334960000002,99.23095699999976,99.10253900000043,100.76904300000024,69.35888699999941,103.46142599999985,92.82031300000017,54.87158199999976,37.43603499999972
280,99.23095699999976,-83.58984399999963,59.35888699999941,25.384765999999217,90.64111300000059,102.17968800000017,100.89746099999957,105.12841800000024,105.25634799999989,78.9741210000002,110.51269500000035,100.38476599999922,62.82031300000017,43.46142599999985
281,104.48730499999965,-84.61547900000005,62.17968800000017,25.769043000000238,96.9228520000006,107.05126999999993,102.43603499999972,110.12841800000024,107.56396500000028,87.43603499999972,115.38476599999922,106.41015599999992,69.23095699999976,45.64111300000059
282,103.58984400000008,-91.92309599999999,61.153809000000365,24.230956999999762,96.9228520000006,110.76904300000024,102.69238299999961,110.25634799999989,104.61523400000078,88.20507799999996,113.58984400000008,106.6665039999998,69.61523400000078,42.17968800000017
283,96.15380900000036,-105.38452099999995,56.53857400000015,20.128418000000238,89.87158199999976,112.43603499999972,101.9228520000006,105.12841800000024,97.30761700000039,80.76904300000024,105.25634799999989,101.6665039999998,64.10253900000043,35.51269500000035
284,86.79492200000004,-119.48706099999981,51.79492200000004,15.256347999999889,80.25634799999989,112.82031300000017,101.53857400000015,98.3334960000002,91.0258789999998,70.89746099999957,95.38476599999922,96.2822270000006,56.666503999999804,30.25634799999989
285,81.15380900000036,-128.46142599999985,50.38476599999922,11.282227000000603,74.48730499999965,112.56396500000028,102.69238299999961,94.87158199999976,90.25634799999989,65.64111300000059,90.64111300000059,94.87158199999976,51.79492200000004,29.74365200000011
286,81.53857400000015,-130.89746100000002,52.69238299999961,9.615234000000783,76.15380900000036,111.6665039999998,105.12841800000024,96.9228520000006,95.12841800000024,67.82031300000017,93.3334960000002,97.94873000000007,50.64111300000059,32.82031300000017
287,85.64111300000059,-130.76928699999962,56.153809000000365,10.128418000000238,84.23095699999976,110.12841800000024,107.30761700000039,102.05126999999993,101.41015599999992,74.35888699999941,100.25634799999989,101.9228520000006,51.153809000000365,35.51269500000035
288,88.9741210000002,-133.20507799999996,57.56396500000028,11.794922000000042,92.69238299999961,107.82031300000017,107.56396500000028,106.2822270000006,104.48730499999965,79.35888699999941,105.12841800000024,102.69238299999961,51.025878999999804,33.7177729999994
289,88.46142599999985,-140.64111300000013,55.64111300000059,13.205077999999958,95.38476599999922,104.48730499999965,105.76904300000024,106.6665039999998,102.05126999999993,79.23095699999976,103.3334960000002,98.9741210000002,48.974121000000196,27.56396500000028
290,84.10253900000043,-151.28198199999997,52.94873000000007,13.461425999999847,89.87158199999976,100.76904300000024,103.20507799999996,103.58984400000008,96.0258789999998,74.23095699999976,95.76904300000024,93.46142599999985,45.12841800000024,21.025878999999804
291,79.23095699999976,-160.64111300000013,52.43603499999972,12.43603499999972,79.74365200000011,97.82031300000017,102.05126999999993,99.23095699999976,90.38476599999922,67.56396500000028,87.43603499999972,90.25634799999989,40.0,17.69238299999961
292,77.17968800000017,-165.76928699999962,55.897460999999566,11.153809000000365,71.9228520000006,97.05126999999993,103.0771479999994,96.9228520000006,89.35888699999941,63.333496000000196,85.0,91.6665039999998,35.25634799999989,19.358886999999413
293,79.87158199999976,-165.5129390000002,61.666503999999804,10.384765999999217,72.56396500000028,99.48730499999965,106.15380900000036,99.61523400000078,94.10253900000043,64.74365200000011,91.2822270000006,96.79492200000004,33.46142599999985,25.25634799999989
294,87.05126999999993,-160.89746100000002,66.9228520000006,11.666503999999804,82.94873000000007,104.87158199999976,110.38476599999922,107.82031300000017,102.69238299999961,72.43603499999972,103.58984400000008,102.69238299999961,36.53857400000015,33.20507799999996
295,96.0258789999998,-154.7436520000001,69.87158199999976,15.641113000000587,97.69238299999961,111.2822270000006,114.61523400000078,118.9741210000002,111.6665039999998,83.7177729999994,115.25634799999989,106.41015599999992,43.846190999999635,40.51269500000035
296,103.58984400000008,-150.38452099999995,70.12841800000024,22.56396500000028,108.46142599999985,116.15380900000036,117.82031300000017,128.7177729999994,117.94873000000007,94.10253900000043,121.0258789999998,106.79492200000004,51.9228520000006,45.0
297,106.6665039999998,-150.76928699999962,69.10253900000043,30.51269500000035,109.23095699999976,117.17968800000017,119.23095699999976,132.94873000000007,120.51269500000035,99.48730499999965,120.64111300000059,104.61523400000078,56.9228520000006,45.76904300000024
298,105.0,-156.923096,68.3334960000002,36.79492200000004,101.0258789999998,114.10253900000043,118.20507799999996,130.12841800000024,119.23095699999976,98.7177729999994,117.56396500000028,101.6665039999998,56.410155999999915,43.846190999999635
299,100.76904300000024,-166.923096,68.3334960000002,38.46142599999985,91.15380900000036,108.3334960000002,114.61523400000078,121.9228520000006,115.12841800000024,93.7177729999994,115.25634799999989,100.0,51.025878999999804,41.153809000000365
300,97.43603499999972,-177.820557,69.23095699999976,35.0,87.17968800000017,103.0771479999994,109.61523400000078,112.56396500000028,108.84619099999964,88.0771479999994,114.35888699999941,100.12841800000024,44.35888699999941,39.61523400000078
301,97.17968800000017,-186.66674799999964,70.64111300000059,29.74365200000011,91.79492200000004,101.2822270000006,105.12841800000024,106.9228520000006,103.0771479999994,85.0,114.35888699999941,101.79492200000004,41.2822270000006,40.51269500000035
302,99.48730499999965,-191.923096,72.43603499999972,27.94873000000007,99.61523400000078,104.10253900000043,103.46142599999985,107.05126999999993,100.25634799999989,85.0,115.12841800000024,103.7177729999994,44.61523400000078,43.846190999999635
303,102.17968800000017,-195.0,73.3334960000002,32.30761700000039,102.17968800000017,108.84619099999964,104.35888699999941,110.38476599999922,100.89746099999957,86.41015599999992,116.79492200000004,103.9741210000002,52.05126999999993,48.589844000000085
304,103.20507799999996,-198.58984399999963,72.94873000000007,40.51269500000035,95.76904300000024,111.41015599999992,105.64111300000059,111.79492200000004,102.94873000000007,87.05126999999993,119.74365200000011,101.9228520000006,57.94873000000007,52.43603499999972
305,103.0771479999994,-203.71801800000003,72.69238299999961,48.333496000000196,85.76904300000024,109.87158199999976,105.51269500000035,108.84619099999964,103.58984400000008,86.53857400000015,123.7177729999994,99.35888699999941,58.589844000000085,54.48730499999965
306,104.61523400000078,-207.56420900000057,76.2822270000006,53.589844000000085,82.17968800000017,105.64111300000059,104.48730499999965,103.7177729999994,102.56396500000028,87.05126999999993,127.94873000000007,99.48730499999965,55.51269500000035,56.53857400000015
307,109.10253900000043,-207.56420900000057,84.61523400000078,55.64111300000059,89.35888699999941,102.30761700000039,103.9741210000002,100.64111300000059,101.53857400000015,90.38476599999922,131.2822270000006,103.3334960000002,53.7177729999994,60.76904300000024
308,114.87158199999976,-204.35888699999987,92.94873000000007,54.74365200000011,101.0258789999998,101.79492200000004,104.35888699999941,101.15380900000036,101.2822270000006,95.51269500000035,131.79492200000004,109.23095699999976,55.76904300000024,66.15380900000036
309,118.20507799999996,-201.923096,93.3334960000002,51.025878999999804,106.6665039999998,103.46142599999985,105.76904300000024,103.3334960000002,101.79492200000004,99.61523400000078,129.48730499999965,113.3334960000002,60.12841800000024,69.61523400000078
310,117.43603499999972,-203.71801800000003,80.89746099999957,46.79492200000004,101.53857400000015,106.0258789999998,107.43603499999972,104.23095699999976,102.43603499999972,100.25634799999989,126.53857400000015,113.0771479999994,62.82031300000017,69.48730499999965
311,114.48730499999965,-209.35888699999987,58.333496000000196,44.61523400000078,90.64111300000059,109.35888699999941,109.10253900000043,103.46142599999985,103.7177729999994,98.20507799999996,126.53857400000015,108.9741210000002,61.666503999999804,66.53857400000015
312,112.69238299999961,-215.5129390000002,36.153809000000365,44.61523400000078,83.46142599999985,113.7177729999994,110.51269500000035,104.10253900000043,106.9228520000006,96.2822270000006,130.51269500000035,103.9741210000002,57.94873000000007,63.974121000000196
313,113.9741210000002,-219.35888699999987,25.769043000000238,44.102539000000434,86.53857400000015,118.3334960000002,111.15380900000036,108.58984400000008,111.15380900000036,97.43603499999972,136.15380900000036,101.6665039999998,55.25634799999989,63.7177729999994
314,117.30761700000039,-221.66674799999964,32.43603499999972,40.76904300000024,97.17968800000017,121.15380900000036,111.0258789999998,115.51269500000035,114.10253900000043,101.41015599999992,138.9741210000002,102.82031300000017,55.38476599999922,65.51269500000035
315,119.10253900000043,-225.89746100000002,51.53857400000015,33.7177729999994,105.89746099999957,119.87158199999976,109.23095699999976,119.61523400000078,113.0771479999994,104.35888699999941,135.76904300000024,105.12841800000024,57.05126999999993,65.64111300000059
316,116.53857400000015,-235.2563479999999,71.79492200000004,25.384765999999217,104.23095699999976,114.35888699999941,105.25634799999989,116.6665039999998,107.43603499999972,101.9228520000006,127.94873000000007,105.51269500000035,56.53857400000015,61.79492200000004
317,110.76904300000024,-247.43579099999943,83.84619099999964,20.51269500000035,92.56396500000028,107.43603499999972,100.25634799999989,107.94873000000007,100.0,94.35888699999941,121.0258789999998,102.94873000000007,52.43603499999972,55.64111300000059
318,106.9228520000006,-255.2563479999999,86.53857400000015,23.077147999999397,80.51269500000035,104.10253900000043,96.9228520000006,100.12841800000024,95.89746099999957,87.43603499999972,120.89746099999957,100.0,47.82031300000017,52.82031300000017
319,110.0,-253.076904,85.0,32.94873000000007,78.20507799999996,106.53857400000015,97.82031300000017,99.35888699999941,98.9741210000002,87.69238299999961,128.3334960000002,99.35888699999941,47.17968800000017,57.94873000000007
320,120.12841800000024,-241.923096,84.23095699999976,44.48730499999965,87.56396500000028,112.94873000000007,103.20507799999996,106.41015599999992,108.46142599999985,97.05126999999993,138.0771479999994,102.05126999999993,52.30761700000039,69.74365200000011
321,131.79492200000004,-229.8718259999996,85.89746099999957,51.153809000000365,101.9228520000006,118.58984400000008,110.25634799999989,116.15380900000036,118.58984400000008,110.12841800000024,143.7177729999994,106.2822270000006,60.64111300000059,81.79492200000004
322,138.3334960000002,-225.38452099999995,87.94873000000007,50.12841800000024,111.9228520000006,120.38476599999922,115.51269500000035,122.05126999999993,123.58984400000008,119.23095699999976,142.43603499999972,108.84619099999964,67.56396500000028,87.05126999999993
323,136.79492200000004,-231.02563499999997,87.82031300000017,43.974121000000196,113.20507799999996,118.7177729999994,116.79492200000004,121.15380900000036,121.79492200000004,119.74365200000011,137.3076170000004,108.20507799999996,69.35888699999941,83.7177729999994
324,129.23095699999976,-241.79492200000004,84.87158199999976,38.0771479999994,108.3334960000002,116.15380900000036,115.51269500000035,116.79492200000004,117.05126999999993,113.0771479999994,133.84619099999964,104.74365200000011,66.41015599999992,75.89746099999957
325,121.15380900000036,-250.1281740000004,81.41015599999992,37.17968800000017,103.0771479999994,115.0,114.48730499999965,114.35888699999941,114.61523400000078,104.87158199999976,135.12841800000024,101.2822270000006,61.410155999999915,69.87158199999976
326,116.79492200000004,-253.076904,79.87158199999976,41.025878999999804,100.38476599999922,115.51269500000035,115.51269500000035,116.0258789999998,116.15380900000036,100.25634799999989,139.10253900000043,100.12841800000024,56.79492200000004,68.84619099999964
327,116.79492200000004,-254.35888699999987,79.87158199999976,45.76904300000024,99.35888699999941,115.51269500000035,116.53857400000015,118.84619099999964,118.3334960000002,100.25634799999989,140.2563479999999,101.2822270000006,52.43603499999972,71.15380900000036
328,118.58984400000008,-260.0,78.46142599999985,46.79492200000004,98.0771479999994,112.69238299999961,114.61523400000078,118.0771479999994,116.2822270000006,102.17968800000017,135.0,102.56396500000028,46.9228520000006,71.6665039999998
329,118.3334960000002,-270.7692869999996,74.10253900000043,43.20507799999996,96.6665039999998,107.05126999999993,109.35888699999941,113.0771479999994,109.23095699999976,102.43603499999972,124.35888699999941,101.9228520000006,40.51269500000035,67.82031300000017
330,114.48730499999965,-281.28198199999997,69.10253900000043,37.69238299999961,97.05126999999993,101.15380900000036,103.7177729999994,107.94873000000007,101.6665039999998,100.38476599999922,113.84619099999964,98.46142599999985,35.38476599999922,61.666503999999804
331,108.3334960000002,-285.2563479999999,67.05126999999993,33.7177729999994,99.48730499999965,98.58984400000008,101.2822270000006,106.9228520000006,98.84619099999964,97.56396500000028,109.10253900000043,93.46142599999985,33.846190999999635,57.05126999999993
332,102.82031300000017,-281.28198199999997,68.9741210000002,31.922852000000603,101.53857400000015,100.89746099999957,102.82031300000017,109.87158199999976,101.9228520000006,95.89746099999957,111.2822270000006,89.48730499999965,35.64111300000059,56.153809000000365
333,100.12841800000024,-274.7436520000001,72.43603499999972,31.538574000000153,100.64111300000059,106.79492200000004,106.9228520000006,112.43603499999972,107.17968800000017,95.25634799999989,116.53857400000015,89.10253900000043,38.0771479999994,57.56396500000028
334,100.25634799999989,-272.5642090000006,73.84619099999964,31.410155999999915,96.15380900000036,112.69238299999961,110.64111300000059,111.0258789999998,110.0,95.0,119.48730499999965,93.3334960000002,38.846190999999635,59.23095699999976
335,101.53857400000015,-278.46142599999985,72.69238299999961,30.641113000000587,90.12841800000024,115.64111300000059,111.41015599999992,106.2822270000006,108.20507799999996,93.9741210000002,117.69238299999961,99.87158199999976,36.79492200000004,59.35888699999941
336,102.05126999999993,-289.8718259999996,72.69238299999961,28.461425999999847,85.76904300000024,113.7177729999994,108.0771479999994,101.9228520000006,103.46142599999985,92.43603499999972,113.0771479999994,105.12841800000024,32.82031300000017,57.94873000000007
337,101.53857400000015,-300.38452099999995,77.94873000000007,25.0,85.25634799999989,107.69238299999961,102.17968800000017,101.53857400000015,99.23095699999976,92.17968800000017,110.12841800000024,106.0258789999998,29.48730499999965,56.2822270000006
338,101.6665039999998,-303.58984399999963,88.3334960000002,21.538574000000153,88.46142599999985,100.89746099999957,97.69238299999961,105.89746099999957,99.35888699999941,95.0,112.17968800000017,103.0771479999994,29.358886999999413,56.79492200000004
339,104.35888699999941,-298.076904,96.53857400000015,20.128418000000238,93.20507799999996,98.20507799999996,97.82031300000017,113.0771479999994,105.51269500000035,100.76904300000024,118.84619099999964,99.35888699999941,33.46142599999985,61.153809000000365
340,109.87158199999976,-287.5642090000006,90.76904300000024,22.56396500000028,97.94873000000007,101.6665039999998,103.20507799999996,120.0,115.89746099999957,107.94873000000007,127.30761700000039,98.20507799999996,40.51269500000035,68.7177729999994
341,116.6665039999998,-278.97436500000003,63.589844000000085,28.461425999999847,101.79492200000004,108.7177729999994,111.15380900000036,124.48730499999965,126.15380900000036,114.23095699999976,134.61523400000078,101.0258789999998,47.94873000000007,77.05126999999993
342,121.79492200000004,-277.0512700000004,17.69238299999961,35.25634799999989,103.7177729999994,114.23095699999976,117.17968800000017,126.15380900000036,132.05126999999993,118.58984400000008,138.84619099999964,106.15380900000036,53.333496000000196,83.20507799999996
343,123.0771479999994,-282.179443,-33.974365000000034,39.87158199999976,103.20507799999996,114.74365200000011,118.3334960000002,125.51269500000035,131.9228520000006,120.64111300000059,139.7436520000001,110.12841800000024,54.87158199999976,85.0
344,120.64111300000059,-291.15380900000036,-76.15380900000036,40.38476599999922,100.12841800000024,111.0258789999998,114.61523400000078,123.9741210000002,127.56396500000028,120.0,138.0771479999994,110.0,52.05126999999993,82.17968800000017
345,116.53857400000015,-299.2307130000004,-100.0,37.43603499999972,96.0258789999998,107.05126999999993,108.20507799999996,122.17968800000017,122.30761700000039,116.53857400000015,135.51269500000035,106.15380900000036,45.897460999999566,76.53857400000015
346,113.7177729999994,-304.2307130000004,-107.43579099999943,32.82031300000017,93.46142599999985,106.6665039999998,102.69238299999961,119.61523400000078,118.3334960000002,110.51269500000035,132.94873000000007,100.89746099999957,39.35888699999941,70.89746099999957
347,113.3334960000002,-306.53857400000015,-109.35888699999987,27.82031300000017,94.10253900000043,109.48730499999965,99.87158199999976,115.38476599999922,115.76904300000024,103.7177729999994,130.12841800000024,97.17968800000017,35.51269500000035,67.69238299999961
348,114.87158199999976,-307.6923829999996,-116.92309599999999,23.717772999999397,97.82031300000017,111.9228520000006,99.87158199999976,110.38476599999922,114.23095699999976,98.20507799999996,126.0258789999998,96.41015599999992,35.38476599999922,67.82031300000017
349,116.6665039999998,-308.84619099999964,-134.7436520000001,21.794922000000042,102.82031300000017,110.76904300000024,101.2822270000006,106.41015599999992,113.20507799999996,96.0258789999998,120.64111300000059,98.3334960000002,37.82031300000017,70.25634799999989
350,117.69238299999961,-310.0,-158.84619099999964,22.94873000000007,106.79492200000004,106.53857400000015,102.56396500000028,105.64111300000059,112.43603499999972,97.17968800000017,116.41015599999992,101.41015599999992,40.64111300000059,72.82031300000017
351,118.20507799999996,-310.7692869999996,-181.28198199999997,26.794922000000042,108.20507799999996,102.69238299999961,103.0771479999994,108.46142599999985,112.30761700000039,99.74365200000011,115.89746099999957,103.9741210000002,42.56396500000028,74.10253900000043
352,118.58984400000008,-310.7692869999996,-197.820557,30.769043000000238,106.9228520000006,101.6665039999998,103.3334960000002,112.94873000000007,113.3334960000002,102.05126999999993,119.35888699999941,104.35888699999941,43.0771479999994,74.10253900000043
353,118.46142599999985,-310.38452099999995,-209.23071300000038,32.30761700000039,103.20507799999996,103.20507799999996,103.58984400000008,115.89746099999957,115.0,102.69238299999961,123.9741210000002,102.56396500000028,42.69238299999961,73.9741210000002
354,117.43603499999972,-310.7692869999996,-219.10253899999998,30.384765999999217,98.58984400000008,105.0,103.46142599999985,114.87158199999976,116.41015599999992,101.79492200000004,126.6665039999998,100.0,41.666503999999804,74.74365200000011
355,116.41015599999992,-311.923096,-227.9487299999996,27.30761700000039,96.0258789999998,105.12841800000024,102.69238299999961,111.0258789999998,116.41015599999992,100.25634799999989,126.9228520000006,98.3334960000002,40.38476599999922,77.05126999999993
356,116.9228520000006,-313.33325200000036,-234.10253899999998,26.410155999999915,98.7177729999994,103.9741210000002,102.05126999999993,107.30761700000039,115.0,99.74365200000011,126.53857400000015,98.84619099999964,40.12841800000024,80.89746099999957
357,119.23095699999976,-314.35888699999987,-236.02563499999997,29.871581999999762,106.41015599999992,103.3334960000002,102.82031300000017,107.05126999999993,114.10253900000043,101.53857400000015,126.79492200000004,100.89746099999957,41.79492200000004,85.12841800000024
358,122.05126999999993,-315.1281740000004,-235.2563479999999,36.2822270000006,114.87158199999976,105.12841800000024,105.64111300000059,110.64111300000059,115.0,104.87158199999976,127.30761700000039,103.0771479999994,45.12841800000024,88.3334960000002
359,122.30761700000039,-316.923096,-235.5129390000002,41.025878999999804,117.94873000000007,108.46142599999985,109.23095699999976,115.76904300000024,117.17968800000017,106.6665039999998,127.05126999999993,103.84619099999964,47.56396500000028,88.84619099999964
360,117.94873000000007,-321.41015600000037,-239.4870609999998,38.974121000000196,112.56396500000028,110.12841800000024,111.2822270000006,117.43603499999972,117.43603499999972,104.74365200000011,124.74365200000011,102.94873000000007,45.76904300000024,85.38476599999922
361,109.87158199999976,-329.61547900000005,-247.0512700000004,28.974121000000196,100.64111300000059,107.56396500000028,109.87158199999976,112.43603499999972,112.69238299999961,98.58984400000008,120.25634799999989,101.0258789999998,38.589844000000085,78.3334960000002
362,101.9228520000006,-340.1281740000004,-255.5129390000002,15.512695000000349,88.58984400000008,101.6665039999998,105.25634799999989,102.56396500000028,103.58984400000008,90.64111300000059,114.23095699999976,99.48730499999965,28.589844000000085,70.25634799999989
363,98.20507799999996,-349.35888699999987,-261.15380900000036,5.897460999999566,83.58984400000008,96.0258789999998,100.38476599999922,93.46142599999985,95.25634799999989,84.23095699999976,108.9741210000002,99.10253900000043,21.282227000000603,64.87158199999976
364,100.64111300000059,-353.58984399999963,-261.53857400000015,5.512695000000349,89.23095699999976,94.10253900000043,98.7177729999994,91.15380900000036,93.0771479999994,83.20507799999996,107.30761700000039,99.35888699999941,21.410155999999915,64.87158199999976
365,107.43603499999972,-351.53857400000015,-257.9487299999996,13.717772999999397,101.2822270000006,96.0258789999998,101.6665039999998,97.56396500000028,99.23095699999976,88.46142599999985,110.51269500000035,99.61523400000078,28.846190999999635,70.0
366,114.61523400000078,-345.2563479999999,-253.84619099999964,24.358886999999413,110.76904300000024,99.23095699999976,107.05126999999993,108.20507799999996,110.38476599999922,97.69238299999961,116.6665039999998,99.74365200000011,39.102539000000434,77.30761700000039
367,119.10253900000043,-338.58984399999963,-252.179443,31.153809000000365,111.2822270000006,100.89746099999957,111.53857400000015,116.9228520000006,120.51269500000035,106.15380900000036,122.56396500000028,99.87158199999976,45.76904300000024,83.46142599999985
368,120.64111300000059,-333.46142599999985,-252.820557,31.922852000000603,104.48730499999965,99.61523400000078,113.58984400000008,120.0,125.25634799999989,110.89746099999957,126.0258789999998,100.25634799999989,46.025878999999804,87.30761700000039
369,121.9228520000006,-330.2563479999999,-253.33325200000036,28.846190999999635,98.9741210000002,96.79492200000004,113.84619099999964,118.84619099999964,124.23095699999976,112.56396500000028,128.3334960000002,101.41015599999992,42.05126999999993,89.74365200000011
370,125.0,-328.33325200000036,-251.28198199999997,25.897460999999566,101.2822270000006,94.61523400000078,114.35888699999941,117.82031300000017,121.2822270000006,113.9741210000002,131.0258789999998,103.20507799999996,39.23095699999976,92.69238299999961
371,128.58984400000008,-327.9487299999996,-247.0512700000004,25.25634799999989,109.87158199999976,93.7177729999994,115.64111300000059,119.23095699999976,119.87158199999976,116.2822270000006,133.84619099999964,104.61523400000078,40.38476599999922,95.64111300000059
372,128.7177729999994,-330.64111300000013,-243.20507799999996,26.282227000000603,116.6665039999998,92.82031300000017,116.53857400000015,121.2822270000006,120.51269500000035,117.43603499999972,134.23095699999976,104.87158199999976,43.333496000000196,96.41015599999992
373,122.82031300000017,-337.179443,-243.33325200000036,26.410155999999915,114.74365200000011,90.12841800000024,115.25634799999989,120.0,120.51269500000035,114.23095699999976,130.12841800000024,103.46142599999985,42.82031300000017,92.69238299999961
374,113.20507799999996,-345.897461,-247.56420900000057,23.461425999999847,105.76904300000024,86.41015599999992,111.2822270000006,114.23095699999976,117.69238299999961,105.89746099999957,123.20507799999996,100.89746099999957,36.53857400000015,85.89746099999957
375,105.89746099999957,-353.84619099999964,-253.076904,17.94873000000007,97.17968800000017,84.23095699999976,106.41015599999992,107.30761700000039,113.20507799999996,96.53857400000015,117.30761700000039,98.58984400000008,27.56396500000028,80.12841800000024
376,105.25634799999989,-358.58984399999963,-256.41015600000037,12.307617000000391,95.25634799999989,86.0258789999998,102.69238299999961,103.84619099999964,110.51269500000035,91.79492200000004,114.74365200000011,97.82031300000017,21.666503999999804,78.7177729999994
377,109.87158199999976,-360.897461,-256.41015600000037,8.589844000000085,98.3334960000002,91.15380900000036,101.41015599999992,105.76904300000024,111.2822270000006,93.0771479999994,115.38476599999922,98.7177729999994,22.17968800000017,81.41015599999992
378,114.23095699999976,-362.9487299999996,-255.2563479999999,6.666503999999804,100.38476599999922,96.41015599999992,102.30761700000039,110.38476599999922,113.7177729999994,96.9228520000006,116.6665039999998,100.25634799999989,27.30761700000039,84.61523400000078
379,114.23095699999976,-366.66674799999964,-255.76928699999962,5.3847659999992175,96.79492200000004,98.58984400000008,104.23095699999976,113.7177729999994,114.10253900000043,97.94873000000007,116.15380900000036,101.2822270000006,32.05126999999993,85.38476599999922
380,109.74365200000011,-371.15380900000036,-258.20507799999996,4.358886999999413,89.48730499999965,97.05126999999993,105.64111300000059,113.0771479999994,110.76904300000024,94.61523400000078,112.56396500000028,101.2822270000006,32.43603499999972,83.20507799999996
381,104.87158199999976,-374.4870609999998,-259.7436520000001,4.743652000000111,84.35888699999941,93.3334960000002,105.64111300000059,109.10253900000043,105.25634799999989,89.10253900000043,106.15380900000036,100.64111300000059,27.94873000000007,79.74365200000011
382,103.0771479999994,-374.61547900000005,-256.53857400000015,7.820313000000169,86.2822270000006,90.12841800000024,104.23095699999976,104.48730499999965,101.0258789999998,85.38476599999922,99.48730499999965,99.74365200000011,21.666503999999804,76.6665039999998
383,104.87158199999976,-371.41015600000037,-247.820557,13.205077999999958,95.64111300000059,88.3334960000002,102.56396500000028,102.43603499999972,101.15380900000036,86.0258789999998,96.41015599999992,98.9741210000002,18.077147999999397,75.25634799999989
