,EEG.AF3,EEG.F7,EEG.F3,EEG.FC5,EEG.T7,EEG.P7,EEG.O1,EEG.O2,EEG.P8,EEG.T8,EEG.FC6,EEG.F4,EEG.F8,EEG.AF4
0,139.10253900000043,46.410155999999915,100.12841800000024,131.9228520000006,58.846190999999635,104.35888699999941,116.41015599999992,115.51269500000035,115.25634799999989,130.6411130000006,157.43603499999972,116.15380900000036,167.17968800000017,189.61523400000078
1,127.82031300000017,35.64111300000059,95.38476599999922,131.15380900000036,32.82031300000017,100.64111300000059,120.64111300000059,100.64111300000059,110.89746099999957,131.53857400000015,146.41015599999992,110.64111300000059,157.94873000000007,180.0
2,130.12841800000024,32.82031300000017,100.0,130.89746099999957,52.30761700000039,105.64111300000059,137.43603499999972,97.30761700000039,114.74365200000011,148.7177729999994,146.15380900000036,109.10253900000043,161.2822270000006,182.17968800000017
3,146.2822270000006,38.846190999999635,111.0258789999998,130.76904300000024,107.94873000000007,116.6665039999998,159.87158199999976,107.82031300000017,124.61523400000078,171.79492200000004,158.46142599999985,112.69238299999961,179.10253900000043,197.3076170000004
4,165.2563479999999,47.69238299999961,120.12841800000024,130.2563479999999,170.2563479999999,125.89746099999957,176.2822270000006,124.23095699999976,133.7177729999994,185.0,173.84619099999964,118.7177729999994,200.6411130000006,215.76904300000024
5,173.0771479999994,51.025878999999804,119.35888699999941,127.30761700000039,204.61523400000078,125.51269500000035,177.3076170000004,134.10253900000043,134.10253900000043,177.6923829999996,179.3588869999994,122.43603499999972,211.15380900000036,224.23095699999976
6,163.58984400000008,47.05126999999993,108.20507799999996,121.15380900000036,190.89746099999957,114.61523400000078,163.0771479999994,130.2563479999999,122.82031300000017,152.94873000000007,170.51269500000035,120.89746099999957,205.89746099999957,216.0258789999998
7,144.48730499999965,41.025878999999804,94.74365200000011,114.48730499999965,137.94873000000007,99.61523400000078,143.0771479999994,116.53857400000015,105.89746099999957,128.20507799999996,155.6411130000006,115.64111300000059,192.6923829999996,198.20507799999996
8,129.7436520000001,38.333496000000196,88.9741210000002,111.15380900000036,78.9741210000002,89.61523400000078,130.2563479999999,104.87158199999976,94.61523400000078,121.53857400000015,147.6923829999996,111.53857400000015,183.46142599999985,183.84619099999964
9,127.82031300000017,38.20507799999996,93.7177729999994,112.17968800000017,47.30761700000039,89.23095699999976,131.0258789999998,103.46142599999985,96.9228520000006,137.17968800000017,152.05126999999993,111.6665039999998,182.05126999999993,180.2563479999999
10,135.0,35.25634799999989,101.9228520000006,114.61523400000078,52.17968800000017,95.38476599999922,140.38476599999922,110.0,110.0,162.82031300000017,161.41015599999992,114.35888699999941,182.56396500000028,183.20507799999996
11,140.89746099999957,27.43603499999972,104.35888699999941,114.23095699999976,77.94873000000007,101.0258789999998,147.43603499999972,113.7177729999994,122.43603499999972,180.2563479999999,163.7177729999994,116.0258789999998,177.56396500000028,183.46142599999985
12,138.7177729999994,20.769043000000238,98.46142599999985,110.51269500000035,104.35888699999941,102.30761700000039,145.89746099999957,107.43603499999972,124.10253900000043,181.15380900000036,154.48730499999965,114.61523400000078,167.94873000000007,176.6665039999998
13,131.15380900000036,25.51269500000035,90.76904300000024,107.56396500000028,123.58984400000008,101.0258789999998,139.3588869999994,95.25634799999989,115.0,171.9228520000006,141.15380900000036,111.6665039999998,162.94873000000007,168.3334960000002
14,126.9228520000006,45.38476599999922,89.48730499999965,109.35888699999941,138.9741210000002,101.53857400000015,136.9228520000006,89.48730499999965,104.48730499999965,167.05126999999993,135.89746099999957,109.87158199999976,169.48730499999965,167.3076170000004
15,132.6923829999996,72.30761700000039,98.0771479999994,116.41015599999992,153.9741210000002,106.2822270000006,144.23095699999976,98.9741210000002,103.7177729999994,175.0,144.7436520000001,111.41015599999992,184.61523400000078,177.6923829999996
16,148.20507799999996,92.05126999999993,111.79492200000004,123.20507799999996,166.41015599999992,113.20507799999996,157.6923829999996,121.53857400000015,116.41015599999992,192.05126999999993,163.58984400000008,115.64111300000059,198.0771479999994,194.87158199999976
17,165.51269500000035,93.9741210000002,122.17968800000017,123.3334960000002,172.17968800000017,117.69238299999961,168.20507799999996,144.7436520000001,136.41015599999992,207.94873000000007,181.53857400000015,120.25634799999989,202.6923829999996,209.87158199999976
18,173.7177729999994,77.69238299999961,122.56396500000028,114.23095699999976,167.94873000000007,115.51269500000035,167.56396500000028,153.58984400000008,150.6411130000006,214.48730499999965,188.46142599999985,122.69238299999961,199.23095699999976,213.58984400000008
19,165.0,55.12841800000024,112.43603499999972,101.0258789999998,150.89746099999957,105.89746099999957,155.12841800000024,141.53857400000015,148.0771479999994,210.89746099999957,180.76904300000024,121.15380900000036,193.20507799999996,202.17968800000017
20,142.94873000000007,43.7177729999994,98.3334960000002,92.56396500000028,123.3334960000002,93.84619099999964,138.3334960000002,116.2822270000006,127.94873000000007,200.76904300000024,165.2563479999999,116.2822270000006,188.7177729999994,180.89746099999957
21,122.17968800000017,54.23095699999976,90.38476599999922,94.35888699999941,98.7177729999994,87.56396500000028,128.58984400000008,95.64111300000059,102.82031300000017,188.9741210000002,153.58984400000008,111.79492200000004,185.12841800000024,163.3334960000002
22,117.82031300000017,80.51269500000035,94.23095699999976,102.56396500000028,95.89746099999957,92.05126999999993,132.3076170000004,94.61523400000078,90.12841800000024,180.51269500000035,153.20507799999996,111.9228520000006,178.9741210000002,161.9228520000006
23,130.89746099999957,101.41015599999992,105.89746099999957,104.61523400000078,120.51269500000035,104.74365200000011,145.76904300000024,112.69238299999961,97.94873000000007,177.43603499999972,159.3588869999994,116.9228520000006,168.46142599999985,175.51269500000035
24,146.79492200000004,99.23095699999976,114.48730499999965,89.74365200000011,155.76904300000024,117.56396500000028,157.82031300000017,134.48730499999965,117.82031300000017,177.17968800000017,160.38476599999922,122.43603499999972,157.6923829999996,189.3588869999994
25,148.3334960000002,77.82031300000017,112.30761700000039,60.76904300000024,178.0771479999994,123.9741210000002,158.9741210000002,143.46142599999985,131.79492200000004,174.87158199999976,148.84619099999964,123.20507799999996,154.48730499999965,187.05126999999993
26,131.0258789999998,62.30761700000039,101.6665039999998,34.48730499999965,177.43603499999972,122.43603499999972,149.23095699999976,134.7436520000001,129.10253900000043,170.51269500000035,129.7436520000001,117.82031300000017,164.10253900000043,166.0258789999998
27,107.05126999999993,78.58984400000008,92.30761700000039,28.461425999999847,160.89746099999957,115.51269500000035,137.05126999999993,117.56396500000028,114.23095699999976,168.84619099999964,116.79492200000004,110.0,184.10253900000043,140.0
28,93.7177729999994,128.9741210000002,92.43603499999972,44.87158199999976,140.6411130000006,106.6665039999998,131.9228520000006,106.0258789999998,102.30761700000039,172.05126999999993,119.35888699999941,105.38476599999922,206.15380900000036,127.17968800000017
29,98.58984400000008,189.48730499999965,101.9228520000006,68.20507799999996,123.9741210000002,99.74365200000011,136.53857400000015,107.17968800000017,105.76904300000024,175.6411130000006,135.12841800000024,106.9228520000006,220.2563479999999,135.38476599999922
30,113.46142599999985,227.17968800000017,113.3334960000002,78.84619099999964,114.48730499999965,98.84619099999964,145.6411130000006,117.69238299999961,123.20507799999996,173.7177729999994,151.15380900000036,112.56396500000028,221.2822270000006,156.41015599999992
31,122.05126999999993,227.56396500000028,118.46142599999985,67.30761700000039,116.2822270000006,105.89746099999957,151.53857400000015,129.10253900000043,141.79492200000004,168.58984400000008,154.61523400000078,118.0771479999994,211.79492200000004,172.82031300000017
32,113.9741210000002,207.6923829999996,114.61523400000078,38.7177729999994,132.82031300000017,118.0771479999994,151.15380900000036,135.38476599999922,149.23095699999976,168.9741210000002,141.79492200000004,119.74365200000011,203.0771479999994,171.9228520000006
33,92.43603499999972,206.9228520000006,105.51269500000035,5.641113000000587,159.48730499999965,128.20507799999996,147.56396500000028,136.15380900000036,142.3076170000004,178.7177729999994,119.23095699999976,117.30761700000039,207.94873000000007,156.6665039999998
34,71.0258789999998,255.12841800000024,98.46142599999985,-20.641113000000132,179.23095699999976,129.3588869999994,145.76904300000024,133.9741210000002,127.56396500000028,189.7436520000001,97.56396500000028,113.0771479999994,232.17968800000017,144.61523400000078
35,63.7177729999994,346.9228520000006,99.87158199999976,-34.61547900000005,173.9741210000002,119.74365200000011,148.84619099999964,132.43603499999972,115.25634799999989,190.38476599999922,86.0258789999998,111.0258789999998,270.89746099999957,156.9228520000006
36,75.89746099999957,445.2563479999999,112.05126999999993,-36.41015600000037,144.87158199999976,105.12841800000024,157.05126999999993,135.6411130000006,114.10253900000043,180.89746099999957,88.3334960000002,113.46142599999985,313.3334960000002,203.0771479999994
37,98.46142599999985,513.205078,130.2563479999999,-31.28198199999997,114.74365200000011,93.7177729999994,166.53857400000015,144.48730499999965,126.79492200000004,175.76904300000024,100.51269500000035,119.23095699999976,349.87158199999976,271.79492200000004
38,112.17968800000017,543.5898440000001,143.58984400000008,-26.538574000000153,105.64111300000059,89.87158199999976,169.48730499999965,152.3076170000004,144.3588869999994,186.0258789999998,110.51269500000035,122.82031300000017,374.6152340000008,335.0
39,101.6665039999998,560.5126950000003,142.43603499999972,-28.205077999999958,116.9228520000006,92.17968800000017,158.7177729999994,146.53857400000015,150.0,203.3334960000002,104.35888699999941,118.84619099999964,386.15380900000036,367.05126999999993
40,69.87158199999976,596.0258789999998,128.3334960000002,-36.41015600000037,131.0258789999998,96.6665039999998,135.0,122.17968800000017,133.46142599999985,206.79492200000004,78.3334960000002,107.56396500000028,390.3847659999992,364.87158199999976
41,39.61523400000078,662.3076170000004,115.38476599999922,-43.33325200000036,137.43603499999972,101.6665039999998,111.41015599999992,90.64111300000059,104.61523400000078,185.2563479999999,44.61523400000078,96.2822270000006,399.6152340000008,351.2822270000006
42,35.25634799999989,746.9228520000006,118.7177729999994,-38.33325200000036,143.0771479999994,108.3334960000002,104.48730499999965,74.23095699999976,87.69238299999961,151.2822270000006,23.461425999999847,93.9741210000002,425.12841800000024,355.3847659999992
43,61.53857400000015,825.8974609999996,141.2822270000006,-16.538574000000153,158.9741210000002,116.6665039999998,120.51269500000035,86.9228520000006,99.48730499999965,130.0,28.333496000000196,103.58984400000008,469.87158199999976,386.9228520000006
44,98.7177729999994,882.3076170000004,169.48730499999965,14.615234000000783,183.0771479999994,122.82031300000017,147.43603499999972,120.89746099999957,132.82031300000017,137.17968800000017,54.48730499999965,118.20507799999996,524.7436520000001,429.23095699999976
45,117.30761700000039,915.6411130000006,183.0771479999994,37.43603499999972,198.84619099999964,121.41015599999992,165.0,149.87158199999976,160.12841800000024,165.2563479999999,80.64111300000059,126.2822270000006,572.1796880000002,454.10253900000043
46,101.9228520000006,937.6923829999996,172.17968800000017,38.589844000000085,190.0,110.0,160.12841800000024,149.61523400000078,156.6665039999998,191.41015599999992,83.20507799999996,121.41015599999992,597.0512699999999,445.6411130000006
47,64.61523400000078,961.0258789999998,146.2822270000006,22.56396500000028,158.7177729999994,94.61523400000078,138.9741210000002,120.0,122.17968800000017,197.43603499999972,55.38476599999922,107.43603499999972,599.3588869999994,413.3334960000002
48,36.410155999999915,990.0,128.0771479999994,11.666503999999804,129.7436520000001,86.6665039999998,120.89746099999957,87.05126999999993,83.58984400000008,185.2563479999999,16.153809000000365,95.89746099999957,597.0512699999999,385.89746099999957
49,42.30761700000039,1021.0258789999998,134.48730499999965,27.17968800000017,130.0,93.9741210000002,121.41015599999992,80.64111300000059,72.69238299999961,171.9228520000006,-5.641113000000132,96.9228520000006,611.794922,387.05126999999993
50,78.46142599999985,1048.4614259999998,161.6665039999998,69.10253900000043,162.94873000000007,111.6665039999998,138.7177729999994,107.43603499999972,98.7177729999994,170.51269500000035,3.4614259999998467,109.87158199999976,648.4614259999998,414.48730499999965
51,116.15380900000036,1071.1538090000004,188.46142599999985,113.7177729999994,203.46142599999985,125.38476599999922,155.51269500000035,145.2563479999999,140.38476599999922,177.82031300000017,28.846190999999635,124.10253900000043,691.4101559999999,441.9228520000006
52,127.17968800000017,1092.4360349999997,194.23095699999976,134.23095699999976,220.38476599999922,123.20507799999996,156.0258789999998,162.82031300000017,165.2563479999999,180.12841800000024,43.0771479999994,128.46142599999985,719.3588869999994,443.5898440000001
53,107.69238299999961,1114.4873049999997,176.2822270000006,124.10253900000043,203.20507799999996,107.05126999999993,138.9741210000002,147.6923829999996,156.2822270000006,169.3588869999994,29.871581999999762,120.38476599999922,723.3334960000002,416.6665039999998
54,78.0771479999994,1134.3588869999994,148.84619099999964,99.87158199999976,168.46142599999985,88.9741210000002,117.43603499999972,112.94873000000007,122.56396500000028,152.82031300000017,-3.9741210000001956,106.9228520000006,712.8203130000002,380.3847659999992
55,62.94873000000007,1147.6923829999996,130.51269500000035,83.9741210000002,142.43603499999972,80.25634799999989,106.2822270000006,85.0,89.48730499999965,146.15380900000036,-37.17944299999999,97.94873000000007,706.9228520000006,357.5639650000003
56,72.17968800000017,1152.94873,129.61523400000078,84.87158199999976,140.2563479999999,82.94873000000007,110.51269500000035,81.2822270000006,78.46142599999985,156.9228520000006,-52.564209000000574,98.84619099999964,719.4873049999997,357.3076170000004
57,97.43603499999972,1153.3334960000002,140.76904300000024,94.23095699999976,155.89746099999957,92.30761700000039,123.58984400000008,99.74365200000011,93.0771479999994,175.38476599999922,-47.435790999999426,107.30761700000039,748.9741210000002,372.3076170000004
58,123.9741210000002,1153.589844,152.94873000000007,99.61523400000078,173.46142599999985,102.30761700000039,135.51269500000035,124.48730499999965,120.25634799999989,183.84619099999964,-31.025634999999966,117.56396500000028,781.5385740000002,389.48730499999965
59,143.84619099999964,1160.0,160.89746099999957,98.3334960000002,185.89746099999957,110.0,142.82031300000017,142.17968800000017,143.0771479999994,176.53857400000015,-12.820557000000008,125.64111300000059,803.8461909999996,401.4101559999999
60,158.9741210000002,1178.589844,166.6665039999998,98.7177729999994,200.51269500000035,115.12841800000024,149.61523400000078,151.15380900000036,154.7436520000001,169.3588869999994,2.8203130000001693,130.76904300000024,816.0258789999998,408.5898440000001
61,171.41015599999992,1208.4614259999998,172.17968800000017,106.9228520000006,222.3076170000004,117.05126999999993,159.23095699999976,156.6665039999998,158.3334960000002,181.41015599999992,14.230956999999762,133.58984400000008,827.6923829999996,412.5639650000003
62,175.2563479999999,1236.5385740000002,173.0771479999994,116.53857400000015,237.6923829999996,113.0771479999994,166.53857400000015,160.12841800000024,157.17968800000017,210.12841800000024,15.769043000000238,132.82031300000017,843.205078,408.46142599999985
63,161.53857400000015,1242.05127,162.43603499999972,112.82031300000017,225.51269500000035,102.82031300000017,162.05126999999993,155.76904300000024,148.9741210000002,229.10253900000043,0.6411130000005869,126.6665039999998,854.4873049999997,389.87158199999976
64,130.51269500000035,1213.3334960000002,139.87158199999976,87.17968800000017,184.10253900000043,90.12841800000024,142.56396500000028,138.9741210000002,131.0258789999998,214.10253900000043,-31.538574000000153,115.89746099999957,850.1284180000002,357.82031300000017
65,96.6665039999998,1160.6411130000006,114.74365200000011,47.94873000000007,142.43603499999972,82.43603499999972,116.9228520000006,115.38476599999922,108.20507799999996,167.82031300000017,-69.23071300000038,104.48730499999965,830.3847659999992,324.87158199999976
66,80.0,1112.94873,99.87158199999976,15.128418000000238,135.12841800000024,84.61523400000078,100.64111300000059,98.7177729999994,93.0771479999994,121.0258789999998,-93.84619099999964,98.84619099999964,811.5385740000002,307.3076170000004
67,90.51269500000035,1098.205078,102.17968800000017,5.512695000000349,170.0,95.12841800000024,104.23095699999976,100.38476599999922,96.41015599999992,108.0771479999994,-92.17944299999999,102.30761700000039,814.1025390000004,313.0771479999994
68,118.20507799999996,1122.8203130000002,116.15380900000036,19.102539000000434,219.23095699999976,106.6665039999998,123.20507799999996,117.94873000000007,115.12841800000024,138.0771479999994,-68.33325200000036,112.82031300000017,842.5639650000003,333.9741210000002
69,140.0,1167.1796880000002,127.17968800000017,40.12841800000024,245.12841800000024,111.9228520000006,142.17968800000017,135.0,132.17968800000017,186.0258789999998,-44.23071300000038,122.94873000000007,878.205078,350.0
70,139.23095699999976,1200.7690430000002,123.7177729999994,51.666503999999804,233.7177729999994,108.84619099999964,147.56396500000028,135.6411130000006,131.9228520000006,213.58984400000008,-42.30761700000039,125.25634799999989,895.0,344.87158199999976
71,120.51269500000035,1202.8203130000002,107.82031300000017,50.76904300000024,205.12841800000024,102.94873000000007,139.10253900000043,119.87158199999976,115.89746099999957,202.3076170000004,-65.51293900000019,118.9741210000002,885.6411130000006,321.0258789999998
72,104.23095699999976,1174.3588869999994,91.9228520000006,46.025878999999804,189.7436520000001,100.76904300000024,128.46142599999985,103.0771479999994,100.64111300000059,167.56396500000028,-94.10253899999998,110.51269500000035,867.0512699999999,296.9228520000006
73,104.87158199999976,1134.3588869999994,86.2822270000006,45.25634799999989,196.0258789999998,103.20507799999996,126.53857400000015,100.76904300000024,100.25634799999989,141.2822270000006,-105.25634799999989,106.79492200000004,861.794922,288.84619099999964
74,117.69238299999961,1105.1284180000002,90.0,45.897460999999566,206.41015599999992,105.76904300000024,133.58984400000008,113.7177729999994,112.69238299999961,142.6923829999996,-94.23071300000038,109.10253900000043,876.1538090000004,296.4101559999999
75,126.6665039999998,1099.3588869999994,93.9741210000002,40.76904300000024,200.38476599999922,104.61523400000078,141.41015599999992,130.51269500000035,124.87158199999976,166.41015599999992,-75.0,113.20507799999996,897.5639650000003,306.2822270000006
76,123.20507799999996,1114.4873049999997,91.6665039999998,28.717772999999397,179.61523400000078,101.6665039999998,142.82031300000017,140.12841800000024,127.69238299999961,191.6665039999998,-65.51293900000019,115.12841800000024,909.4873049999997,307.82031300000017
77,112.05126999999993,1137.1796880000002,84.48730499999965,17.30761700000039,166.15380900000036,102.82031300000017,137.94873000000007,140.2563479999999,124.23095699999976,200.89746099999957,-71.66674799999964,113.9741210000002,906.4101559999999,300.89746099999957
78,104.10253900000043,1152.5639650000003,78.3334960000002,15.641113000000587,177.56396500000028,109.61523400000078,131.6665039999998,135.38476599999922,122.82031300000017,190.12841800000024,-86.02563499999997,111.6665039999998,895.2563479999999,292.6923829999996
79,104.48730499999965,1152.6923829999996,76.79492200000004,24.871581999999762,209.3588869999994,117.17968800000017,128.58984400000008,130.12841800000024,128.20507799999996,169.7436520000001,-97.30761700000039,110.12841800000024,887.4360349999997,288.7177729999994
80,110.38476599999922,1138.9741210000002,78.84619099999964,37.17968800000017,237.56396500000028,118.9741210000002,128.58984400000008,126.2822270000006,136.9228520000006,155.12841800000024,-98.33325200000036,110.25634799999989,889.4873049999997,288.84619099999964
81,114.35888699999941,1118.9741210000002,80.38476599999922,42.82031300000017,240.2563479999999,112.94873000000007,129.23095699999976,124.35888699999941,141.53857400000015,155.0,-91.15380900000036,110.89746099999957,898.4614259999998,288.9741210000002
82,110.0,1101.2822270000006,77.30761700000039,38.46142599999985,215.76904300000024,103.58984400000008,127.17968800000017,122.94873000000007,136.2822270000006,164.3588869999994,-84.10253899999998,110.25634799999989,904.3588869999994,283.84619099999964
83,95.38476599999922,1091.794922,67.94873000000007,30.128418000000238,182.94873000000007,97.05126999999993,120.76904300000024,119.23095699999976,120.38476599999922,168.9741210000002,-86.28198199999997,106.6665039999998,898.8461909999996,270.76904300000024
84,76.0258789999998,1089.8715819999998,55.76904300000024,27.82031300000017,164.10253900000043,96.6665039999998,112.05126999999993,112.05126999999993,100.0,159.7436520000001,-99.10253899999998,101.15380900000036,882.9487300000001,253.3334960000002
85,63.333496000000196,1091.0258789999998,48.46142599999985,39.35888699999941,169.3588869999994,101.15380900000036,106.53857400000015,105.12841800000024,86.41015599999992,142.56396500000028,-112.43579099999943,97.56396500000028,868.5898440000001,241.6665039999998
86,68.3334960000002,1091.794922,52.94873000000007,65.51269500000035,192.3076170000004,106.53857400000015,110.25634799999989,106.0258789999998,89.61523400000078,133.46142599999985,-110.89746100000002,99.87158199999976,869.2309569999998,246.15380900000036
87,90.51269500000035,1091.410156,68.46142599999985,98.7177729999994,216.0258789999998,109.10253900000043,124.10253900000043,118.7177729999994,110.12841800000024,143.20507799999996,-87.56420900000057,108.20507799999996,888.0771479999994,267.05126999999993
88,114.87158199999976,1088.589844,85.0,125.76904300000024,223.58984400000008,107.56396500000028,140.89746099999957,136.9228520000006,134.87158199999976,165.51269500000035,-52.82055700000001,117.69238299999961,913.0771479999994,290.51269500000035
89,122.94873000000007,1078.589844,89.10253900000043,135.76904300000024,207.05126999999993,102.94873000000007,149.7436520000001,148.0771479999994,145.76904300000024,181.2822270000006,-28.205077999999958,121.2822270000006,926.2822270000006,297.5639650000003
90,109.48730499999965,1057.5639650000003,76.9228520000006,128.84619099999964,174.61523400000078,99.10253900000043,144.7436520000001,144.3588869999994,134.7436520000001,176.41015599999992,-27.564209000000574,116.41015599999992,918.0771479999994,280.51269500000035
91,87.17968800000017,1028.7177729999994,56.79492200000004,118.0771479999994,146.53857400000015,99.61523400000078,129.61523400000078,128.9741210000002,109.74365200000011,153.9741210000002,-45.38452099999995,107.17968800000017,892.6923829999996,249.48730499999965
92,75.89746099999957,1001.5385740000002,43.20507799999996,120.51269500000035,140.76904300000024,105.25634799999989,114.10253900000043,112.17968800000017,87.05126999999993,130.51269500000035,-63.07690400000001,100.76904300000024,862.6923829999996,222.43603499999972
93,86.2822270000006,985.6411130000006,45.0,144.87158199999976,159.7436520000001,112.82031300000017,106.53857400000015,103.3334960000002,79.61523400000078,122.69238299999961,-63.46142599999985,101.53857400000015,838.5898440000001,210.76904300000024
94,114.87158199999976,985.2563479999999,61.025878999999804,188.3334960000002,189.3588869999994,117.94873000000007,110.12841800000024,106.6665039999998,90.38476599999922,135.6411130000006,-42.30761700000039,108.3334960000002,824.4873049999997,213.7177729999994
95,148.84619099999964,998.3334960000002,81.53857400000015,238.58984400000008,210.38476599999922,118.84619099999964,121.53857400000015,119.61523400000078,113.20507799999996,161.41015599999992,-9.61547900000005,116.15380900000036,816.2822270000006,221.9228520000006
96,173.84619099999964,1017.5639650000003,95.64111300000059,281.0258789999998,210.2563479999999,116.53857400000015,133.20507799999996,133.20507799999996,135.0,183.0771479999994,17.43603499999972,120.76904300000024,803.3334960000002,224.10253900000043
97,182.17968800000017,1035.6411130000006,96.79492200000004,306.0258789999998,190.89746099999957,113.46142599999985,137.43603499999972,137.43603499999972,143.7177729999994,186.15380900000036,24.74365200000011,120.64111300000059,775.2563479999999,213.0771479999994
98,178.20507799999996,1050.7690430000002,88.0771479999994,315.51269500000035,165.2563479999999,112.17968800000017,132.05126999999993,128.7177729999994,137.05126999999993,170.2563479999999,13.205077999999958,116.79492200000004,732.0512699999999,192.43603499999972
99,176.9228520000006,1066.2822270000006,79.74365200000011,322.6923829999996,149.61523400000078,113.46142599999985,122.69238299999961,114.61523400000078,124.61523400000078,150.51269500000035,-1.153809000000365,112.30761700000039,687.0512699999999,175.0
100,191.41015599999992,1086.410156,82.69238299999961,341.2822270000006,152.17968800000017,115.89746099999957,118.84619099999964,108.46142599999985,120.0,145.0,0.38476599999921746,110.76904300000024,656.5385740000002,173.9741210000002
101,222.94873000000007,1111.2822270000006,100.38476599999922,375.0,168.20507799999996,117.94873000000007,125.89746099999957,117.30761700000039,128.20507799999996,158.84619099999964,23.333496000000196,113.84619099999964,647.0512699999999,192.3076170000004
102,258.7177729999994,1136.794922,125.51269500000035,413.46142599999985,184.23095699999976,118.46142599999985,139.23095699999976,135.51269500000035,141.53857400000015,180.38476599999922,56.025878999999804,119.61523400000078,650.7690430000002,219.10253900000043
103,282.94873000000007,1157.8203130000002,145.38476599999922,440.6411130000006,187.43603499999972,117.30761700000039,148.7177729999994,149.10253900000043,147.3076170000004,190.76904300000024,80.38476599999922,124.35888699999941,653.5898440000001,237.94873000000007
104,286.53857400000015,1171.0258789999998,150.0,446.4101559999999,174.3588869999994,115.25634799999989,146.0258789999998,146.6665039999998,138.9741210000002,179.23095699999976,84.35888699999941,124.48730499999965,645.7690430000002,238.46142599999985
105,271.9228520000006,1175.0,139.48730499999965,432.6923829999996,150.76904300000024,112.94873000000007,130.76904300000024,128.0771479999994,119.74365200000011,150.6411130000006,70.25634799999989,119.48730499999965,625.8974609999996,222.6923829999996
106,249.23095699999976,1169.743652,122.82031300000017,412.5639650000003,127.56396500000028,111.53857400000015,110.76904300000024,103.3334960000002,99.87158199999976,120.12841800000024,50.76904300000024,111.9228520000006,598.8461909999996,202.05126999999993
107,231.79492200000004,1157.8203130000002,112.05126999999993,401.79492200000004,115.51269500000035,111.9228520000006,96.41015599999992,86.15380900000036,88.58984400000008,102.30761700000039,39.23095699999976,105.38476599999922,571.0258789999998,189.61523400000078
108,228.7177729999994,1144.4873049999997,114.74365200000011,409.48730499999965,120.0,115.25634799999989,95.0,84.74365200000011,89.87158199999976,102.30761700000039,41.410155999999915,103.20507799999996,546.5385740000002,192.56396500000028
109,241.2822270000006,1135.0,129.61523400000078,433.5898440000001,138.0771479999994,121.6665039999998,105.64111300000059,97.43603499999972,100.51269500000035,115.12841800000024,54.102539000000434,106.0258789999998,524.8715819999998,210.0
110,262.3076170000004,1131.2822270000006,148.7177729999994,462.6923829999996,159.48730499999965,129.61523400000078,120.38476599999922,114.10253900000043,112.43603499999972,130.0,69.10253900000043,111.6665039999998,502.94873000000007,233.9741210000002
111,280.76904300000024,1128.7177729999994,162.3076170000004,484.23095699999976,172.94873000000007,135.89746099999957,130.0,124.48730499999965,118.7177729999994,137.56396500000028,80.64111300000059,116.53857400000015,478.46142599999985,254.7436520000001
112,289.3588869999994,1118.7177729999994,165.12841800000024,492.3076170000004,171.53857400000015,137.56396500000028,130.0,124.87158199999976,118.58984400000008,135.6411130000006,87.69238299999961,118.3334960000002,452.82031300000017,265.89746099999957
113,288.20507799999996,1095.1284180000002,158.46142599999985,490.12841800000024,156.53857400000015,133.46142599999985,123.20507799999996,119.23095699999976,115.64111300000059,129.23095699999976,92.43603499999972,117.30761700000039,430.0,266.2822270000006
114,283.20507799999996,1058.4614259999998,148.20507799999996,485.12841800000024,133.84619099999964,125.64111300000059,116.53857400000015,114.23095699999976,114.48730499999965,124.74365200000011,96.15380900000036,116.0258789999998,413.3334960000002,257.6923829999996
115,279.6152340000008,1014.4873049999997,139.7436520000001,482.05126999999993,108.7177729999994,117.82031300000017,115.0,112.43603499999972,115.38476599999922,122.17968800000017,97.82031300000017,116.15380900000036,400.76904300000024,242.17968800000017
116,277.82031300000017,970.1284180000002,135.2563479999999,480.0,84.10253900000043,112.82031300000017,117.30761700000039,111.6665039999998,115.64111300000059,116.2822270000006,95.38476599999922,117.30761700000039,387.3076170000004,221.0258789999998
117,275.51269500000035,930.6411130000006,134.10253900000043,476.0258789999998,63.7177729999994,111.53857400000015,119.23095699999976,109.48730499999965,112.94873000000007,104.23095699999976,90.38476599999922,118.0771479999994,370.51269500000035,197.3076170000004
118,272.3076170000004,899.1025390000004,135.89746099999957,469.7436520000001,55.25634799999989,113.58984400000008,118.0771479999994,107.30761700000039,108.84619099999964,92.17968800000017,87.82031300000017,117.05126999999993,353.9741210000002,176.2822270000006
119,270.2563479999999,876.0258789999998,139.7436520000001,464.23095699999976,64.23095699999976,117.17968800000017,114.74365200000011,108.20507799999996,106.9228520000006,90.25634799999989,92.17968800000017,115.12841800000024,343.3334960000002,162.94873000000007
120,270.3847659999992,858.7177729999994,144.7436520000001,460.89746099999957,85.76904300000024,120.25634799999989,112.30761700000039,112.30761700000039,108.84619099999964,100.38476599999922,102.69238299999961,113.7177729999994,340.0,157.6923829999996
121,271.79492200000004,842.6923829999996,148.7177729999994,458.5898440000001,104.87158199999976,120.76904300000024,113.3334960000002,116.0258789999998,112.56396500000028,113.7177729999994,114.87158199999976,113.84619099999964,340.51269500000035,156.6665039999998
122,273.3334960000002,824.7436520000001,150.6411130000006,455.89746099999957,108.84619099999964,119.23095699999976,118.84619099999964,116.9228520000006,115.76904300000024,119.23095699999976,125.12841800000024,115.76904300000024,341.15380900000036,157.05126999999993
123,275.0,804.3588869999994,151.53857400000015,452.94873000000007,97.56396500000028,117.30761700000039,127.30761700000039,116.6665039999998,117.17968800000017,113.20507799999996,132.94873000000007,118.58984400000008,340.76904300000024,158.20507799999996
124,276.0258789999998,781.9228520000006,152.56396500000028,449.6152340000008,81.41015599999992,116.6665039999998,134.87158199999976,118.46142599999985,117.30761700000039,100.38476599999922,139.23095699999976,121.0258789999998,338.9741210000002,160.51269500000035
125,274.3588869999994,756.2822270000006,153.9741210000002,444.3588869999994,70.38476599999922,116.9228520000006,137.17968800000017,123.20507799999996,117.30761700000039,87.69238299999961,143.3334960000002,121.79492200000004,333.5898440000001,162.17968800000017
126,267.82031300000017,724.7436520000001,154.23095699999976,435.2563479999999,67.43603499999972,115.89746099999957,132.05126999999993,126.9228520000006,117.69238299999961,79.23095699999976,143.0771479999994,120.25634799999989,321.4101559999999,159.87158199999976
127,256.2822270000006,685.6411130000006,152.05126999999993,422.5639650000003,68.7177729999994,112.56396500000028,121.2822270000006,124.87158199999976,117.43603499999972,74.23095699999976,137.94873000000007,116.79492200000004,301.53857400000015,151.79492200000004
128,242.56396500000028,641.794922,147.94873000000007,410.2563479999999,70.12841800000024,108.0771479999994,110.38476599999922,115.0,114.61523400000078,70.64111300000059,130.51269500000035,112.94873000000007,277.17968800000017,140.6411130000006
129,231.41015599999992,601.2822270000006,144.61523400000078,402.6923829999996,69.87158199999976,104.61523400000078,104.74365200000011,101.41015599999992,108.3334960000002,68.3334960000002,125.51269500000035,110.51269500000035,254.3588869999994,132.94873000000007
130,226.79492200000004,572.9487300000001,145.38476599999922,402.5639650000003,67.56396500000028,103.58984400000008,106.2822270000006,91.9228520000006,101.15380900000036,69.10253900000043,127.30761700000039,111.15380900000036,238.7177729999994,133.58984400000008
131,228.46142599999985,558.8461909999996,150.6411130000006,406.6665039999998,62.17968800000017,104.74365200000011,112.56396500000028,91.41015599999992,97.30761700000039,74.10253900000043,135.38476599999922,114.10253900000043,230.76904300000024,141.0258789999998
132,231.6665039999998,552.1796880000002,157.94873000000007,408.7177729999994,52.82031300000017,106.9228520000006,118.20507799999996,98.46142599999985,99.74365200000011,80.64111300000059,144.48730499999965,117.17968800000017,226.2822270000006,148.3334960000002
133,231.2822270000006,542.3076170000004,164.3588869999994,403.5898440000001,43.7177729999994,108.7177729999994,119.10253900000043,107.05126999999993,107.43603499999972,84.23095699999976,149.48730499999965,118.20507799999996,220.38476599999922,149.61523400000078
134,226.41015599999992,523.0771479999994,169.48730499999965,392.3076170000004,41.79492200000004,108.7177729999994,115.64111300000059,111.41015599999992,116.15380900000036,83.0771479999994,150.12841800000024,117.30761700000039,211.6665039999998,145.51269500000035
135,219.23095699999976,495.76904300000024,174.3588869999994,379.23095699999976,49.35888699999941,106.9228520000006,111.53857400000015,109.87158199999976,121.2822270000006,78.20507799999996,148.9741210000002,116.15380900000036,202.82031300000017,139.7436520000001
136,211.79492200000004,465.3847659999992,179.87158199999976,366.6665039999998,58.974121000000196,104.10253900000043,110.0,103.9741210000002,119.23095699999976,72.69238299999961,147.3076170000004,116.2822270000006,197.17968800000017,133.7177729999994
137,204.23095699999976,436.9228520000006,185.12841800000024,353.46142599999985,58.0771479999994,101.9228520000006,110.76904300000024,97.17968800000017,110.25634799999989,68.58984400000008,144.48730499999965,117.17968800000017,196.9228520000006,124.61523400000078
138,197.3076170000004,413.5898440000001,189.3588869999994,338.0771479999994,41.410155999999915,101.9228520000006,112.17968800000017,93.9741210000002,99.35888699999941,65.89746099999957,140.89746099999957,116.9228520000006,203.0771479999994,110.76904300000024
139,193.84619099999964,397.6923829999996,193.3334960000002,323.0771479999994,18.846190999999635,104.87158199999976,112.82031300000017,97.56396500000028,94.74365200000011,64.10253900000043,140.51269500000035,115.25634799999989,216.0258789999998,95.64111300000059
140,196.79492200000004,389.6152340000008,198.3334960000002,313.0771479999994,10.128418000000238,110.25634799999989,113.84619099999964,107.94873000000007,101.41015599999992,64.74365200000011,148.0771479999994,114.35888699999941,234.48730499999965,86.15380900000036
141,205.2563479999999,386.15380900000036,204.23095699999976,309.10253900000043,28.205077999999958,116.2822270000006,116.0258789999998,121.2822270000006,117.05126999999993,69.87158199999976,163.46142599999985,116.2822270000006,253.9741210000002,86.2822270000006
142,212.6923829999996,380.2563479999999,206.79492200000004,306.53857400000015,64.74365200000011,120.12841800000024,117.82031300000017,130.76904300000024,132.17968800000017,78.84619099999964,178.46142599999985,120.38476599999922,267.4360349999997,91.41015599999992
143,210.38476599999922,363.7177729999994,200.89746099999957,296.9228520000006,92.94873000000007,119.61523400000078,116.15380900000036,130.0,137.05126999999993,86.53857400000015,182.05126999999993,123.3334960000002,268.9741210000002,92.05126999999993
144,193.9741210000002,333.84619099999964,184.87158199999976,275.89746099999957,88.9741210000002,115.51269500000035,108.3334960000002,117.30761700000039,128.3334960000002,86.0258789999998,168.58984400000008,121.9228520000006,258.84619099999964,81.41015599999992
145,169.48730499999965,297.17968800000017,163.9741210000002,247.56396500000028,54.74365200000011,110.38476599999922,96.0258789999998,99.10253900000043,111.0258789999998,75.51269500000035,143.84619099999964,115.51269500000035,244.23095699999976,62.30761700000039
146,150.38476599999922,266.2822270000006,147.43603499999972,222.56396500000028,17.17968800000017,107.94873000000007,85.64111300000059,86.53857400000015,94.87158199999976,61.2822270000006,122.17968800000017,108.0771479999994,235.6411130000006,46.153809000000365
147,147.56396500000028,249.7436520000001,142.17968800000017,210.12841800000024,5.3847659999992175,108.9741210000002,83.46142599999985,87.43603499999972,87.17968800000017,53.333496000000196,115.89746099999957,104.48730499999965,238.0771479999994,43.46142599999985
148,160.12841800000024,246.2822270000006,148.0771479999994,210.6411130000006,26.282227000000603,111.79492200000004,91.6665039999998,100.38476599999922,89.48730499999965,56.79492200000004,127.05126999999993,107.56396500000028,247.6923829999996,55.0
149,177.17968800000017,245.51269500000035,157.6923829999996,215.89746099999957,61.2822270000006,113.58984400000008,105.76904300000024,116.0258789999998,98.7177729999994,67.82031300000017,146.15380900000036,115.38476599999922,255.51269500000035,71.41015599999992
150,185.6411130000006,236.79492200000004,162.05126999999993,215.2563479999999,83.9741210000002,113.58984400000008,117.43603499999972,123.9741210000002,109.35888699999941,77.56396500000028,159.23095699999976,122.43603499999972,254.23095699999976,80.64111300000059
151,179.61523400000078,216.6665039999998,156.9228520000006,203.84619099999964,81.9228520000006,111.9228520000006,119.87158199999976,119.74365200000011,115.76904300000024,77.94873000000007,157.56396500000028,124.23095699999976,242.94873000000007,77.17968800000017
152,163.7177729999994,191.41015599999992,146.41015599999992,185.51269500000035,63.846190999999635,109.23095699999976,112.82031300000017,106.9228520000006,115.64111300000059,68.84619099999964,143.46142599999985,120.51269500000035,227.6923829999996,65.25634799999989
153,150.0,171.79492200000004,138.84619099999964,168.9741210000002,49.23095699999976,106.15380900000036,102.17968800000017,94.87158199999976,111.2822270000006,58.0771479999994,128.58984400000008,115.38476599999922,217.56396500000028,55.51269500000035
154,147.56396500000028,164.10253900000043,140.2563479999999,160.38476599999922,50.38476599999922,103.58984400000008,95.89746099999957,92.17968800000017,108.46142599999985,56.025878999999804,125.12841800000024,113.58984400000008,218.7177729999994,56.025878999999804
155,157.17968800000017,165.6411130000006,149.48730499999965,159.48730499999965,64.10253900000043,103.3334960000002,97.82031300000017,101.15380900000036,112.05126999999993,67.30761700000039,136.15380900000036,117.17968800000017,230.0,66.79492200000004
156,171.53857400000015,168.0771479999994,160.6411130000006,161.2822270000006,78.84619099999964,106.15380900000036,106.2822270000006,117.30761700000039,122.69238299999961,86.79492200000004,155.2563479999999,124.48730499999965,244.7436520000001,82.43603499999972
157,183.0771479999994,165.0,167.3076170000004,161.6665039999998,87.30761700000039,110.25634799999989,116.53857400000015,132.56396500000028,136.15380900000036,103.46142599999985,172.43603499999972,131.6665039999998,256.15380900000036,96.9228520000006
158,188.0771479999994,155.38476599999922,167.3076170000004,159.48730499999965,90.25634799999989,112.69238299999961,123.84619099999964,140.0,145.89746099999957,108.7177729999994,180.2563479999999,136.0258789999998,259.87158199999976,106.79492200000004
159,185.76904300000024,140.89746099999957,161.2822270000006,153.58984400000008,90.38476599999922,110.89746099999957,124.87158199999976,136.6665039999998,145.2563479999999,101.2822270000006,176.9228520000006,136.0258789999998,254.3588869999994,109.61523400000078
160,177.17968800000017,122.43603499999972,152.6923829999996,142.05126999999993,86.15380900000036,105.12841800000024,118.84619099999964,124.35888699999941,131.9228520000006,87.30761700000039,165.2563479999999,132.6923829999996,241.15380900000036,103.3334960000002
161,164.10253900000043,99.48730499999965,145.12841800000024,124.74365200000011,73.58984400000008,98.0771479999994,107.56396500000028,108.84619099999964,111.15380900000036,75.25634799999989,150.6411130000006,127.82031300000017,224.48730499999965,89.10253900000043
162,150.38476599999922,72.30761700000039,140.2563479999999,105.64111300000059,51.9228520000006,92.82031300000017,95.12841800000024,96.53857400000015,92.43603499999972,69.23095699999976,137.94873000000007,122.94873000000007,209.87158199999976,71.79492200000004
163,139.7436520000001,43.846190999999635,136.9228520000006,91.2822270000006,28.205077999999958,91.6665039999998,86.53857400000015,91.2822270000006,83.7177729999994,66.9228520000006,130.0,118.9741210000002,200.51269500000035,57.82031300000017
164,134.23095699999976,17.94873000000007,133.46142599999985,85.25634799999989,15.0,94.61523400000078,84.61523400000078,93.0771479999994,86.15380900000036,63.20507799999996,126.41015599999992,116.41015599999992,196.2822270000006,51.2822270000006
165,133.46142599999985,-1.153809000000365,129.7436520000001,87.05126999999993,22.30761700000039,99.10253900000043,88.7177729999994,99.35888699999941,95.64111300000059,56.025878999999804,126.53857400000015,115.76904300000024,194.48730499999965,52.17968800000017
166,136.53857400000015,-11.28198199999997,128.0771479999994,93.3334960000002,47.82031300000017,102.05126999999993,96.15380900000036,107.43603499999972,107.43603499999972,50.76904300000024,130.76904300000024,117.56396500000028,193.84619099999964,58.333496000000196
167,142.05126999999993,-13.205077999999958,130.51269500000035,100.76904300000024,77.05126999999993,102.30761700000039,103.9741210000002,115.38476599999922,119.10253900000043,56.53857400000015,139.48730499999965,121.53857400000015,195.2563479999999,67.56396500000028
168,148.46142599999985,-11.923095999999987,136.53857400000015,106.6665039999998,93.20507799999996,101.2822270000006,109.48730499999965,120.76904300000024,129.10253900000043,76.2822270000006,150.76904300000024,125.51269500000035,198.46142599999985,77.17968800000017
169,152.05126999999993,-14.743652000000111,142.3076170000004,108.46142599999985,90.51269500000035,101.0258789999998,110.0,121.0258789999998,133.46142599999985,100.25634799999989,158.84619099999964,127.05126999999993,200.2563479999999,83.58984400000008
170,150.0,-27.435790999999426,143.7177729999994,104.87158199999976,77.05126999999993,102.94873000000007,105.51269500000035,115.12841800000024,128.3334960000002,111.41015599999992,158.3334960000002,125.25634799999989,195.89746099999957,83.7177729999994
171,142.94873000000007,-47.948729999999614,140.2563479999999,97.56396500000028,67.05126999999993,106.6665039999998,98.9741210000002,106.15380900000036,114.74365200000011,100.25634799999989,149.7436520000001,121.6665039999998,184.3588869999994,78.58984400000008
172,136.2822270000006,-67.56420900000057,136.2822270000006,91.0258789999998,69.35888699999941,111.6665039999998,95.89746099999957,101.15380900000036,101.2822270000006,75.51269500000035,140.12841800000024,119.10253900000043,169.87158199999976,73.7177729999994
173,134.87158199999976,-78.07690400000001,136.15380900000036,88.46142599999985,80.64111300000059,117.05126999999993,99.48730499999965,105.12841800000024,98.0771479999994,56.153809000000365,136.6665039999998,119.61523400000078,158.0771479999994,74.23095699999976
174,138.7177729999994,-79.48706099999981,140.12841800000024,88.9741210000002,87.94873000000007,120.76904300000024,107.43603499999972,115.51269500000035,107.30761700000039,54.61523400000078,140.12841800000024,122.17968800000017,149.87158199999976,80.12841800000024
175,142.82031300000017,-79.48706099999981,144.61523400000078,88.84619099999964,82.30761700000039,121.41015599999992,114.23095699999976,124.61523400000078,121.0258789999998,66.6665039999998,145.51269500000035,124.10253900000043,142.05126999999993,86.53857400000015
176,143.3334960000002,-85.64111300000013,146.2822270000006,86.41015599999992,68.7177729999994,119.23095699999976,115.64111300000059,126.2822270000006,129.10253900000043,78.3334960000002,148.58984400000008,123.46142599999985,131.79492200000004,88.46142599999985
177,140.51269500000035,-98.58984399999963,144.23095699999976,82.82031300000017,61.410155999999915,116.6665039999998,111.9228520000006,121.41015599999992,127.82031300000017,80.25634799999989,148.20507799999996,120.89746099999957,120.38476599999922,85.51269500000035
178,136.53857400000015,-114.48706099999981,140.12841800000024,79.10253900000043,68.58984400000008,115.64111300000059,106.53857400000015,115.38476599999922,120.51269500000035,73.7177729999994,145.76904300000024,118.46142599999985,109.61523400000078,80.25634799999989
179,132.05126999999993,-128.84619099999964,135.0,74.23095699999976,82.94873000000007,115.38476599999922,101.9228520000006,112.17968800000017,113.20507799999996,66.6665039999998,141.79492200000004,117.56396500000028,99.48730499999965,75.12841800000024
180,126.79492200000004,-138.97436500000003,130.51269500000035,66.0258789999998,88.58984400000008,114.23095699999976,99.48730499999965,111.6665039999998,109.10253900000043,65.0,137.05126999999993,118.0771479999994,89.23095699999976,71.0258789999998
181,122.30761700000039,-144.23071300000038,128.46142599999985,55.76904300000024,77.56396500000028,111.2822270000006,99.35888699999941,111.53857400000015,108.46142599999985,69.48730499999965,133.3334960000002,119.10253900000043,79.74365200000011,68.7177729999994
182,121.0258789999998,-146.15380900000036,130.0,48.333496000000196,57.94873000000007,108.58984400000008,101.15380900000036,110.76904300000024,110.25634799999989,77.69238299999961,133.46142599999985,119.87158199999976,72.94873000000007,68.9741210000002
183,123.20507799999996,-147.3076170000004,134.3588869999994,47.82031300000017,47.05126999999993,108.58984400000008,104.23095699999976,110.25634799999989,114.10253900000043,86.15380900000036,138.46142599999985,120.51269500000035,69.35888699999941,71.2822270000006
184,127.17968800000017,-149.8718259999996,138.84619099999964,54.48730499999965,56.666503999999804,112.05126999999993,107.17968800000017,111.41015599999992,119.35888699999941,92.94873000000007,146.41015599999992,121.2822270000006,66.79492200000004,73.9741210000002
185,129.3588869999994,-154.35888699999987,141.41015599999992,63.7177729999994,83.3334960000002,117.30761700000039,108.84619099999964,114.74365200000011,124.61523400000078,96.2822270000006,152.17968800000017,121.9228520000006,61.2822270000006,75.64111300000059
186,127.56396500000028,-160.38452099999995,140.51269500000035,69.10253900000043,108.7177729999994,121.79492200000004,108.84619099999964,118.7177729999994,126.79492200000004,94.87158199999976,151.41015599999992,121.41015599999992,50.38476599999922,74.87158199999976
187,121.79492200000004,-167.179443,136.79492200000004,67.56396500000028,115.0,123.46142599999985,107.30761700000039,121.0258789999998,123.46142599999985,87.56396500000028,143.46142599999985,119.74365200000011,35.25634799999989,71.9228520000006
188,115.64111300000059,-173.58984399999963,132.56396500000028,60.51269500000035,98.7177729999994,121.6665039999998,105.0,120.51269500000035,115.51269500000035,76.15380900000036,133.46142599999985,118.20507799999996,21.282227000000603,68.46142599999985
189,113.0771479999994,-177.56420900000057,131.0258789999998,53.46142599999985,72.69238299999961,117.69238299999961,103.20507799999996,118.3334960000002,107.94873000000007,66.0258789999998,128.3334960000002,119.10253900000043,14.743652000000111,67.82031300000017
190,116.0258789999998,-178.84619099999964,133.3334960000002,50.38476599999922,53.589844000000085,113.3334960000002,102.56396500000028,116.53857400000015,106.15380900000036,62.43603499999972,131.2822270000006,122.82031300000017,16.922852000000603,70.89746099999957
191,120.89746099999957,-180.76928699999962,137.17968800000017,51.025878999999804,47.94873000000007,109.35888699999941,102.30761700000039,114.61523400000078,110.38476599999922,65.89746099999957,138.7177729999994,126.79492200000004,22.30761700000039,74.87158199999976
192,121.53857400000015,-188.46142599999985,138.20507799999996,50.897460999999566,50.0,105.25634799999989,100.51269500000035,110.25634799999989,115.25634799999989,71.53857400000015,143.0771479999994,127.43603499999972,22.05126999999993,74.35888699999941
193,115.25634799999989,-203.33325200000036,134.10253900000043,46.666503999999804,50.51269500000035,100.51269500000035,97.30761700000039,102.30761700000039,116.2822270000006,73.58984400000008,139.87158199999976,123.46142599999985,12.307617000000391,67.69238299999961
194,106.53857400000015,-218.46142599999985,128.20507799999996,40.64111300000059,47.30761700000039,96.79492200000004,95.64111300000059,95.0,114.10253900000043,71.41015599999992,132.56396500000028,117.69238299999961,-1.9228520000006029,59.74365200000011
195,104.10253900000043,-223.076904,126.0258789999998,39.23095699999976,47.43603499999972,97.05126999999993,99.74365200000011,96.41015599999992,113.9741210000002,70.38476599999922,129.7436520000001,114.23095699999976,-10.38452099999995,58.589844000000085
196,111.53857400000015,-212.9487299999996,130.2563479999999,45.76904300000024,58.46142599999985,102.43603499999972,109.74365200000011,109.23095699999976,119.10253900000043,74.61523400000078,136.41015599999992,115.12841800000024,-7.820557000000008,67.43603499999972
197,123.0771479999994,-196.28198199999997,136.79492200000004,55.64111300000059,78.20507799999996,110.38476599999922,119.48730499999965,126.2822270000006,125.89746099999957,80.51269500000035,147.94873000000007,118.7177729999994,0.769043000000238,80.12841800000024
198,128.3334960000002,-187.820557,139.23095699999976,59.87158199999976,94.61523400000078,115.76904300000024,121.53857400000015,135.51269500000035,127.56396500000028,79.74365200000011,154.7436520000001,121.79492200000004,4.6152340000007825,86.0258789999998
199,122.30761700000039,-195.76928699999962,135.6411130000006,53.7177729999994,95.89746099999957,115.51269500000035,113.84619099999964,130.12841800000024,121.41015599999992,69.23095699999976,150.89746099999957,121.53857400000015,-2.3076170000003913,79.74365200000011
200,109.23095699999976,-215.64111300000013,129.87158199999976,41.666503999999804,81.53857400000015,110.64111300000059,101.6665039999998,115.38476599999922,112.30761700000039,56.410155999999915,138.84619099999964,118.46142599999985,-16.794922000000042,66.0258789999998
201,98.20507799999996,-235.5129390000002,126.79492200000004,32.82031300000017,61.025878999999804,105.0,93.0771479999994,102.05126999999993,107.05126999999993,53.333496000000196,126.15380900000036,115.38476599999922,-30.641113000000132,54.35888699999941
202,93.7177729999994,-247.0512700000004,127.69238299999961,32.56396500000028,46.410155999999915,101.79492200000004,91.79492200000004,97.17968800000017,107.56396500000028,64.10253900000043,118.20507799999996,114.48730499999965,-38.974365000000034,50.25634799999989
203,94.10253900000043,-249.8718259999996,129.3588869999994,37.82031300000017,44.35888699999941,101.9228520000006,95.0,99.10253900000043,108.58984400000008,79.48730499999965,115.76904300000024,115.51269500000035,-42.564209000000574,51.666503999999804
204,94.35888699999941,-248.46142599999985,128.58984400000008,41.025878999999804,55.25634799999989,103.84619099999964,96.79492200000004,100.51269500000035,103.0771479999994,85.76904300000024,116.2822270000006,116.53857400000015,-45.38452099999995,53.20507799999996
205,91.41015599999992,-247.179443,124.87158199999976,37.94873000000007,72.56396500000028,104.87158199999976,93.46142599999985,96.0258789999998,89.87158199999976,76.15380900000036,116.6665039999998,115.76904300000024,-49.61547900000005,51.410155999999915
206,86.2822270000006,-248.076904,121.2822270000006,31.922852000000603,86.79492200000004,103.84619099999964,86.9228520000006,87.30761700000039,75.64111300000059,56.666503999999804,116.0258789999998,113.84619099999964,-53.71801800000003,47.43603499999972
207,83.20507799999996,-250.0,121.79492200000004,30.51269500000035,90.12841800000024,101.79492200000004,82.56396500000028,80.89746099999957,69.87158199999976,41.410155999999915,115.51269500000035,113.0771479999994,-54.61547900000005,45.38476599999922
208,84.48730499999965,-251.28198199999997,126.9228520000006,36.79492200000004,80.76904300000024,100.89746099999957,83.7177729999994,82.17968800000017,76.6665039999998,42.17968800000017,116.41015599999992,115.0,-51.025634999999966,48.333496000000196
209,87.94873000000007,-252.3076170000004,132.82031300000017,45.64111300000059,63.333496000000196,102.69238299999961,88.0771479999994,89.61523400000078,90.25634799999989,57.56396500000028,118.7177729999994,117.94873000000007,-45.89746100000002,53.974121000000196
210,88.46142599999985,-256.28198199999997,133.84619099999964,47.56396500000028,46.153809000000365,106.41015599999992,90.0,95.89746099999957,99.48730499999965,73.7177729999994,120.51269500000035,118.7177729999994,-44.10253899999998,56.79492200000004
211,84.74365200000011,-263.33325200000036,129.87158199999976,40.12841800000024,40.0,110.51269500000035,87.56396500000028,96.79492200000004,99.10253900000043,76.79492200000004,122.94873000000007,116.53857400000015,-45.89746100000002,55.0
212,82.94873000000007,-267.5642090000006,126.79492200000004,31.410155999999915,52.05126999999993,114.48730499999965,85.51269500000035,96.41015599999992,95.25634799999989,66.2822270000006,129.48730499999965,114.74365200000011,-45.25634799999989,54.35888699999941
213,89.74365200000011,-262.3076170000004,131.0258789999998,32.82031300000017,77.82031300000017,118.20507799999996,90.51269500000035,101.9228520000006,98.58984400000008,54.102539000000434,142.17968800000017,117.05126999999993,-36.79492200000004,61.9228520000006
214,103.46142599999985,-250.1281740000004,140.89746099999957,46.2822270000006,100.38476599999922,120.0,102.69238299999961,113.3334960000002,111.9228520000006,52.56396500000028,155.89746099999957,122.94873000000007,-23.58984399999963,76.79492200000004
215,113.3334960000002,-242.820557,147.6923829999996,60.897460999999566,101.41015599999992,117.82031300000017,113.7177729999994,122.05126999999993,125.89746099999957,62.69238299999961,161.53857400000015,128.0771479999994,-16.538574000000153,88.46142599999985
216,108.20507799999996,-252.0512700000004,142.6923829999996,61.9228520000006,76.15380900000036,110.76904300000024,114.35888699999941,118.20507799999996,127.56396500000028,75.12841800000024,153.7177729999994,127.56396500000028,-24.487060999999812,86.15380900000036
217,87.43603499999972,-278.46142599999985,126.0258789999998,43.333496000000196,38.46142599999985,101.9228520000006,101.79492200000004,101.41015599999992,112.43603499999972,78.46142599999985,136.53857400000015,121.0258789999998,-46.025634999999966,68.0771479999994
218,61.9228520000006,-309.61547900000005,106.79492200000004,14.743652000000111,10.384765999999217,96.41015599999992,83.20507799999996,81.6665039999998,88.3334960000002,68.9741210000002,120.64111300000059,112.17968800000017,-69.8718259999996,44.23095699999976
219,47.30761700000039,-328.33325200000036,97.69238299999961,-5.769286999999622,7.692382999999609,98.3334960000002,70.38476599999922,71.79492200000004,71.0258789999998,54.48730499999965,115.76904300000024,106.6665039999998,-83.33325200000036,29.230956999999762
220,52.82031300000017,-323.84619099999964,105.0,-4.61547900000005,31.153809000000365,107.05126999999993,71.41015599999992,77.94873000000007,72.17968800000017,48.846190999999635,125.12841800000024,107.94873000000007,-80.51293900000019,32.43603499999972
221,74.87158199999976,-298.71801800000003,123.84619099999964,17.17968800000017,67.43603499999972,117.56396500000028,84.87158199999976,95.0,90.76904300000024,59.48730499999965,142.94873000000007,115.0,-66.28198199999997,51.53857400000015
222,99.10253900000043,-267.5642090000006,141.41015599999992,44.48730499999965,97.69238299999961,124.48730499999965,100.38476599999922,110.51269500000035,112.94873000000007,79.35888699999941,157.43603499999972,122.17968800000017,-54.35888699999987,73.20507799999996
223,110.51269500000035,-247.3076170000004,145.89746099999957,60.51269500000035,109.10253900000043,124.61523400000078,106.9228520000006,114.35888699999941,122.69238299999961,92.82031300000017,159.10253900000043,124.23095699999976,-56.53857400000015,83.20507799999996
224,103.9741210000002,-246.41015600000037,136.53857400000015,58.974121000000196,100.51269500000035,119.61523400000078,101.41015599999992,105.89746099999957,115.12841800000024,90.64111300000059,147.56396500000028,120.51269500000035,-74.23071300000038,76.41015599999992
225,87.56396500000028,-258.58984399999963,122.69238299999961,47.43603499999972,81.6665039999998,114.23095699999976,91.41015599999992,94.87158199999976,100.51269500000035,78.9741210000002,132.05126999999993,115.64111300000059,-96.28198199999997,60.38476599999922
226,74.74365200000011,-269.8718259999996,115.64111300000059,39.102539000000434,66.0258789999998,112.56396500000028,87.05126999999993,92.17968800000017,94.10253900000043,72.30761700000039,123.20507799999996,114.35888699999941,-109.61547900000005,47.43603499999972
227,72.17968800000017,-269.61547900000005,118.7177729999994,39.35888699999941,61.9228520000006,115.12841800000024,92.05126999999993,99.74365200000011,100.51269500000035,78.84619099999964,124.48730499999965,116.15380900000036,-111.02563499999997,43.7177729999994
228,74.87158199999976,-258.58984399999963,125.64111300000059,43.333496000000196,68.46142599999985,118.9741210000002,101.0258789999998,109.74365200000011,111.0258789999998,92.17968800000017,130.0,117.05126999999993,-109.8718259999996,45.12841800000024
229,73.46142599999985,-246.41015600000037,127.43603499999972,42.94873000000007,79.35888699999941,120.76904300000024,105.25634799999989,112.43603499999972,113.3334960000002,98.58984400000008,130.6411130000006,113.84619099999964,-117.43579099999943,42.56396500000028
230,64.74365200000011,-241.53857400000015,121.41015599999992,37.82031300000017,87.94873000000007,120.25634799999989,101.6665039999998,106.9228520000006,104.87158199999976,91.15380900000036,123.9741210000002,107.69238299999961,-134.8718259999996,33.589844000000085
231,55.51269500000035,-244.61547900000005,113.0771479999994,35.12841800000024,91.53857400000015,119.23095699999976,95.38476599999922,101.0258789999998,94.35888699999941,75.64111300000059,115.89746099999957,103.46142599999985,-152.6923829999996,23.846190999999635
232,52.82031300000017,-249.4870609999998,109.87158199999976,40.64111300000059,88.46142599999985,119.48730499999965,94.10253900000043,101.79492200000004,91.79492200000004,62.94873000000007,113.20507799999996,105.0,-161.53857400000015,20.641113000000587
233,56.410155999999915,-251.79492200000004,112.56396500000028,50.64111300000059,77.56396500000028,120.12841800000024,99.10253900000043,108.0771479999994,97.94873000000007,58.7177729999994,116.2822270000006,110.76904300000024,-160.76928699999962,24.102539000000434
234,58.7177729999994,-251.79492200000004,115.89746099999957,54.74365200000011,59.87158199999976,119.23095699999976,104.48730499999965,111.9228520000006,104.74365200000011,60.25634799999989,119.10253900000043,115.0,-158.20507799999996,26.410155999999915
235,53.333496000000196,-253.076904,114.23095699999976,46.666503999999804,41.53857400000015,116.15380900000036,103.20507799999996,107.05126999999993,103.7177729999994,61.53857400000015,116.0258789999998,112.69238299999961,-161.66674799999964,20.897460999999566
236,40.25634799999989,-257.6923829999996,107.05126999999993,29.871581999999762,32.17968800000017,112.69238299999961,94.35888699999941,94.74365200000011,93.58984400000008,58.846190999999635,107.05126999999993,104.61523400000078,-172.179443,7.820313000000169
237,26.153809000000365,-264.8718259999996,99.10253900000043,15.256347999999889,36.666503999999804,110.76904300000024,83.3334960000002,81.9228520000006,81.15380900000036,52.69238299999961,96.79492200000004,96.15380900000036,-184.8718259999996,-5.641113000000132
238,18.846190999999635,-270.7692869999996,96.15380900000036,12.56396500000028,52.17968800000017,111.15380900000036,77.56396500000028,75.51269500000035,75.51269500000035,47.05126999999993,91.0258789999998,93.0771479999994,-192.3076170000004,-11.41015600000037
239,23.077147999999397,-270.5129390000002,100.89746099999957,23.461425999999847,71.2822270000006,113.58984400000008,81.41015599999992,80.12841800000024,82.56396500000028,48.0771479999994,93.84619099999964,97.56396500000028,-189.35888699999987,-5.256347999999889
240,36.666503999999804,-261.53857400000015,111.2822270000006,40.25634799999989,86.9228520000006,116.41015599999992,93.3334960000002,95.0,99.48730499999965,58.589844000000085,106.15380900000036,106.41015599999992,-175.38452099999995,10.256347999999889
241,51.410155999999915,-248.076904,120.89746099999957,50.76904300000024,94.35888699999941,117.82031300000017,106.2822270000006,113.46142599999985,116.53857400000015,73.58984400000008,123.46142599999985,114.23095699999976,-157.6923829999996,26.410155999999915
242,58.0771479999994,-239.7436520000001,123.9741210000002,47.30761700000039,90.76904300000024,116.15380900000036,112.43603499999972,125.12841800000024,122.94873000000007,82.56396500000028,137.6923829999996,116.2822270000006,-146.79492200000004,33.974121000000196
243,53.333496000000196,-244.35888699999987,119.23095699999976,32.56396500000028,78.0771479999994,112.17968800000017,109.10253900000043,123.58984400000008,115.89746099999957,77.82031300000017,142.43603499999972,112.05126999999993,-149.23071300000038,29.358886999999413
244,42.05126999999993,-259.35888699999987,111.53857400000015,17.94873000000007,64.48730499999965,108.3334960000002,100.25634799999989,111.79492200000004,102.43603499999972,63.333496000000196,137.82031300000017,105.51269500000035,-161.923096,17.82031300000017
245,33.46142599999985,-273.97436500000003,106.9228520000006,15.641113000000587,59.102539000000434,107.43603499999972,93.3334960000002,100.0,93.9741210000002,51.2822270000006,130.0,102.30761700000039,-174.7436520000001,9.358886999999413
246,33.589844000000085,-276.53857400000015,108.0771479999994,28.333496000000196,64.10253900000043,110.25634799999989,92.69238299999961,97.56396500000028,96.41015599999992,53.0771479999994,126.9228520000006,105.38476599999922,-178.71801800000003,10.512695000000349
247,42.05126999999993,-263.84619099999964,113.46142599999985,47.17968800000017,74.35888699999941,115.38476599999922,97.69238299999961,106.2822270000006,107.82031300000017,70.89746099999957,132.17968800000017,112.56396500000028,-171.79492200000004,20.769043000000238
248,53.46142599999985,-243.46142599999985,118.9741210000002,58.846190999999635,83.58984400000008,119.74365200000011,104.10253900000043,120.12841800000024,121.41015599999992,97.69238299999961,143.46142599999985,118.46142599999985,-159.23071300000038,33.46142599999985
249,61.410155999999915,-228.97436500000003,120.89746099999957,55.76904300000024,88.84619099999964,121.2822270000006,107.69238299999961,129.48730499999965,129.48730499999965,120.38476599999922,153.46142599999985,119.35888699999941,-149.35888699999987,41.153809000000365
250,61.79492200000004,-230.5129390000002,117.82031300000017,40.897460999999566,88.7177729999994,118.9741210000002,106.53857400000015,127.05126999999993,126.79492200000004,126.53857400000015,153.9741210000002,114.74365200000011,-149.10253899999998,38.974121000000196
251,54.102539000000434,-247.9487299999996,110.25634799999989,24.48730499999965,81.41015599999992,113.46142599999985,101.53857400000015,113.3334960000002,113.7177729999994,111.79492200000004,142.6923829999996,107.30761700000039,-160.0,27.82031300000017
252,42.30761700000039,-270.38452099999995,101.9228520000006,16.282227000000603,66.15380900000036,107.05126999999993,96.0258789999998,96.79492200000004,97.30761700000039,83.46142599999985,126.6665039999998,101.41015599999992,-176.15380900000036,14.615234000000783
253,33.20507799999996,-283.076904,97.17968800000017,20.128418000000238,47.69238299999961,102.82031300000017,94.10253900000043,88.84619099999964,87.94873000000007,57.82031300000017,117.43603499999972,100.51269500000035,-186.79492200000004,7.692382999999609
254,31.922852000000603,-278.33325200000036,98.3334960000002,31.538574000000153,36.2822270000006,103.0771479999994,96.9228520000006,94.87158199999976,91.53857400000015,49.48730499999965,121.9228520000006,104.23095699999976,-185.1281740000004,11.282227000000603
255,36.79492200000004,-261.53857400000015,103.20507799999996,40.76904300000024,40.25634799999989,107.05126999999993,102.05126999999993,109.61523400000078,103.84619099999964,59.87158199999976,136.15380900000036,108.58984400000008,-174.61547900000005,21.410155999999915
256,41.53857400000015,-246.79492200000004,106.9228520000006,40.64111300000059,60.64111300000059,112.17968800000017,104.87158199999976,121.15380900000036,114.35888699999941,77.69238299999961,148.20507799999996,108.9741210000002,-165.64111300000013,29.358886999999413
257,41.53857400000015,-244.4870609999998,106.0258789999998,31.666503999999804,89.61523400000078,115.64111300000059,102.94873000000007,121.0258789999998,114.74365200000011,88.9741210000002,149.48730499999965,104.74365200000011,-165.64111300000013,29.48730499999965
258,38.7177729999994,-252.9487299999996,101.9228520000006,22.69238299999961,115.89746099999957,116.41015599999992,98.3334960000002,111.9228520000006,105.64111300000059,88.20507799999996,141.2822270000006,99.35888699999941,-172.56420900000057,24.48730499999965
259,38.46142599999985,-261.41015600000037,99.48730499999965,22.94873000000007,129.23095699999976,115.51269500000035,95.25634799999989,103.84619099999964,96.15380900000036,79.23095699999976,132.6923829999996,97.43603499999972,-177.3076170000004,21.538574000000153
260,43.7177729999994,-260.0,101.6665039999998,33.46142599999985,125.51269500000035,114.10253900000043,96.41015599999992,104.35888699999941,95.25634799999989,70.12841800000024,131.6665039999998,100.76904300000024,-174.10253899999998,25.897460999999566
261,52.69238299999961,-248.076904,107.82031300000017,47.43603499999972,109.48730499999965,113.58984400000008,101.15380900000036,113.46142599999985,104.87158199999976,68.0771479999994,138.46142599999985,107.69238299999961,-164.61547900000005,36.153809000000365
262,59.74365200000011,-234.35888699999987,113.84619099999964,56.666503999999804,91.9228520000006,114.48730499999965,105.89746099999957,123.58984400000008,117.94873000000007,76.2822270000006,146.41015599999992,113.58984400000008,-156.41015600000037,45.12841800000024
263,59.61523400000078,-229.4870609999998,115.51269500000035,57.69238299999961,81.15380900000036,116.15380900000036,106.53857400000015,126.79492200000004,123.9741210000002,90.76904300000024,147.82031300000017,114.61523400000078,-156.41015600000037,46.2822270000006
264,50.38476599999922,-238.58984399999963,110.64111300000059,52.05126999999993,77.43603499999972,116.79492200000004,101.53857400000015,119.61523400000078,116.6665039999998,101.0258789999998,140.12841800000024,110.0,-166.28198199999997,37.56396500000028
265,35.25634799999989,-257.0512700000004,101.0258789999998,43.20507799999996,74.48730499999965,115.25634799999989,93.3334960000002,105.89746099999957,99.74365200000011,97.05126999999993,127.69238299999961,102.56396500000028,-180.89746100000002,22.69238299999961
266,21.153809000000365,-273.71801800000003,91.9228520000006,34.61523400000078,67.94873000000007,113.46142599999985,87.05126999999993,93.9741210000002,84.61523400000078,78.46142599999985,118.7177729999994,96.79492200000004,-191.15380900000036,9.615234000000783
267,15.512695000000349,-278.20507799999996,89.10253900000043,29.102539000000434,61.9228520000006,113.84619099999964,87.17968800000017,91.79492200000004,82.82031300000017,58.846190999999635,119.35888699999941,95.76904300000024,-189.35888699999987,5.769043000000238
268,21.538574000000153,-267.179443,94.61523400000078,28.846190999999635,64.74365200000011,117.17968800000017,94.61523400000078,101.0258789999998,96.79492200000004,55.51269500000035,130.38476599999922,99.35888699999941,-174.23071300000038,14.358886999999413
269,36.025878999999804,-246.923096,104.87158199999976,33.846190999999635,78.84619099999964,121.2822270000006,104.35888699999941,115.38476599999922,117.17968800000017,74.23095699999976,145.51269500000035,104.74365200000011,-152.820557,31.153809000000365
270,49.87158199999976,-229.7436520000001,112.69238299999961,39.74365200000011,93.84619099999964,122.17968800000017,108.9741210000002,123.9741210000002,128.0771479999994,100.64111300000059,154.61523400000078,108.0771479999994,-138.33325200000036,46.153809000000365
271,53.46142599999985,-226.41015600000037,111.9228520000006,40.51269500000035,93.7177729999994,117.43603499999972,102.82031300000017,118.7177729999994,118.58984400000008,111.0258789999998,150.0,106.9228520000006,-141.53857400000015,48.7177729999994
272,44.23095699999976,-237.820557,102.30761700000039,34.61523400000078,72.30761700000039,108.58984400000008,88.58984400000008,100.51269500000035,92.05126999999993,93.20507799999996,132.3076170000004,101.53857400000015,-162.9487299999996,35.897460999999566
273,29.230956999999762,-253.97436500000003,90.38476599999922,27.17968800000017,41.2822270000006,100.12841800000024,75.51269500000035,80.64111300000059,64.23095699999976,57.94873000000007,111.41015599999992,95.25634799999989,-190.0,15.641113000000587
274,19.230956999999762,-261.15380900000036,84.48730499999965,25.51269500000035,22.05126999999993,96.15380900000036,72.69238299999961,71.9228520000006,52.43603499999972,31.153809000000365,99.61523400000078,92.43603499999972,-206.15380900000036,1.5385740000001533
275,20.641113000000587,-253.33325200000036,87.69238299999961,32.17968800000017,29.74365200000011,97.94873000000007,81.53857400000015,79.48730499999965,62.56396500000028,31.153809000000365,102.69238299999961,94.23095699999976,-203.71801800000003,1.9228520000006029
276,30.25634799999989,-236.79492200000004,96.0258789999998,43.0771479999994,59.35888699999941,102.69238299999961,94.61523400000078,96.15380900000036,84.61523400000078,53.7177729999994,115.38476599999922,98.84619099999964,-189.35888699999987,13.974121000000196
277,38.7177729999994,-224.8718259999996,102.82031300000017,51.2822270000006,90.76904300000024,106.15380900000036,101.9228520000006,108.3334960000002,101.79492200000004,77.94873000000007,126.6665039999998,102.69238299999961,-177.0512700000004,26.666503999999804
278,39.48730499999965,-226.28198199999997,104.35888699999941,52.56396500000028,103.0771479999994,105.51269500000035,99.23095699999976,107.30761700000039,103.9741210000002,86.15380900000036,128.9741210000002,103.7177729999994,-175.5129390000002,30.897460999999566
279,34.35888699999941,-237.56420900000057,102.30761700000039,48.7177729999994,91.15380900000036,101.2822270000006,91.41015599999992,96.2822270000006,93.9741210000002,77.56396500000028,123.3334960000002,102.17968800000017,-182.56420900000057,26.666503999999804
280,31.538574000000153,-246.79492200000004,101.6665039999998,45.38476599999922,68.3334960000002,96.9228520000006,86.79492200000004,86.2822270000006,83.0771479999994,66.79492200000004,118.3334960000002,100.0,-187.6923829999996,21.922852000000603
281,36.79492200000004,-243.46142599999985,105.25634799999989,46.9228520000006,56.79492200000004,96.0258789999998,90.38476599999922,86.53857400000015,80.12841800000024,69.10253900000043,120.76904300000024,99.61523400000078,-182.56420900000057,24.358886999999413
282,47.69238299999961,-227.9487299999996,110.89746099999957,52.82031300000017,68.20507799999996,99.23095699999976,98.3334960000002,96.15380900000036,85.51269500000035,85.51269500000035,129.7436520000001,101.2822270000006,-168.84619099999964,33.46142599999985
283,54.87158199999976,-211.66674799999964,113.7177729999994,56.79492200000004,93.7177729999994,103.9741210000002,102.17968800000017,105.0,92.69238299999961,101.6665039999998,137.43603499999972,103.3334960000002,-156.79492200000004,41.410155999999915
284,50.897460999999566,-207.0512700000004,110.12841800000024,52.94873000000007,111.6665039999998,106.79492200000004,96.79492200000004,103.58984400000008,95.25634799999989,101.0258789999998,136.6665039999998,103.84619099999964,-156.41015600000037,40.51269500000035
285,37.05126999999993,-217.3076170000004,102.05126999999993,41.9228520000006,106.2822270000006,105.89746099999957,85.76904300000024,91.53857400000015,92.56396500000028,82.43603499999972,127.94873000000007,102.17968800000017,-167.179443,30.641113000000587
286,23.077147999999397,-232.9487299999996,95.25634799999989,31.153809000000365,82.43603499999972,102.43603499999972,78.58984400000008,78.58984400000008,89.61523400000078,61.153809000000365,118.84619099999964,99.61523400000078,-179.10253899999998,19.48730499999965
287,19.102539000000434,-240.0,94.48730499999965,29.615234000000783,60.0,99.35888699999941,81.9228520000006,75.76904300000024,91.15380900000036,54.74365200000011,117.30761700000039,98.7177729999994,-180.76928699999962,16.922852000000603
288,27.43603499999972,-231.79492200000004,99.35888699999941,39.48730499999965,57.82031300000017,98.9741210000002,93.46142599999985,86.2822270000006,97.17968800000017,67.05126999999993,124.35888699999941,100.0,-169.8718259999996,25.897460999999566
289,41.2822270000006,-213.84619099999964,105.12841800000024,54.74365200000011,78.3334960000002,101.79492200000004,104.35888699999941,102.69238299999961,103.58984400000008,86.6665039999998,134.10253900000043,102.30761700000039,-155.1281740000004,40.64111300000059
290,50.12841800000024,-199.23071300000038,107.30761700000039,65.12841800000024,106.9228520000006,105.25634799999989,106.6665039999998,113.7177729999994,105.38476599999922,97.30761700000039,138.3334960000002,103.84619099999964,-148.33325200000036,50.38476599999922
291,47.82031300000017,-197.6923829999996,105.0,64.61523400000078,121.9228520000006,106.0258789999998,100.12841800000024,113.20507799999996,101.0258789999998,91.2822270000006,134.23095699999976,103.58984400000008,-154.23071300000038,48.846190999999635
292,36.9228520000006,-209.10253899999998,101.15380900000036,55.51269500000035,111.6665039999998,102.94873000000007,91.15380900000036,103.7177729999994,93.20507799999996,75.38476599999922,125.76904300000024,102.17968800000017,-166.53857400000015,38.589844000000085
293,25.897460999999566,-223.58984399999963,99.35888699999941,46.53857400000015,82.30761700000039,99.10253900000043,87.43603499999972,93.7177729999994,87.17968800000017,63.7177729999994,119.61523400000078,100.51269500000035,-174.8718259999996,27.94873000000007
294,22.56396500000028,-230.5129390000002,100.12841800000024,46.025878999999804,53.20507799999996,98.3334960000002,90.76904300000024,89.74365200000011,87.17968800000017,65.38476599999922,118.9741210000002,99.23095699999976,-173.33325200000036,23.717772999999397
295,28.333496000000196,-225.0,101.79492200000004,56.410155999999915,44.35888699999941,102.69238299999961,97.43603499999972,92.69238299999961,93.9741210000002,78.3334960000002,122.82031300000017,98.20507799999996,-164.8718259999996,26.538574000000153
296,39.102539000000434,-210.38452099999995,102.94873000000007,72.43603499999972,63.589844000000085,109.87158199999976,102.43603499999972,98.9741210000002,104.61523400000078,92.43603499999972,128.46142599999985,98.0771479999994,-156.15380900000036,33.0771479999994
297,49.35888699999941,-194.4870609999998,103.84619099999964,84.61523400000078,102.43603499999972,115.51269500000035,103.0771479999994,104.74365200000011,114.74365200000011,99.48730499999965,133.9741210000002,99.35888699999941,-151.41015600000037,39.74365200000011
298,55.0,-184.61547900000005,104.74365200000011,84.61523400000078,139.23095699999976,116.2822270000006,99.74365200000011,107.17968800000017,119.74365200000011,97.82031300000017,137.94873000000007,101.2822270000006,-150.5129390000002,44.23095699999976
299,53.846190999999635,-185.1281740000004,103.9741210000002,70.76904300000024,150.76904300000024,111.6665039999998,94.23095699999976,104.61523400000078,115.38476599999922,91.41015599999992,138.20507799999996,101.9228520000006,-152.43579099999943,44.87158199999976
300,45.897460999999566,-195.64111300000013,99.61523400000078,49.74365200000011,126.41015599999992,103.7177729999994,87.94873000000007,96.2822270000006,100.89746099999957,83.58984400000008,132.82031300000017,99.61523400000078,-156.28198199999997,40.51269500000035
301,34.74365200000011,-209.4870609999998,92.69238299999961,32.94873000000007,77.56396500000028,96.9228520000006,82.56396500000028,85.12841800000024,82.05126999999993,76.79492200000004,122.69238299999961,95.25634799999989,-160.5129390000002,33.589844000000085
302,26.922852000000603,-217.56420900000057,87.94873000000007,28.717772999999397,32.94873000000007,95.51269500000035,80.38476599999922,77.43603499999972,70.12841800000024,73.0771479999994,113.58984400000008,91.15380900000036,-161.66674799999964,29.871581999999762
303,28.461425999999847,-214.4870609999998,89.74365200000011,37.56396500000028,18.461425999999847,100.12841800000024,83.0771479999994,78.7177729999994,74.48730499999965,75.25634799999989,111.9228520000006,90.25634799999989,-156.53857400000015,35.0
304,39.23095699999976,-203.20507799999996,97.82031300000017,52.69238299999961,39.74365200000011,107.56396500000028,89.87158199999976,88.9741210000002,93.84619099999964,84.23095699999976,120.0,93.3334960000002,-145.2563479999999,48.333496000000196
305,52.69238299999961,-192.0512700000004,107.30761700000039,65.12841800000024,79.87158199999976,112.43603499999972,97.69238299999961,102.30761700000039,117.17968800000017,95.51269500000035,133.0771479999994,98.84619099999964,-132.56420900000057,62.69238299999961
306,60.25634799999989,-188.33325200000036,112.17968800000017,70.64111300000059,112.82031300000017,111.53857400000015,102.43603499999972,110.89746099999957,130.0,100.76904300000024,142.82031300000017,103.3334960000002,-125.0,69.87158199999976
307,58.0771479999994,-193.20507799999996,110.0,71.2822270000006,121.2822270000006,106.2822270000006,102.17968800000017,110.89746099999957,125.38476599999922,93.0771479999994,143.7177729999994,103.84619099999964,-126.41015600000037,66.2822270000006
308,49.74365200000011,-200.89746100000002,103.9741210000002,72.30761700000039,107.17968800000017,101.79492200000004,98.46142599999985,105.12841800000024,107.82031300000017,75.25634799999989,136.53857400000015,100.76904300000024,-135.1281740000004,56.666503999999804
309,44.35888699999941,-202.56420900000057,100.12841800000024,76.79492200000004,87.69238299999961,102.82031300000017,95.64111300000059,101.0258789999998,91.15380900000036,60.25634799999989,129.10253900000043,97.69238299999961,-143.84619099999964,50.25634799999989
310,49.102539000000434,-193.58984399999963,103.0771479999994,83.84619099999964,81.6665039999998,110.12841800000024,97.69238299999961,104.74365200000011,88.84619099999964,62.82031300000017,130.0,98.3334960000002,-144.7436520000001,54.102539000000434
311,62.43603499999972,-177.3076170000004,111.0258789999998,88.84619099999964,92.69238299999961,119.48730499999965,103.20507799999996,115.89746099999957,103.3334960000002,87.56396500000028,141.0258789999998,102.56396500000028,-135.5129390000002,67.56396500000028
312,75.0,-164.4870609999998,116.9228520000006,86.53857400000015,106.41015599999992,124.10253900000043,107.30761700000039,126.41015599999992,124.10253900000043,123.3334960000002,153.84619099999964,106.6665039999998,-122.43579099999943,80.76904300000024
313,75.51269500000035,-165.2563479999999,113.9741210000002,73.9741210000002,103.20507799999996,120.25634799999989,105.12841800000024,126.2822270000006,134.87158199999976,148.58984400000008,156.2822270000006,106.15380900000036,-116.41015600000037,82.17968800000017
314,60.51269500000035,-180.64111300000013,101.79492200000004,52.94873000000007,78.9741210000002,109.35888699999941,96.2822270000006,112.82031300000017,125.76904300000024,145.51269500000035,142.6923829999996,100.38476599999922,-123.58984399999963,67.43603499999972
315,37.69238299999961,-201.28198199999997,87.05126999999993,32.43603499999972,50.25634799999989,98.3334960000002,84.61523400000078,93.7177729999994,100.76904300000024,113.3334960000002,119.35888699999941,92.43603499999972,-140.2563479999999,45.12841800000024
316,20.897460999999566,-213.71801800000003,78.7177729999994,23.461425999999847,40.25634799999989,95.0,76.0258789999998,80.76904300000024,74.74365200000011,70.38476599999922,100.38476599999922,87.05126999999993,-154.7436520000001,29.74365200000011
317,20.25634799999989,-210.5129390000002,81.2822270000006,31.153809000000365,58.0771479999994,101.6665039999998,74.61523400000078,81.2822270000006,62.94873000000007,42.30761700000039,96.2822270000006,87.30761700000039,-157.0512700000004,30.897460999999566
318,35.0,-195.1281740000004,91.9228520000006,49.102539000000434,89.87158199999976,113.7177729999994,80.38476599999922,92.43603499999972,70.64111300000059,44.23095699999976,107.56396500000028,91.9228520000006,-145.38452099999995,45.897460999999566
319,53.846190999999635,-178.20507799999996,102.69238299999961,63.589844000000085,110.89746099999957,123.0771479999994,88.9741210000002,104.74365200000011,89.87158199999976,70.0,125.38476599999922,97.82031300000017,-127.94872999999961,62.94873000000007
320,64.10253900000043,-169.61547900000005,107.43603499999972,63.46142599999985,106.2822270000006,124.74365200000011,95.38476599999922,110.12841800000024,107.30761700000039,99.35888699999941,138.3334960000002,101.2822270000006,-115.51293900000019,70.89746099999957
321,61.153809000000365,-171.28198199999997,105.0,49.74365200000011,82.94873000000007,120.25634799999989,97.17968800000017,107.82031300000017,113.58984400000008,113.58984400000008,140.76904300000024,101.0258789999998,-113.20507799999996,67.43603499999972
322,51.410155999999915,-177.0512700000004,99.74365200000011,34.48730499999965,64.35888699999941,115.12841800000024,95.64111300000059,103.7177729999994,109.87158199999976,108.7177729999994,135.12841800000024,98.46142599999985,-117.82055700000001,59.102539000000434
323,45.64111300000059,-178.20507799999996,96.79492200000004,30.641113000000587,70.0,113.7177729999994,94.61523400000078,104.87158199999976,104.35888699999941,95.76904300000024,128.84619099999964,96.41015599999992,-120.38452099999995,55.51269500000035
324,50.12841800000024,-170.1281740000004,98.58984400000008,41.53857400000015,99.61523400000078,116.41015599999992,96.2822270000006,113.7177729999994,105.12841800000024,89.61523400000078,128.0771479999994,96.6665039999998,-115.0,61.2822270000006
325,61.53857400000015,-156.53857400000015,103.20507799999996,58.333496000000196,132.17968800000017,120.0,100.0,126.15380900000036,113.20507799999996,97.69238299999961,133.20507799999996,99.23095699999976,-103.20507799999996,73.3334960000002
326,69.87158199999976,-147.179443,106.2822270000006,67.05126999999993,141.79492200000004,121.15380900000036,103.0771479999994,133.58984400000008,121.79492200000004,114.23095699999976,138.3334960000002,101.2822270000006,-93.46142599999985,82.30761700000039
327,66.9228520000006,-149.8718259999996,103.7177729999994,59.74365200000011,118.0771479999994,118.58984400000008,102.56396500000028,129.87158199999976,122.30761700000039,125.38476599999922,137.3076170000004,100.25634799999989,-93.97436500000003,80.76904300000024
328,52.56396500000028,-164.23071300000038,95.12841800000024,40.51269500000035,74.87158199999976,114.35888699999941,98.0771479999994,116.2822270000006,111.53857400000015,120.25634799999989,128.3334960000002,95.51269500000035,-106.15380900000036,68.0771479999994
329,33.974121000000196,-182.0512700000004,84.35888699999941,21.666503999999804,39.87158199999976,111.41015599999992,91.41015599999992,100.12841800000024,95.25634799999989,99.10253900000043,115.38476599999922,89.10253900000043,-123.71801800000003,51.410155999999915
330,20.128418000000238,-194.10253899999998,77.05126999999993,13.974121000000196,33.46142599999985,111.6665039999998,85.0,88.84619099999964,82.69238299999961,74.35888699999941,104.23095699999976,84.10253900000043,-137.6923829999996,39.61523400000078
331,16.410155999999915,-196.02563499999997,76.79492200000004,19.615234000000783,54.87158199999976,114.74365200000011,80.89746099999957,85.76904300000024,80.64111300000059,62.17968800000017,99.61523400000078,83.0771479999994,-141.923096,37.94873000000007
332,23.333496000000196,-188.58984399999963,83.20507799999996,33.20507799999996,86.2822270000006,118.58984400000008,80.38476599999922,89.87158199999976,88.0771479999994,70.12841800000024,102.82031300000017,86.9228520000006,-135.1281740000004,45.64111300000059
333,36.53857400000015,-176.28198199999997,92.82031300000017,47.05126999999993,108.84619099999964,121.41015599999992,84.35888699999941,98.20507799999996,98.58984400000008,90.89746099999957,112.05126999999993,93.58984400000008,-121.79492200000004,57.82031300000017
334,50.25634799999989,-163.46142599999985,100.76904300000024,56.025878999999804,116.41015599999992,122.17968800000017,91.15380900000036,107.43603499999972,105.0,107.69238299999961,122.82031300000017,100.25634799999989,-107.69238299999961,69.61523400000078
335,60.25634799999989,-153.84619099999964,104.48730499999965,61.410155999999915,115.64111300000059,121.41015599999992,97.82031300000017,114.74365200000011,105.0,108.58984400000008,130.89746099999957,104.10253900000043,-97.69238299999961,78.46142599999985
336,66.0258789999998,-148.20507799999996,104.87158199999976,66.6665039999998,115.25634799999989,121.0258789999998,101.41015599999992,118.46142599999985,102.05126999999993,96.15380900000036,134.7436520000001,104.10253900000043,-92.05127000000039,83.9741210000002
337,69.23095699999976,-145.0,104.61523400000078,73.84619099999964,117.30761700000039,121.6665039999998,100.76904300000024,118.58984400000008,100.76904300000024,83.84619099999964,135.89746099999957,101.53857400000015,-89.48706099999981,87.43603499999972
338,70.25634799999989,-143.33325200000036,105.64111300000059,80.25634799999989,116.53857400000015,122.69238299999961,96.79492200000004,115.64111300000059,103.0771479999994,82.30761700000039,135.6411130000006,98.9741210000002,-88.58984399999963,88.9741210000002
339,67.05126999999993,-144.8718259999996,106.41015599999992,80.51269500000035,106.79492200000004,121.79492200000004,90.64111300000059,109.23095699999976,105.25634799999989,90.38476599999922,133.0771479999994,97.82031300000017,-91.02563499999997,87.17968800000017
340,58.333496000000196,-152.0512700000004,104.23095699999976,72.56396500000028,87.82031300000017,117.56396500000028,83.84619099999964,99.74365200000011,102.56396500000028,97.17968800000017,126.2822270000006,97.43603499999972,-98.20507799999996,80.64111300000059
341,46.9228520000006,-164.23071300000038,98.3334960000002,60.76904300000024,66.79492200000004,111.41015599999992,78.46142599999985,89.35888699999941,93.84619099999964,93.46142599999985,115.89746099999957,96.79492200000004,-107.43579099999943,70.64111300000059
342,39.23095699999976,-175.64111300000013,92.17968800000017,54.23095699999976,53.589844000000085,106.9228520000006,76.53857400000015,82.56396500000028,84.10253900000043,81.15380900000036,107.30761700000039,95.25634799999989,-113.07690400000001,62.17968800000017
343,40.76904300000024,-179.4870609999998,89.87158199999976,58.20507799999996,52.82031300000017,106.9228520000006,78.84619099999964,82.30761700000039,80.89746099999957,71.6665039999998,106.6665039999998,93.9741210000002,-110.1281740000004,61.410155999999915
344,50.51269500000035,-173.20507799999996,93.20507799999996,69.61523400000078,59.23095699999976,111.2822270000006,83.9741210000002,87.94873000000007,86.53857400000015,75.0,115.25634799999989,93.58984400000008,-99.23071300000038,69.61523400000078
345,62.05126999999993,-161.28198199999997,99.23095699999976,79.61523400000078,64.23095699999976,116.41015599999992,89.87158199999976,95.64111300000059,96.15380900000036,90.51269500000035,127.05126999999993,94.35888699999941,-86.92309599999999,81.41015599999992
346,68.46142599999985,-150.38452099999995,103.84619099999964,82.05126999999993,65.51269500000035,119.23095699999976,94.74365200000011,101.2822270000006,103.20507799999996,107.17968800000017,134.10253900000043,96.15380900000036,-80.0,89.74365200000011
347,68.46142599999985,-144.8718259999996,104.74365200000011,78.58984400000008,69.61523400000078,118.9741210000002,98.46142599999985,104.74365200000011,105.25634799999989,113.3334960000002,133.3334960000002,98.58984400000008,-80.38452099999995,91.2822270000006
348,65.51269500000035,-144.61547900000005,102.82031300000017,76.6665039999998,83.84619099999964,117.30761700000039,100.89746099999957,107.94873000000007,105.51269500000035,105.51269500000035,127.30761700000039,100.89746099999957,-84.74365200000011,88.0771479999994
349,63.0771479999994,-147.3076170000004,100.25634799999989,80.51269500000035,106.53857400000015,115.64111300000059,101.41015599999992,110.89746099999957,107.30761700000039,90.12841800000024,121.0258789999998,101.6665039999998,-88.71801800000003,84.35888699999941
350,62.82031300000017,-149.23071300000038,98.84619099999964,88.46142599999985,127.82031300000017,114.23095699999976,99.48730499999965,111.9228520000006,110.0,78.20507799999996,117.82031300000017,100.51269500000035,-90.1281740000004,82.30761700000039
351,65.0,-145.89746100000002,99.48730499999965,95.25634799999989,137.82031300000017,113.46142599999985,97.05126999999993,110.51269500000035,110.64111300000059,78.46142599999985,119.87158199999976,98.46142599999985,-88.07690400000001,83.7177729999994
352,70.0,-135.38452099999995,102.17968800000017,97.30761700000039,134.3588869999994,113.84619099999964,97.05126999999993,109.74365200000011,108.58984400000008,91.2822270000006,127.69238299999961,97.69238299999961,-81.92309599999999,89.35888699999941
353,77.17968800000017,-122.05127000000039,105.64111300000059,94.61523400000078,121.6665039999998,115.51269500000035,100.89746099999957,112.69238299999961,106.0258789999998,108.84619099999964,138.46142599999985,99.35888699999941,-72.56420900000057,98.0771479999994
354,82.69238299999961,-114.8718259999996,106.53857400000015,89.23095699999976,106.9228520000006,117.30761700000039,105.51269500000035,118.0771479999994,105.38476599999922,120.51269500000035,146.53857400000015,102.05126999999993,-63.846190999999635,105.64111300000059
355,82.05126999999993,-120.76928699999962,102.94873000000007,83.20507799999996,95.64111300000059,117.94873000000007,106.41015599999992,120.64111300000059,107.30761700000039,120.51269500000035,146.79492200000004,103.0771479999994,-60.76928699999962,106.41015599999992
356,73.7177729999994,-137.43579099999943,96.2822270000006,78.7177729999994,89.87158199999976,116.15380900000036,101.0258789999998,116.6665039999998,110.25634799999989,111.6665039999998,138.3334960000002,100.38476599999922,-65.51293900000019,97.94873000000007
357,61.666503999999804,-154.4870609999998,90.51269500000035,77.30761700000039,87.69238299999961,112.43603499999972,92.43603499999972,107.94873000000007,112.05126999999993,102.30761700000039,126.2822270000006,95.0,-75.38452099999995,84.35888699999941
358,53.333496000000196,-160.64111300000013,89.10253900000043,79.61523400000078,86.15380900000036,108.7177729999994,86.15380900000036,100.89746099999957,111.9228520000006,99.10253900000043,117.94873000000007,90.64111300000059,-84.10253899999998,74.35888699999941
359,54.102539000000434,-152.179443,92.69238299999961,85.25634799999989,83.84619099999964,107.82031300000017,86.2822270000006,101.41015599999992,110.64111300000059,102.30761700000039,117.82031300000017,90.89746099999957,-86.53857400000015,74.35888699999941
360,63.46142599999985,-135.2563479999999,99.35888699999941,92.43603499999972,82.82031300000017,110.89746099999957,92.30761700000039,110.51269500000035,110.25634799999989,106.53857400000015,123.9741210000002,95.64111300000059,-82.05127000000039,82.94873000000007
361,73.58984400000008,-120.76928699999962,105.25634799999989,98.20507799999996,85.51269500000035,116.0258789999998,99.23095699999976,122.17968800000017,111.53857400000015,105.64111300000059,130.51269500000035,101.41015599999992,-74.74365200000011,92.30761700000039
362,75.64111300000059,-118.20507799999996,106.2822270000006,98.7177729999994,90.12841800000024,119.10253900000043,101.0258789999998,127.43603499999972,112.82031300000017,97.05126999999993,131.15380900000036,104.10253900000043,-70.25634799999989,93.7177729999994
363,66.6665039999998,-128.58984399999963,101.6665039999998,91.53857400000015,90.64111300000059,117.94873000000007,95.25634799999989,120.51269500000035,111.15380900000036,84.35888699999941,124.35888699999941,102.43603499999972,-71.53857400000015,84.61523400000078
364,52.69238299999961,-143.076904,94.74365200000011,79.74365200000011,84.35888699999941,114.48730499999965,85.25634799999989,104.48730499999965,106.15380900000036,76.41015599999992,114.48730499999965,98.58984400000008,-76.79492200000004,70.89746099999957
365,45.0,-148.71801800000003,91.15380900000036,70.89746099999957,76.6665039999998,113.20507799999996,78.46142599999985,91.0258789999998,102.56396500000028,81.41015599999992,109.10253900000043,96.53857400000015,-81.28198199999997,62.94873000000007
366,50.897460999999566,-138.84619099999964,94.48730499999965,72.17968800000017,77.43603499999972,116.53857400000015,81.0258789999998,91.2822270000006,106.2822270000006,99.10253900000043,113.58984400000008,98.20507799999996,-80.89746100000002,67.94873000000007
367,67.17968800000017,-119.8718259999996,103.20507799999996,83.20507799999996,91.0258789999998,122.30761700000039,91.79492200000004,106.15380900000036,117.05126999999993,118.9741210000002,125.25634799999989,101.79492200000004,-75.89746100000002,83.46142599999985
368,82.69238299999961,-105.38452099999995,111.79492200000004,97.05126999999993,110.76904300000024,125.89746099999957,103.58984400000008,124.87158199999976,126.41015599999992,127.05126999999993,136.53857400000015,104.10253900000043,-70.51293900000019,99.48730499999965
369,89.23095699999976,-103.58984399999963,116.15380900000036,107.56396500000028,125.38476599999922,124.74365200000011,108.3334960000002,134.48730499999965,125.89746099999957,118.20507799999996,141.53857400000015,104.35888699999941,-66.02563499999997,107.82031300000017
370,89.35888699999941,-109.74365200000011,116.6665039999998,113.9741210000002,127.82031300000017,120.12841800000024,104.35888699999941,130.6411130000006,115.64111300000059,101.79492200000004,142.94873000000007,104.48730499999965,-58.07690400000001,109.74365200000011
371,92.43603499999972,-112.43579099999943,116.41015599999992,119.48730499999965,119.23095699999976,115.0,96.9228520000006,120.25634799999989,104.48730499999965,93.58984400000008,147.3076170000004,106.6665039999998,-41.28198199999997,114.35888699999941
372,103.3334960000002,-106.15380900000036,117.17968800000017,123.58984400000008,106.0258789999998,111.79492200000004,91.9228520000006,111.6665039999998,101.0258789999998,102.05126999999993,157.05126999999993,110.38476599999922,-15.769286999999622,127.30761700000039
373,117.94873000000007,-96.66674799999964,117.69238299999961,122.30761700000039,95.38476599999922,110.25634799999989,90.76904300000024,108.20507799999996,105.76904300000024,119.74365200000011,166.9228520000006,112.43603499999972,10.128418000000238,145.2563479999999
374,127.94873000000007,-93.97436500000003,115.76904300000024,113.0771479999994,91.0258789999998,108.7177729999994,90.38476599999922,107.43603499999972,112.05126999999993,131.2822270000006,170.38476599999922,110.51269500000035,28.333496000000196,160.0
375,130.6411130000006,-102.05127000000039,113.20507799999996,101.0258789999998,91.6665039999998,106.79492200000004,88.58984400000008,107.30761700000039,113.46142599999985,127.17968800000017,167.56396500000028,106.2822270000006,38.589844000000085,167.6923829999996
376,131.15380900000036,-115.0,113.7177729999994,95.0,91.9228520000006,105.89746099999957,86.0258789999998,108.3334960000002,108.9741210000002,111.9228520000006,166.2822270000006,104.35888699999941,48.46142599999985,173.20507799999996
377,136.9228520000006,-122.94872999999961,119.23095699999976,99.10253900000043,87.05126999999993,106.79492200000004,85.0,111.6665039999998,102.30761700000039,98.0771479999994,173.84619099999964,107.43603499999972,65.12841800000024,183.3334960000002
378,150.12841800000024,-121.15380900000036,127.43603499999972,108.3334960000002,78.46142599999985,107.94873000000007,86.15380900000036,115.51269500000035,97.94873000000007,96.41015599999992,190.51269500000035,113.84619099999964,88.58984400000008,200.51269500000035
379,166.9228520000006,-112.17944299999999,133.7177729999994,114.48730499999965,74.48730499999965,107.30761700000039,88.3334960000002,116.6665039999998,99.48730499999965,108.58984400000008,210.2563479999999,118.9741210000002,112.94873000000007,221.41015599999992
380,181.9228520000006,-103.07690400000001,135.89746099999957,113.46142599999985,82.56396500000028,104.48730499999965,89.10253900000043,113.84619099999964,106.9228520000006,127.43603499999972,227.05126999999993,119.87158199999976,132.56396500000028,240.51269500000035
381,192.17968800000017,-100.64111300000013,134.3588869999994,108.46142599999985,100.89746099999957,101.79492200000004,87.82031300000017,108.84619099999964,117.17968800000017,141.79492200000004,238.46142599999985,118.0771479999994,146.6665039999998,254.48730499999965
382,198.3334960000002,-106.02563499999997,132.3076170000004,106.2822270000006,119.61523400000078,102.05126999999993,86.0258789999998,105.38476599999922,125.12841800000024,144.61523400000078,245.51269500000035,117.82031300000017,157.94873000000007,263.84619099999964
383,203.58984400000008,-113.58984399999963,133.20507799999996,111.6665039999998,130.38476599999922,106.2822270000006,86.6665039999998,107.56396500000028,128.9741210000002,139.87158199999976,251.15380900000036,122.05126999999993,169.87158199999976,271.4101559999999
