,EEG.AF3,EEG.F7,EEG.F3,EEG.FC5,EEG.T7,EEG.P7,EEG.O1,EEG.O2,EEG.P8,EEG.T8,EEG.FC6,EEG.F4,EEG.F8,EEG.AF4
0,149.61523400000078,113.9741210000002,117.69238299999961,261.2822270000006,117.05126999999993,108.84619099999964,115.89746099999957,118.84619099999964,135.0,142.17968800000017,134.87158199999976,113.46142599999985,148.58984400000008,126.0258789999998
1,151.6665039999998,115.38476599999922,120.25634799999989,266.2822270000006,116.53857400000015,110.25634799999989,116.2822270000006,119.61523400000078,132.82031300000017,140.76904300000024,136.9228520000006,116.2822270000006,147.6923829999996,125.89746099999957
2,150.0,111.15380900000036,119.23095699999976,265.51269500000035,112.94873000000007,111.9228520000006,113.7177729999994,117.56396500000028,127.82031300000017,132.6923829999996,136.2822270000006,113.9741210000002,141.79492200000004,122.56396500000028
3,145.38476599999922,103.58984400000008,115.25634799999989,259.48730499999965,107.69238299999961,113.0771479999994,108.9741210000002,112.94873000000007,122.82031300000017,123.0771479999994,133.84619099999964,108.9741210000002,133.84619099999964,118.20507799999996
4,139.87158199999976,96.2822270000006,109.48730499999965,251.0258789999998,103.0771479999994,113.58984400000008,103.84619099999964,106.9228520000006,119.35888699999941,116.53857400000015,130.2563479999999,104.48730499999965,127.82031300000017,115.38476599999922
5,134.48730499999965,90.76904300000024,103.58984400000008,242.82031300000017,100.51269500000035,113.46142599999985,99.87158199999976,100.76904300000024,116.41015599999992,114.61523400000078,126.0258789999998,102.05126999999993,126.0258789999998,114.35888699999941
6,130.0,86.79492200000004,98.9741210000002,237.56396500000028,101.0258789999998,113.3334960000002,98.3334960000002,96.0258789999998,112.69238299999961,115.25634799999989,121.6665039999998,101.15380900000036,127.30761700000039,114.35888699999941
7,128.0771479999994,84.35888699999941,97.56396500000028,237.3076170000004,105.0,113.84619099999964,100.0,94.35888699999941,109.35888699999941,115.0,118.46142599999985,101.15380900000036,129.23095699999976,114.61523400000078
8,129.7436520000001,84.23095699999976,99.87158199999976,242.56396500000028,111.0258789999998,115.25634799999989,104.35888699999941,96.2822270000006,108.0771479999994,112.94873000000007,117.43603499999972,101.79492200000004,129.87158199999976,114.74365200000011
9,134.7436520000001,86.53857400000015,103.84619099999964,250.51269500000035,116.2822270000006,116.6665039999998,109.74365200000011,99.74365200000011,109.10253900000043,110.38476599999922,117.82031300000017,102.43603499999972,128.9741210000002,115.12841800000024
10,140.0,89.87158199999976,105.89746099999957,256.6665039999998,117.94873000000007,117.30761700000039,113.46142599999985,102.05126999999993,111.2822270000006,109.23095699999976,118.20507799999996,102.56396500000028,126.9228520000006,115.64111300000059
11,142.05126999999993,92.05126999999993,103.84619099999964,257.94873000000007,115.64111300000059,117.05126999999993,114.35888699999941,102.17968800000017,114.10253900000043,110.89746099999957,117.56396500000028,101.9228520000006,125.38476599999922,115.89746099999957
12,140.0,92.30761700000039,99.48730499999965,255.51269500000035,112.17968800000017,116.9228520000006,113.46142599999985,101.53857400000015,117.30761700000039,115.64111300000059,117.05126999999993,101.2822270000006,125.89746099999957,115.89746099999957
13,135.76904300000024,91.2822270000006,97.05126999999993,253.84619099999964,111.2822270000006,117.56396500000028,112.94873000000007,102.17968800000017,121.15380900000036,122.69238299999961,118.58984400000008,101.41015599999992,128.7177729999994,115.76904300000024
14,132.05126999999993,90.0,98.9741210000002,256.2822270000006,113.20507799999996,118.46142599999985,113.58984400000008,105.0,125.25634799999989,130.2563479999999,122.82031300000017,102.30761700000039,132.3076170000004,115.64111300000059
15,130.2563479999999,87.94873000000007,104.35888699999941,261.9228520000006,115.38476599999922,118.58984400000008,114.74365200000011,109.35888699999941,128.58984400000008,135.2563479999999,128.0771479999994,103.0771479999994,133.84619099999964,115.38476599999922
16,130.2563479999999,84.74365200000011,109.48730499999965,266.79492200000004,115.38476599999922,117.82031300000017,114.74365200000011,112.17968800000017,129.61523400000078,135.6411130000006,131.79492200000004,103.20507799999996,132.17968800000017,115.12841800000024
17,131.41015599999992,80.38476599999922,110.76904300000024,267.94873000000007,113.7177729999994,116.6665039999998,112.94873000000007,110.76904300000024,126.6665039999998,130.89746099999957,132.3076170000004,102.69238299999961,128.3334960000002,115.12841800000024
18,133.84619099999964,77.05126999999993,108.20507799999996,266.0258789999998,112.69238299999961,115.51269500000035,109.35888699999941,104.87158199999976,119.74365200000011,123.20507799999996,130.38476599999922,101.6665039999998,124.74365200000011,115.64111300000059
19,136.41015599999992,76.15380900000036,104.74365200000011,264.10253900000043,114.74365200000011,114.87158199999976,105.12841800000024,97.05126999999993,111.15380900000036,116.15380900000036,127.56396500000028,100.38476599999922,123.7177729999994,116.9228520000006
20,138.7177729999994,77.94873000000007,103.9741210000002,265.2563479999999,120.89746099999957,114.87158199999976,101.15380900000036,90.76904300000024,105.38476599999922,113.3334960000002,125.76904300000024,99.10253900000043,126.0258789999998,119.48730499999965
21,141.2822270000006,81.15380900000036,107.43603499999972,269.7436520000001,130.2563479999999,115.51269500000035,98.58984400000008,88.7177729999994,105.76904300000024,116.53857400000015,126.6665039999998,98.7177729999994,130.89746099999957,123.0771479999994
22,145.2563479999999,83.46142599999985,113.9741210000002,275.2563479999999,139.87158199999976,116.41015599999992,97.43603499999972,90.64111300000059,111.2822270000006,123.46142599999985,130.89746099999957,99.87158199999976,137.05126999999993,127.05126999999993
23,151.41015599999992,83.58984400000008,120.0,277.5639650000003,147.82031300000017,116.9228520000006,97.82031300000017,93.3334960000002,116.6665039999998,129.3588869999994,138.46142599999985,102.56396500000028,143.20507799999996,130.89746099999957
24,158.3334960000002,81.53857400000015,122.43603499999972,275.3847659999992,153.3334960000002,116.53857400000015,98.84619099999964,93.7177729999994,116.79492200000004,129.87158199999976,147.94873000000007,105.64111300000059,148.46142599999985,133.58984400000008
25,162.94873000000007,78.0771479999994,120.76904300000024,270.3847659999992,157.6923829999996,115.76904300000024,99.74365200000011,90.89746099999957,111.0258789999998,124.74365200000011,157.56396500000028,107.56396500000028,152.94873000000007,134.61523400000078
26,164.10253900000043,74.35888699999941,117.05126999999993,266.4101559999999,163.20507799999996,115.38476599999922,99.61523400000078,86.6665039999998,102.82031300000017,118.0771479999994,165.38476599999922,107.43603499999972,156.79492200000004,133.58984400000008
27,163.20507799999996,72.05126999999993,114.23095699999976,266.0258789999998,171.41015599999992,115.76904300000024,97.43603499999972,83.46142599999985,96.79492200000004,114.87158199999976,171.41015599999992,105.25634799999989,160.89746099999957,131.15380900000036
28,163.84619099999964,71.79492200000004,114.48730499999965,269.3588869999994,182.56396500000028,116.6665039999998,93.46142599999985,82.69238299999961,95.38476599999922,118.0771479999994,177.56396500000028,102.56396500000028,166.2822270000006,129.48730499999965
29,168.7177729999994,72.69238299999961,118.9741210000002,274.48730499999965,195.76904300000024,117.30761700000039,88.84619099999964,84.23095699999976,97.94873000000007,126.53857400000015,186.9228520000006,101.2822270000006,174.10253900000043,131.0258789999998
30,177.56396500000028,73.3334960000002,126.15380900000036,279.87158199999976,208.7177729999994,117.17968800000017,85.76904300000024,87.05126999999993,101.6665039999998,135.76904300000024,200.76904300000024,102.43603499999972,183.84619099999964,136.0258789999998
31,187.3076170000004,72.82031300000017,132.94873000000007,283.9741210000002,219.7436520000001,116.9228520000006,85.0,89.74365200000011,103.7177729999994,141.0258789999998,217.43603499999972,105.12841800000024,193.7177729999994,142.3076170000004
32,193.7177729999994,70.51269500000035,136.15380900000036,285.0,228.46142599999985,117.69238299999961,85.89746099999957,90.64111300000059,102.30761700000039,141.9228520000006,232.43603499999972,106.53857400000015,201.79492200000004,146.79492200000004
33,194.10253900000043,66.41015599999992,133.84619099999964,281.4101559999999,236.15380900000036,120.64111300000059,86.6665039999998,88.84619099999964,98.9741210000002,142.56396500000028,241.41015599999992,105.76904300000024,207.17968800000017,147.94873000000007
34,189.3588869999994,60.12841800000024,127.69238299999961,272.94873000000007,244.61523400000078,125.51269500000035,86.79492200000004,86.2822270000006,97.30761700000039,148.0771479999994,243.46142599999985,103.7177729999994,210.89746099999957,146.53857400000015
35,184.10253900000043,53.333496000000196,121.41015599999992,262.05126999999993,254.7436520000001,130.76904300000024,86.41015599999992,85.0,99.10253900000043,159.3588869999994,241.79492200000004,102.56396500000028,215.0,144.61523400000078
36,183.7177729999994,48.333496000000196,119.23095699999976,253.46142599999985,264.87158199999976,134.61523400000078,86.15380900000036,85.64111300000059,101.79492200000004,171.15380900000036,241.79492200000004,102.94873000000007,221.0258789999998,144.10253900000043
37,189.87158199999976,46.9228520000006,122.17968800000017,251.2822270000006,271.9228520000006,135.38476599999922,86.0258789999998,86.2822270000006,101.6665039999998,176.79492200000004,246.79492200000004,105.0,229.23095699999976,145.89746099999957
38,199.7436520000001,48.333496000000196,127.69238299999961,255.89746099999957,272.94873000000007,133.7177729999994,85.64111300000059,84.87158199999976,97.05126999999993,174.61523400000078,256.6665039999998,107.30761700000039,237.82031300000017,149.23095699999976
39,207.94873000000007,49.74365200000011,131.15380900000036,264.23095699999976,267.5639650000003,131.15380900000036,83.7177729999994,80.89746099999957,89.87158199999976,168.58984400000008,267.05126999999993,108.7177729999994,243.7177729999994,152.05126999999993
40,212.17968800000017,49.23095699999976,130.89746099999957,272.3076170000004,258.84619099999964,129.87158199999976,79.87158199999976,75.89746099999957,83.3334960000002,164.48730499999965,274.10253900000043,108.46142599999985,246.53857400000015,153.0771479999994
41,214.3588869999994,48.333496000000196,128.7177729999994,278.9741210000002,252.3076170000004,130.38476599999922,75.25634799999989,71.79492200000004,79.61523400000078,165.89746099999957,276.79492200000004,107.43603499999972,247.56396500000028,153.20507799999996
42,217.82031300000017,49.74365200000011,128.46142599999985,285.12841800000024,252.56396500000028,131.6665039999998,71.9228520000006,70.0,78.9741210000002,171.79492200000004,277.17968800000017,107.05126999999993,247.94873000000007,153.46142599999985
43,222.56396500000028,53.7177729999994,131.2822270000006,290.6411130000006,259.7436520000001,132.17968800000017,71.41015599999992,70.51269500000035,80.0,179.10253900000043,276.6665039999998,107.17968800000017,247.17968800000017,153.84619099999964
44,225.6411130000006,57.82031300000017,134.7436520000001,293.3334960000002,269.87158199999976,131.2822270000006,73.0771479999994,71.79492200000004,80.76904300000024,184.61523400000078,275.6411130000006,106.53857400000015,243.84619099999964,152.82031300000017
45,224.61523400000078,58.846190999999635,135.89746099999957,291.4101559999999,277.82031300000017,129.48730499999965,75.76904300000024,72.43603499999972,80.51269500000035,187.6923829999996,273.84619099999964,105.25634799999989,239.61523400000078,149.87158199999976
46,220.76904300000024,56.53857400000015,134.3588869999994,286.15380900000036,281.6665039999998,128.84619099999964,78.7177729999994,73.3334960000002,80.38476599999922,191.15380900000036,272.6923829999996,104.61523400000078,239.10253900000043,146.79492200000004
47,218.3334960000002,53.846190999999635,132.6923829999996,281.15380900000036,283.0771479999994,130.2563479999999,82.30761700000039,76.41015599999992,82.69238299999961,198.58984400000008,274.10253900000043,106.79492200000004,246.15380900000036,147.05126999999993
48,220.0,53.46142599999985,133.3334960000002,279.10253900000043,285.51269500000035,133.3334960000002,86.15380900000036,82.69238299999961,88.58984400000008,210.12841800000024,278.46142599999985,111.2822270000006,259.23095699999976,151.79492200000004
49,223.7177729999994,55.0,136.0258789999998,280.2563479999999,290.76904300000024,136.41015599999992,88.84619099999964,89.87158199999976,95.12841800000024,221.41015599999992,282.82031300000017,115.38476599999922,270.6411130000006,157.05126999999993
50,224.3588869999994,55.38476599999922,137.56396500000028,281.2822270000006,298.5898440000001,137.56396500000028,88.20507799999996,93.0771479999994,96.9228520000006,226.15380900000036,282.94873000000007,116.0258789999998,271.9228520000006,157.43603499999972
51,218.20507799999996,52.05126999999993,134.61523400000078,278.84619099999964,307.17968800000017,136.2822270000006,83.46142599999985,87.94873000000007,90.51269500000035,222.05126999999993,276.2822270000006,112.17968800000017,260.2563479999999,151.2822270000006
52,207.17968800000017,45.76904300000024,127.30761700000039,272.5639650000003,315.12841800000024,133.20507799999996,76.2822270000006,75.64111300000059,77.69238299999961,213.20507799999996,265.0,105.64111300000059,241.2822270000006,141.79492200000004
53,197.17968800000017,40.12841800000024,119.48730499999965,266.15380900000036,321.9228520000006,130.2563479999999,70.12841800000024,61.9228520000006,64.87158199999976,207.3076170000004,255.2563479999999,100.12841800000024,225.89746099999957,135.0
54,193.46142599999985,38.0771479999994,115.38476599999922,262.82031300000017,328.3334960000002,129.3588869999994,67.56396500000028,53.846190999999635,58.20507799999996,209.3588869999994,251.9228520000006,98.46142599999985,221.0258789999998,134.3588869999994
55,196.2822270000006,39.102539000000434,116.0258789999998,262.94873000000007,335.12841800000024,131.0258789999998,68.84619099999964,54.102539000000434,59.48730499999965,217.94873000000007,255.12841800000024,100.25634799999989,225.0,137.94873000000007
56,199.87158199999976,38.974121000000196,118.0771479999994,263.0771479999994,341.6665039999998,133.9741210000002,71.53857400000015,59.74365200000011,65.12841800000024,227.82031300000017,259.6152340000008,102.30761700000039,229.23095699999976,140.89746099999957
57,198.20507799999996,33.974121000000196,118.0771479999994,259.48730499999965,347.3076170000004,136.2822270000006,73.3334960000002,65.89746099999957,70.38476599999922,234.87158199999976,259.87158199999976,102.05126999999993,225.76904300000024,139.61523400000078
58,190.51269500000035,24.48730499999965,115.25634799999989,252.05126999999993,352.05126999999993,136.9228520000006,73.20507799999996,69.48730499999965,72.69238299999961,239.7436520000001,255.0,99.48730499999965,213.9741210000002,134.48730499999965
59,181.2822270000006,15.641113000000587,112.05126999999993,245.0,357.5639650000003,136.0258789999998,72.17968800000017,70.64111300000059,72.82031300000017,245.2563479999999,249.10253900000043,96.53857400000015,200.76904300000024,129.7436520000001
60,176.15380900000036,13.077147999999397,111.0258789999998,242.56396500000028,364.7436520000001,134.7436520000001,71.6665039999998,71.53857400000015,72.94873000000007,252.56396500000028,247.56396500000028,95.12841800000024,194.23095699999976,128.84619099999964
61,176.15380900000036,16.282227000000603,112.05126999999993,244.87158199999976,372.5639650000003,133.84619099999964,72.43603499999972,72.43603499999972,74.10253900000043,259.87158199999976,250.76904300000024,95.89746099999957,195.38476599999922,131.41015599999992
62,176.6665039999998,19.102539000000434,112.56396500000028,247.56396500000028,377.5639650000003,133.84619099999964,73.46142599999985,71.53857400000015,75.38476599999922,263.7177729999994,253.9741210000002,97.05126999999993,198.20507799999996,132.82031300000017
63,171.6665039999998,14.615234000000783,110.0,245.51269500000035,377.6923829999996,134.23095699999976,72.69238299999961,66.9228520000006,74.10253900000043,262.05126999999993,251.15380900000036,95.51269500000035,194.3588869999994,129.48730499999965
64,160.0,2.0512699999999313,103.84619099999964,238.3334960000002,374.87158199999976,134.61523400000078,69.61523400000078,59.35888699999941,69.10253900000043,256.79492200000004,241.2822270000006,90.51269500000035,181.15380900000036,121.41015599999992
65,147.05126999999993,-11.666747999999643,96.9228520000006,230.51269500000035,374.23095699999976,134.48730499999965,65.89746099999957,52.69238299999961,62.94873000000007,253.0771479999994,229.87158199999976,84.10253900000043,164.3588869999994,113.7177729999994
66,140.51269500000035,-17.948729999999614,93.58984400000008,227.17968800000017,380.6411130000006,133.84619099999964,64.48730499999965,51.666503999999804,60.76904300000024,256.0258789999998,224.10253900000043,80.12841800000024,153.0771479999994,111.2822270000006
67,143.0771479999994,-13.58984399999963,96.0258789999998,229.7436520000001,393.46142599999985,133.3334960000002,66.9228520000006,57.56396500000028,65.25634799999989,265.2563479999999,226.9228520000006,80.76904300000024,152.17968800000017,115.25634799999989
68,150.38476599999922,-3.2050779999999577,101.79492200000004,234.48730499999965,406.2822270000006,132.82031300000017,71.53857400000015,66.0258789999998,73.46142599999985,274.48730499999965,234.23095699999976,84.87158199999976,158.9741210000002,121.15380900000036
69,154.23095699999976,4.358886999999413,105.89746099999957,236.0258789999998,411.79492200000004,132.3076170000004,74.35888699999941,69.74365200000011,78.20507799999996,276.6665039999998,238.46142599999985,88.58984400000008,165.38476599999922,123.46142599999985
70,149.7436520000001,2.6923829999996087,105.0,231.9228520000006,407.05126999999993,131.53857400000015,72.56396500000028,64.74365200000011,74.35888699999941,269.10253900000043,235.2563479999999,89.10253900000043,164.87158199999976,120.38476599999922
71,138.9741210000002,-7.435790999999426,100.76904300000024,225.0,396.6665039999998,130.89746099999957,67.56396500000028,54.35888699999941,63.589844000000085,257.3076170000004,227.17968800000017,86.79492200000004,156.9228520000006,114.61523400000078
72,129.23095699999976,-18.846190999999635,98.20507799999996,220.38476599999922,389.6152340000008,131.0258789999998,63.846190999999635,46.79492200000004,53.333496000000196,250.38476599999922,221.0258789999998,84.74365200000011,147.05126999999993,110.89746099999957
73,126.6665039999998,-24.230713000000378,100.0,221.15380900000036,392.17968800000017,132.05126999999993,64.87158199999976,47.94873000000007,51.666503999999804,254.23095699999976,221.2822270000006,85.12841800000024,141.41015599999992,111.0258789999998
74,131.15380900000036,-21.41015600000037,104.87158199999976,225.0,403.7177729999994,133.58984400000008,70.89746099999957,57.56396500000028,61.153809000000365,267.17968800000017,226.6665039999998,87.82031300000017,142.17968800000017,113.58984400000008
75,137.43603499999972,-14.61547900000005,108.9741210000002,226.9228520000006,417.05126999999993,134.7436520000001,77.82031300000017,69.61523400000078,76.6665039999998,281.15380900000036,231.6665039999998,90.51269500000035,146.6665039999998,115.64111300000059
76,140.2563479999999,-10.256347999999889,109.87158199999976,223.46142599999985,423.9741210000002,134.7436520000001,81.2822270000006,77.43603499999972,89.61523400000078,288.20507799999996,231.9228520000006,91.15380900000036,150.89746099999957,115.51269500000035
77,138.58984400000008,-11.41015600000037,107.94873000000007,216.41015599999992,421.0258789999998,133.84619099999964,79.35888699999941,78.46142599999985,93.58984400000008,286.15380900000036,228.20507799999996,90.12841800000024,152.6923829999996,114.35888699999941
78,135.51269500000035,-16.41015600000037,105.89746099999957,210.6411130000006,412.17968800000017,132.82031300000017,73.58984400000008,74.87158199999976,88.3334960000002,278.84619099999964,224.3588869999994,89.23095699999976,152.05126999999993,113.84619099999964
79,134.48730499999965,-21.025634999999966,105.38476599999922,209.48730499999965,403.9741210000002,132.56396500000028,67.82031300000017,70.38476599999922,78.46142599999985,271.2822270000006,223.20507799999996,90.0,149.7436520000001,114.74365200000011
80,135.12841800000024,-23.205077999999958,106.2822270000006,211.9228520000006,401.53857400000015,133.3334960000002,65.0,68.0771479999994,69.48730499999965,266.4101559999999,223.3334960000002,91.53857400000015,144.61523400000078,115.51269500000035
81,134.48730499999965,-23.846190999999635,106.6665039999998,213.84619099999964,405.12841800000024,134.3588869999994,66.41015599999992,68.20507799999996,65.38476599999922,264.7436520000001,221.6665039999998,92.05126999999993,136.0258789999998,113.58984400000008
82,130.12841800000024,-25.512939000000188,104.87158199999976,212.94873000000007,411.6665039999998,135.12841800000024,70.25634799999989,69.87158199999976,67.05126999999993,266.79492200000004,216.53857400000015,90.25634799999989,125.38476599999922,108.3334960000002
83,122.82031300000017,-29.230713000000378,101.41015599999992,210.38476599999922,416.53857400000015,134.87158199999976,73.7177729999994,72.05126999999993,72.17968800000017,271.6665039999998,210.0,86.79492200000004,116.2822270000006,102.17968800000017
84,115.89746099999957,-33.846190999999635,98.46142599999985,209.10253900000043,416.79492200000004,133.7177729999994,74.87158199999976,73.3334960000002,77.05126999999993,277.17968800000017,206.53857400000015,83.9741210000002,111.9228520000006,98.7177729999994
85,113.84619099999964,-36.79492200000004,99.10253900000043,211.15380900000036,412.5639650000003,131.9228520000006,73.7177729999994,73.0771479999994,78.20507799999996,279.6152340000008,210.12841800000024,83.7177729999994,112.69238299999961,99.61523400000078
86,118.0771479999994,-36.41015600000037,104.10253900000043,215.38476599999922,407.5639650000003,130.51269500000035,72.17968800000017,71.41015599999992,75.25634799999989,276.79492200000004,220.6411130000006,86.2822270000006,116.79492200000004,103.46142599999985
87,125.64111300000059,-32.69238299999961,110.89746099999957,219.23095699999976,405.76904300000024,130.0,72.43603499999972,69.48730499999965,70.38476599999922,269.87158199999976,233.46142599999985,90.0,121.2822270000006,107.30761700000039
88,130.51269500000035,-28.205077999999958,115.12841800000024,220.0,408.7177729999994,130.38476599999922,75.12841800000024,68.3334960000002,66.53857400000015,262.5639650000003,240.89746099999957,92.17968800000017,123.7177729999994,108.7177729999994
89,127.56396500000028,-26.41015600000037,114.35888699999941,217.43603499999972,414.6152340000008,131.0258789999998,79.48730499999965,68.58984400000008,66.41015599999992,258.7177729999994,237.94873000000007,91.53857400000015,122.17968800000017,107.05126999999993
90,117.69238299999961,-28.461425999999847,109.48730499999965,213.84619099999964,420.12841800000024,131.41015599999992,83.9741210000002,70.12841800000024,70.38476599999922,259.7436520000001,225.2563479999999,88.7177729999994,116.79492200000004,103.46142599999985
91,106.2822270000006,-32.564209000000574,103.58984400000008,211.41015599999992,422.94873000000007,131.2822270000006,87.17968800000017,72.05126999999993,77.17968800000017,263.84619099999964,208.0771479999994,85.89746099999957,109.35888699999941,100.25634799999989
92,99.35888699999941,-36.41015600000037,98.9741210000002,210.2563479999999,422.05126999999993,131.0258789999998,87.94873000000007,72.94873000000007,83.58984400000008,266.9228520000006,192.17968800000017,83.9741210000002,102.82031300000017,99.10253900000043
93,98.58984400000008,-38.71801800000003,95.76904300000024,208.46142599999985,418.3334960000002,130.89746099999957,85.89746099999957,72.17968800000017,86.53857400000015,266.53857400000015,181.0258789999998,82.69238299999961,99.74365200000011,100.12841800000024
94,100.76904300000024,-40.38452099999995,92.69238299999961,204.48730499999965,414.23095699999976,131.15380900000036,82.05126999999993,70.38476599999922,85.12841800000024,262.82031300000017,175.2563479999999,80.51269500000035,100.12841800000024,101.41015599999992
95,100.76904300000024,-42.435790999999426,88.9741210000002,198.9741210000002,411.53857400000015,131.6665039999998,78.58984400000008,68.84619099999964,81.0258789999998,258.5898440000001,174.3588869999994,76.9228520000006,101.6665039999998,100.89746099999957
96,96.41015599999992,-45.0,85.12841800000024,193.7177729999994,410.0,131.9228520000006,77.30761700000039,68.0771479999994,77.17968800000017,256.2822270000006,177.05126999999993,72.56396500000028,100.51269500000035,98.0771479999994
97,89.10253900000043,-47.30761700000039,81.53857400000015,190.38476599999922,408.0771479999994,131.9228520000006,78.3334960000002,67.94873000000007,75.76904300000024,256.4101559999999,181.0258789999998,68.58984400000008,94.87158199999976,94.61523400000078
98,82.43603499999972,-48.07690400000001,79.48730499999965,189.61523400000078,405.51269500000035,131.6665039999998,80.76904300000024,68.20507799999996,77.30761700000039,257.4360349999997,183.84619099999964,66.79492200000004,86.41015599999992,92.43603499999972
99,79.87158199999976,-46.41015600000037,80.38476599999922,191.79492200000004,403.9741210000002,131.15380900000036,83.0771479999994,69.48730499999965,80.76904300000024,257.6923829999996,183.84619099999964,68.3334960000002,80.64111300000059,92.43603499999972
100,82.82031300000017,-41.41015600000037,85.38476599999922,196.53857400000015,405.6411130000006,131.0258789999998,84.74365200000011,72.82031300000017,84.61523400000078,257.5639650000003,181.9228520000006,73.46142599999985,81.9228520000006,94.35888699999941
101,89.10253900000043,-33.58984399999963,93.7177729999994,202.43603499999972,410.6411130000006,132.3076170000004,85.12841800000024,77.69238299999961,87.56396500000028,257.82031300000017,180.38476599999922,80.25634799999989,91.15380900000036,97.69238299999961
102,95.12841800000024,-25.512939000000188,102.05126999999993,207.56396500000028,414.48730499999965,134.87158199999976,83.7177729999994,81.2822270000006,88.0771479999994,257.82031300000017,180.51269500000035,85.38476599999922,102.94873000000007,100.89746099999957
103,97.05126999999993,-21.538574000000153,106.15380900000036,209.48730499999965,412.05126999999993,136.53857400000015,80.0,80.0,84.35888699999941,254.23095699999976,181.41015599999992,85.76904300000024,108.84619099999964,102.43603499999972
104,92.56396500000028,-25.769286999999622,103.58984400000008,206.53857400000015,401.15380900000036,134.7436520000001,74.23095699999976,72.30761700000039,75.51269500000035,243.9741210000002,180.38476599999922,80.89746099999957,102.94873000000007,100.25634799999989
105,82.94873000000007,-37.82055700000001,95.25634799999989,199.48730499999965,386.0258789999998,129.23095699999976,68.20507799999996,61.2822270000006,63.589844000000085,229.10253900000043,175.76904300000024,73.84619099999964,86.2822270000006,94.61523400000078
106,72.43603499999972,-51.79492200000004,85.64111300000059,191.6665039999998,374.7436520000001,123.3334960000002,63.846190999999635,53.20507799999996,53.974121000000196,216.41015599999992,168.20507799999996,68.3334960000002,67.82031300000017,88.20507799999996
107,67.30761700000039,-58.974365000000034,80.0,187.05126999999993,373.3334960000002,120.89746099999957,63.20507799999996,53.846190999999635,53.0771479999994,213.3334960000002,161.9228520000006,67.30761700000039,58.0771479999994,85.12841800000024
108,70.89746099999957,-54.23071300000038,82.05126999999993,188.0771479999994,381.53857400000015,122.69238299999961,66.41015599999992,64.10253900000043,62.82031300000017,221.2822270000006,161.6665039999998,71.2822270000006,62.05126999999993,87.56396500000028
109,81.79492200000004,-40.25634799999989,91.0258789999998,193.7177729999994,392.6923829999996,126.53857400000015,71.41015599999992,78.0771479999994,78.20507799999996,234.23095699999976,168.46142599999985,78.58984400000008,75.64111300000059,93.9741210000002
110,93.9741210000002,-25.89746100000002,101.41015599999992,200.2563479999999,398.3334960000002,128.84619099999964,74.87158199999976,87.43603499999972,90.12841800000024,243.58984400000008,177.43603499999972,85.76904300000024,88.58984400000008,100.51269500000035
111,100.0,-20.25634799999989,106.9228520000006,203.84619099999964,393.46142599999985,127.82031300000017,74.48730499999965,86.0258789999998,91.15380900000036,243.0771479999994,181.41015599999992,88.9741210000002,91.9228520000006,103.3334960000002
112,97.05126999999993,-25.641113000000132,104.61523400000078,203.46142599999985,380.0,124.35888699999941,71.0258789999998,75.89746099999957,81.79492200000004,233.84619099999964,176.9228520000006,86.6665039999998,83.84619099999964,101.15380900000036
113,88.20507799999996,-35.64111300000013,98.0771479999994,201.79492200000004,366.4101559999999,122.17968800000017,68.7177729999994,65.0,69.35888699999941,222.56396500000028,167.6923829999996,81.0258789999998,70.89746099999957,96.6665039999998
114,81.15380900000036,-39.8718259999996,94.10253900000043,202.3076170000004,361.79492200000004,124.10253900000043,70.89746099999957,61.79492200000004,63.589844000000085,217.94873000000007,161.15380900000036,75.64111300000059,63.20507799999996,94.10253900000043
115,80.76904300000024,-32.69238299999961,96.53857400000015,206.6665039999998,368.84619099999964,129.7436520000001,77.82031300000017,68.46142599999985,68.3334960000002,223.7177729999994,162.6923829999996,73.20507799999996,66.41015599999992,96.0258789999998
116,86.41015599999992,-18.205077999999958,102.56396500000028,212.82031300000017,381.9228520000006,135.0,85.64111300000059,79.48730499999965,79.35888699999941,234.7436520000001,170.38476599999922,73.58984400000008,77.82031300000017,100.64111300000059
117,91.41015599999992,-7.051270000000386,106.0258789999998,216.41015599999992,389.87158199999976,135.38476599999922,89.35888699999941,86.41015599999992,87.69238299999961,240.76904300000024,177.05126999999993,74.74365200000011,87.30761700000039,103.0771479999994
118,88.58984400000008,-8.974365000000034,101.41015599999992,213.20507799999996,385.12841800000024,130.38476599999922,86.79492200000004,83.58984400000008,86.6665039999998,233.58984400000008,175.12841800000024,73.84619099999964,85.51269500000035,99.48730499999965
119,76.79492200000004,-24.230713000000378,89.61523400000078,202.94873000000007,369.6152340000008,123.58984400000008,79.48730499999965,72.82031300000017,76.41015599999992,214.7436520000001,163.84619099999964,70.38476599999922,70.89746099999957,91.53857400000015
120,62.69238299999961,-43.07690400000001,77.17968800000017,190.6411130000006,353.84619099999964,119.35888699999941,72.05126999999993,62.43603499999972,65.12841800000024,195.51269500000035,149.87158199999976,66.0258789999998,52.82031300000017,85.12841800000024
121,56.025878999999804,-51.92309599999999,72.05126999999993,183.9741210000002,349.10253900000043,120.0,69.23095699999976,60.51269500000035,61.410155999999915,189.23095699999976,142.17968800000017,63.846190999999635,44.74365200000011,85.64111300000059
122,61.153809000000365,-44.8718259999996,77.05126999999993,187.3076170000004,356.2822270000006,123.7177729999994,71.79492200000004,67.56396500000028,67.30761700000039,200.12841800000024,145.12841800000024,66.2822270000006,52.82031300000017,92.43603499999972
123,72.30761700000039,-27.948729999999614,87.17968800000017,196.79492200000004,364.6152340000008,126.2822270000006,75.89746099999957,76.2822270000006,76.15380900000036,219.23095699999976,154.7436520000001,71.41015599999992,70.12841800000024,99.35888699999941
124,77.94873000000007,-16.025634999999966,93.3334960000002,202.43603499999972,360.3847659999992,124.74365200000011,76.0258789999998,77.17968800000017,77.82031300000017,230.0,161.6665039999998,74.48730499999965,81.41015599999992,99.74365200000011
125,71.2822270000006,-19.358886999999868,89.87158199999976,197.6923829999996,339.10253900000043,119.48730499999965,70.12841800000024,67.43603499999972,69.23095699999976,223.0771479999994,159.3588869999994,72.30761700000039,76.79492200000004,92.43603499999972
126,57.43603499999972,-35.0,80.25634799999989,185.6411130000006,311.6665039999998,114.35888699999941,62.69238299999961,53.974121000000196,57.30761700000039,203.46142599999985,150.38476599999922,66.79492200000004,60.76904300000024,83.84619099999964
127,50.0,-48.20507799999996,74.74365200000011,177.6923829999996,296.4101559999999,112.82031300000017,61.153809000000365,48.0771479999994,53.7177729999994,187.56396500000028,144.48730499999965,63.846190999999635,48.333496000000196,82.05126999999993
128,58.333496000000196,-45.1281740000004,81.2822270000006,184.23095699999976,304.87158199999976,116.15380900000036,68.9741210000002,57.30761700000039,64.48730499999965,189.3588869999994,150.38476599999922,68.7177729999994,53.46142599999985,90.64111300000059
129,80.25634799999989,-23.333252000000357,98.46142599999985,205.12841800000024,332.17968800000017,122.69238299999961,82.56396500000028,78.0771479999994,85.0,209.3588869999994,167.6923829999996,80.38476599999922,76.41015599999992,105.76904300000024
130,103.20507799999996,5.769043000000238,116.6665039999998,229.7436520000001,360.0,129.10253900000043,93.0771479999994,98.46142599999985,103.58984400000008,233.7177729999994,186.41015599999992,92.82031300000017,104.10253900000043,119.10253900000043
131,114.48730499999965,26.666503999999804,125.51269500000035,244.61523400000078,369.87158199999976,131.79492200000004,93.9741210000002,106.41015599999992,110.51269500000035,245.6411130000006,195.2563479999999,99.10253900000043,119.74365200000011,123.84619099999964
132,110.12841800000024,30.641113000000587,121.41015599999992,243.7177729999994,356.53857400000015,129.7436520000001,85.51269500000035,98.46142599999985,104.48730499999965,237.3076170000004,189.61523400000078,97.17968800000017,115.38476599999922,118.7177729999994
133,96.15380900000036,20.384765999999217,108.58984400000008,231.41015599999992,329.23095699999976,124.61523400000078,74.23095699999976,81.6665039999998,91.53857400000015,213.9741210000002,173.46142599999985,89.87158199999976,95.76904300000024,108.46142599999985
134,81.9228520000006,5.3847659999992175,95.0,217.6923829999996,302.3076170000004,119.74365200000011,67.56396500000028,67.56396500000028,80.0,188.20507799999996,155.89746099999957,82.05126999999993,73.7177729999994,98.9741210000002
135,74.35888699999941,-5.641113000000132,86.53857400000015,211.15380900000036,283.46142599999985,117.43603499999972,68.9741210000002,64.10253900000043,74.87158199999976,170.76904300000024,144.7436520000001,76.9228520000006,60.897460999999566,94.10253900000043
136,73.7177729999994,-8.974365000000034,85.25634799999989,213.58984400000008,271.53857400000015,117.43603499999972,76.41015599999992,71.41015599999992,76.79492200000004,165.2563479999999,142.82031300000017,75.51269500000035,60.0,93.58984400000008
137,76.41015599999992,-6.666747999999643,89.61523400000078,221.2822270000006,261.0258789999998,118.7177729999994,85.12841800000024,83.0771479999994,83.46142599999985,167.82031300000017,148.20507799999996,76.79492200000004,66.0258789999998,94.74365200000011
138,78.58984400000008,-2.3076170000003913,95.76904300000024,228.9741210000002,248.84619099999964,120.25634799999989,90.38476599999922,91.0258789999998,91.2822270000006,172.56396500000028,156.2822270000006,78.9741210000002,71.0258789999998,95.89746099999957
139,79.48730499999965,1.153809000000365,100.25634799999989,233.46142599999985,236.53857400000015,120.76904300000024,90.76904300000024,91.53857400000015,97.43603499999972,174.61523400000078,162.82031300000017,80.51269500000035,70.76904300000024,96.9228520000006
140,81.0258789999998,3.5898440000000846,101.41015599999992,235.76904300000024,228.9741210000002,120.25634799999989,88.58984400000008,86.9228520000006,100.76904300000024,172.82031300000017,165.12841800000024,80.38476599999922,67.69238299999961,98.3334960000002
141,85.12841800000024,7.051269999999931,100.12841800000024,238.3334960000002,229.23095699999976,118.84619099999964,87.17968800000017,83.0771479999994,101.9228520000006,168.3334960000002,163.20507799999996,78.9741210000002,67.05126999999993,100.25634799999989
142,89.61523400000078,11.922852000000603,97.69238299999961,241.9228520000006,232.94873000000007,117.82031300000017,87.69238299999961,83.58984400000008,101.15380900000036,162.56396500000028,157.94873000000007,77.30761700000039,70.76904300000024,101.41015599999992
143,89.61523400000078,14.743652000000111,94.48730499999965,243.46142599999985,229.23095699999976,117.43603499999972,88.20507799999996,86.79492200000004,97.56396500000028,155.2563479999999,150.38476599999922,75.64111300000059,74.87158199999976,100.0
144,81.0258789999998,11.410155999999915,89.61523400000078,239.3588869999994,209.23095699999976,117.17968800000017,86.53857400000015,87.56396500000028,90.64111300000059,145.12841800000024,141.0258789999998,73.3334960000002,72.94873000000007,95.76904300000024
145,66.15380900000036,2.0512699999999313,82.82031300000017,229.10253900000043,175.38476599999922,116.41015599999992,82.43603499999972,82.43603499999972,81.6665039999998,132.43603499999972,130.76904300000024,70.12841800000024,63.0771479999994,89.48730499999965
146,52.43603499999972,-7.692382999999609,76.0258789999998,217.43603499999972,142.56396500000028,115.76904300000024,78.20507799999996,73.0771479999994,74.35888699999941,120.51269500000035,122.17968800000017,67.30761700000039,49.87158199999976,84.87158199999976
147,48.0771479999994,-10.512939000000188,72.94873000000007,210.76904300000024,127.94873000000007,116.15380900000036,76.2822270000006,65.51269500000035,72.56396500000028,113.58984400000008,118.20507799999996,66.41015599999992,42.43603499999972,85.25634799999989
148,56.2822270000006,-2.5639650000002803,75.51269500000035,213.46142599999985,139.7436520000001,117.82031300000017,77.82031300000017,65.89746099999957,77.82031300000017,114.10253900000043,120.89746099999957,68.7177729999994,46.79492200000004,91.9228520000006
149,73.9741210000002,13.846190999999635,83.7177729999994,225.2563479999999,170.0,120.0,81.9228520000006,76.2822270000006,88.84619099999964,121.53857400000015,129.3588869999994,74.10253900000043,62.43603499999972,102.69238299999961
150,93.3334960000002,32.43603499999972,94.48730499999965,241.2822270000006,199.7436520000001,121.6665039999998,86.6665039999998,92.17968800000017,101.79492200000004,131.79492200000004,140.6411130000006,81.2822270000006,81.41015599999992,112.30761700000039
151,105.89746099999957,46.025878999999804,103.84619099999964,255.0,210.6411130000006,122.30761700000039,90.12841800000024,105.38476599999922,111.6665039999998,139.3588869999994,149.87158199999976,87.56396500000028,94.35888699999941,116.41015599999992
152,107.05126999999993,50.64111300000059,107.82031300000017,260.76904300000024,196.2822270000006,121.6665039999998,91.0258789999998,109.61523400000078,114.10253900000043,139.10253900000043,152.56396500000028,90.38476599999922,95.25634799999989,113.7177729999994
153,98.46142599999985,47.30761700000039,105.12841800000024,257.4360349999997,165.2563479999999,119.87158199999976,88.84619099999964,103.46142599999985,108.20507799999996,129.7436520000001,147.94873000000007,88.7177729999994,85.0,107.05126999999993
154,87.56396500000028,40.897460999999566,98.9741210000002,249.23095699999976,134.10253900000043,117.43603499999972,85.51269500000035,91.41015599999992,97.43603499999972,114.23095699999976,140.6411130000006,84.23095699999976,71.0258789999998,101.15380900000036
155,81.9228520000006,37.30761700000039,94.74365200000011,242.43603499999972,116.9228520000006,115.38476599999922,83.20507799999996,80.38476599999922,87.56396500000028,99.74365200000011,136.9228520000006,80.64111300000059,61.79492200000004,99.61523400000078
156,84.10253900000043,39.102539000000434,96.15380900000036,241.9228520000006,116.41015599999992,115.0,83.9741210000002,76.2822270000006,82.82031300000017,91.79492200000004,140.0,81.15380900000036,61.79492200000004,102.17968800000017
157,90.12841800000024,43.589844000000085,101.6665039999998,247.17968800000017,123.58984400000008,116.41015599999992,86.53857400000015,79.61523400000078,83.46142599999985,90.89746099999957,146.6665039999998,85.38476599999922,69.10253900000043,105.51269500000035
158,94.10253900000043,46.025878999999804,106.53857400000015,253.20507799999996,126.41015599999992,118.3334960000002,88.46142599999985,85.89746099999957,86.6665039999998,92.30761700000039,150.76904300000024,89.35888699999941,77.69238299999961,106.41015599999992
159,92.56396500000028,44.102539000000434,106.41015599999992,254.61523400000078,118.58984400000008,119.35888699999941,87.94873000000007,89.61523400000078,88.84619099999964,91.15380900000036,148.46142599999985,89.35888699999941,82.17968800000017,104.23095699999976
160,87.43603499999972,39.61523400000078,101.41015599999992,249.87158199999976,102.82031300000017,118.9741210000002,85.89746099999957,88.46142599999985,88.84619099999964,86.15380900000036,141.0258789999998,85.38476599999922,81.0258789999998,101.15380900000036
161,82.30761700000039,36.2822270000006,94.23095699999976,242.17968800000017,86.15380900000036,117.56396500000028,83.7177729999994,83.46142599999985,87.56396500000028,79.87158199999976,132.82031300000017,80.38476599999922,76.6665039999998,99.61523400000078
162,79.10253900000043,35.76904300000024,87.82031300000017,236.6665039999998,73.46142599999985,115.76904300000024,82.05126999999993,77.82031300000017,85.64111300000059,75.64111300000059,127.17968800000017,77.05126999999993,72.30761700000039,100.12841800000024
163,77.69238299999961,37.30761700000039,83.84619099999964,236.0258789999998,66.6665039999998,114.35888699999941,81.2822270000006,74.74365200000011,83.9741210000002,75.25634799999989,124.87158199999976,76.2822270000006,70.0,101.9228520000006
164,76.53857400000015,39.87158199999976,82.30761700000039,240.0,66.6665039999998,113.9741210000002,82.30761700000039,75.89746099999957,83.84619099999964,78.20507799999996,123.7177729999994,77.05126999999993,70.51269500000035,102.94873000000007
165,74.35888699999941,42.43603499999972,82.94873000000007,246.2822270000006,72.82031300000017,114.61523400000078,85.25634799999989,80.89746099999957,87.43603499999972,82.30761700000039,121.41015599999992,77.94873000000007,72.56396500000028,102.17968800000017
166,70.76904300000024,42.82031300000017,84.48730499999965,251.0258789999998,79.23095699999976,116.0258789999998,88.58984400000008,86.79492200000004,93.9741210000002,84.35888699999941,117.56396500000028,77.30761700000039,73.20507799999996,99.74365200000011
167,66.0258789999998,39.102539000000434,84.48730499999965,251.6665039999998,77.69238299999961,117.17968800000017,90.12841800000024,89.87158199999976,100.64111300000059,82.05126999999993,113.20507799999996,74.35888699999941,68.9741210000002,97.17968800000017
168,61.53857400000015,31.153809000000365,82.30761700000039,248.3334960000002,63.46142599999985,117.05126999999993,89.23095699999976,89.10253900000043,103.9741210000002,75.89746099999957,110.76904300000024,70.89746099999957,59.61523400000078,95.76904300000024
169,58.974121000000196,21.922852000000603,79.87158199999976,243.46142599999985,41.410155999999915,115.25634799999989,87.30761700000039,86.53857400000015,103.0771479999994,69.10253900000043,111.79492200000004,69.74365200000011,49.74365200000011,96.0258789999998
170,59.102539000000434,15.0,79.87158199999976,239.3588869999994,23.205077999999958,112.82031300000017,86.53857400000015,85.64111300000059,100.51269500000035,65.38476599999922,115.51269500000035,72.43603499999972,45.12841800000024,97.43603499999972
171,61.025878999999804,12.56396500000028,82.94873000000007,236.6665039999998,18.205077999999958,111.53857400000015,88.20507799999996,88.20507799999996,99.10253900000043,65.76904300000024,120.51269500000035,77.43603499999972,48.974121000000196,98.9741210000002
172,63.7177729999994,13.846190999999635,87.94873000000007,235.38476599999922,27.69238299999961,112.05126999999993,91.79492200000004,93.58984400000008,100.76904300000024,68.58984400000008,125.0,82.56396500000028,59.35888699999941,100.25634799999989
173,67.43603499999972,17.69238299999961,93.3334960000002,237.3076170000004,44.35888699999941,114.23095699999976,95.76904300000024,100.38476599999922,106.0258789999998,71.15380900000036,129.10253900000043,86.15380900000036,71.6665039999998,101.41015599999992
174,72.82031300000017,23.974121000000196,98.58984400000008,244.48730499999965,58.589844000000085,117.05126999999993,99.48730499999965,107.69238299999961,114.23095699999976,72.05126999999993,133.0771479999994,88.7177729999994,81.79492200000004,102.82031300000017
175,79.74365200000011,32.05126999999993,103.9741210000002,255.38476599999922,63.7177729999994,119.35888699999941,102.69238299999961,115.0,123.3334960000002,72.17968800000017,135.38476599999922,91.41015599999992,88.0771479999994,104.35888699999941
176,85.76904300000024,39.87158199999976,108.84619099999964,265.3847659999992,58.974121000000196,120.51269500000035,105.38476599999922,120.64111300000059,130.38476599999922,73.0771479999994,134.10253900000043,94.35888699999941,90.12841800000024,105.51269500000035
177,87.05126999999993,43.974121000000196,111.53857400000015,269.3588869999994,48.589844000000085,120.51269500000035,106.9228520000006,122.56396500000028,132.43603499999972,74.74365200000011,128.20507799999996,96.15380900000036,88.20507799999996,105.38476599999922
178,82.17968800000017,41.53857400000015,110.51269500000035,266.0258789999998,36.9228520000006,119.35888699999941,105.64111300000059,118.84619099999964,128.7177729999994,75.64111300000059,118.46142599999985,94.61523400000078,82.82031300000017,103.84619099999964
179,73.3334960000002,33.846190999999635,106.15380900000036,258.7177729999994,26.282227000000603,117.69238299999961,101.0258789999998,110.76904300000024,121.6665039999998,74.61523400000078,107.17968800000017,90.12841800000024,75.38476599999922,101.41015599999992
180,65.12841800000024,25.128418000000238,101.0258789999998,252.05126999999993,16.025878999999804,116.2822270000006,94.48730499999965,102.05126999999993,114.87158199999976,70.76904300000024,95.64111300000059,85.38476599999922,68.3334960000002,98.9741210000002
181,61.2822270000006,20.128418000000238,97.56396500000028,249.23095699999976,6.153809000000365,115.76904300000024,89.10253900000043,97.05126999999993,111.2822270000006,64.87158199999976,85.64111300000059,82.94873000000007,63.333496000000196,97.43603499999972
182,63.0771479999994,21.025878999999804,96.9228520000006,250.38476599999922,-0.256347999999889,116.0258789999998,87.82031300000017,97.05126999999993,111.6665039999998,58.589844000000085,79.10253900000043,83.3334960000002,61.666503999999804,97.43603499999972
183,68.3334960000002,26.153809000000365,98.58984400000008,253.9741210000002,0.769043000000238,116.6665039999998,91.41015599999992,100.89746099999957,114.35888699999941,54.74365200000011,76.79492200000004,85.38476599999922,63.46142599999985,98.9741210000002
184,72.94873000000007,30.25634799999989,100.76904300000024,257.3076170000004,9.358886999999413,117.17968800000017,97.17968800000017,105.25634799999989,116.53857400000015,54.48730499999965,76.6665039999998,87.05126999999993,67.43603499999972,100.89746099999957
185,72.82031300000017,28.461425999999847,101.79492200000004,258.0771479999994,18.333496000000196,117.17968800000017,100.25634799999989,106.6665039999998,116.0258789999998,56.153809000000365,74.74365200000011,86.9228520000006,70.25634799999989,101.41015599999992
186,67.17968800000017,20.641113000000587,100.64111300000059,254.7436520000001,19.358886999999413,116.6665039999998,97.56396500000028,103.84619099999964,112.43603499999972,55.64111300000059,70.0,84.87158199999976,68.58984400000008,99.61523400000078
187,60.25634799999989,12.307617000000391,97.94873000000007,248.58984400000008,10.0,115.89746099999957,90.51269500000035,98.9741210000002,107.94873000000007,50.64111300000059,65.51269500000035,82.56396500000028,62.30761700000039,96.53857400000015
188,58.20507799999996,10.897460999999566,95.89746099999957,243.7177729999994,-4.871825999999601,115.38476599999922,84.48730499999965,95.89746099999957,105.76904300000024,43.0771479999994,64.87158199999976,82.17968800000017,55.51269500000035,94.61523400000078
189,63.589844000000085,18.461425999999847,96.41015599999992,243.7177729999994,-16.923095999999987,115.12841800000024,84.23095699999976,96.0258789999998,107.17968800000017,37.69238299999961,68.84619099999964,84.10253900000043,53.7177729999994,95.25634799999989
190,74.10253900000043,31.538574000000153,99.48730499999965,248.84619099999964,-21.41015600000037,115.89746099999957,90.12841800000024,98.3334960000002,111.0258789999998,38.20507799999996,74.10253900000043,87.30761700000039,59.87158199999976,98.46142599999985
191,85.0,43.974121000000196,103.20507799999996,255.6411130000006,-19.10253899999998,117.05126999999993,98.20507799999996,100.64111300000059,115.38476599999922,44.48730499999965,77.05126999999993,90.25634799999989,71.6665039999998,102.56396500000028
192,92.05126999999993,50.51269500000035,105.51269500000035,259.23095699999976,-14.8718259999996,117.82031300000017,102.94873000000007,101.9228520000006,118.7177729999994,52.56396500000028,76.9228520000006,91.9228520000006,83.58984400000008,105.64111300000059
193,93.20507799999996,49.48730499999965,105.0,256.53857400000015,-14.358886999999868,116.79492200000004,101.0258789999998,102.30761700000039,120.12841800000024,56.666503999999804,75.0,91.53857400000015,89.61523400000078,106.0258789999998
194,88.9741210000002,42.43603499999972,101.53857400000015,248.0771479999994,-19.487060999999812,113.9741210000002,93.84619099999964,101.6665039999998,118.46142599999985,53.589844000000085,72.30761700000039,89.61523400000078,86.41015599999992,103.84619099999964
195,82.56396500000028,34.102539000000434,97.05126999999993,238.7177729999994,-27.30761700000039,111.15380900000036,86.53857400000015,100.12841800000024,113.3334960000002,45.12841800000024,68.9741210000002,87.05126999999993,76.15380900000036,101.15380900000036
196,78.20507799999996,29.871581999999762,93.7177729999994,234.87158199999976,-33.71801800000003,109.87158199999976,83.7177729999994,97.94873000000007,106.79492200000004,36.53857400000015,65.12841800000024,85.0,65.51269500000035,99.74365200000011
197,78.9741210000002,33.46142599999985,93.3334960000002,239.10253900000043,-37.30761700000039,110.76904300000024,87.05126999999993,96.15380900000036,102.30761700000039,32.43603499999972,61.9228520000006,84.48730499999965,61.666503999999804,100.25634799999989
198,85.25634799999989,44.102539000000434,96.15380900000036,248.46142599999985,-40.0,112.82031300000017,94.23095699999976,96.0258789999998,102.56396500000028,33.7177729999994,61.2822270000006,86.15380900000036,67.17968800000017,101.9228520000006
199,94.35888699999941,57.56396500000028,100.89746099999957,256.53857400000015,-45.0,114.87158199999976,101.41015599999992,98.3334960000002,107.17968800000017,38.20507799999996,64.23095699999976,89.87158199999976,78.7177729999994,104.10253900000043
200,102.30761700000039,68.58984400000008,105.51269500000035,259.3588869999994,-52.435790999999426,116.2822270000006,105.25634799999989,102.30761700000039,112.56396500000028,42.30761700000039,70.25634799999989,94.23095699999976,89.61523400000078,106.0258789999998
201,105.25634799999989,74.10253900000043,107.94873000000007,257.4360349999997,-59.74365200000011,116.79492200000004,104.23095699999976,105.12841800000024,114.48730499999965,43.20507799999996,76.9228520000006,97.43603499999972,94.48730499999965,107.17968800000017
202,102.17968800000017,73.9741210000002,107.43603499999972,254.23095699999976,-64.10253899999998,116.0258789999998,99.48730499999965,103.46142599999985,111.15380900000036,40.12841800000024,79.61523400000078,97.56396500000028,92.82031300000017,107.56396500000028
203,94.87158199999976,71.15380900000036,105.38476599999922,252.17968800000017,-64.61547900000005,114.74365200000011,94.35888699999941,96.9228520000006,104.74365200000011,35.0,76.0258789999998,94.87158199999976,87.56396500000028,106.9228520000006
204,87.69238299999961,69.35888699999941,103.84619099999964,251.2822270000006,-62.435790999999426,113.7177729999994,92.69238299999961,90.0,100.38476599999922,31.410155999999915,68.0771479999994,91.6665039999998,83.84619099999964,105.76904300000024
205,85.12841800000024,71.79492200000004,104.23095699999976,251.2822270000006,-58.20507799999996,114.35888699999941,95.89746099999957,88.9741210000002,102.69238299999961,32.94873000000007,61.9228520000006,90.51269500000035,84.87158199999976,105.12841800000024
206,89.61523400000078,79.10253900000043,107.05126999999993,253.7177729999994,-52.30761700000039,116.41015599999992,102.56396500000028,96.9228520000006,111.79492200000004,40.38476599999922,62.82031300000017,92.69238299999961,91.6665039999998,105.89746099999957
207,98.58984400000008,87.82031300000017,111.0258789999998,259.7436520000001,-47.564209000000574,118.0771479999994,108.58984400000008,109.87158199999976,123.20507799999996,50.25634799999989,70.12841800000024,97.43603499999972,101.15380900000036,107.56396500000028
208,105.51269500000035,92.56396500000028,114.35888699999941,267.17968800000017,-49.10253899999998,117.30761700000039,110.51269500000035,120.25634799999989,129.61523400000078,55.897460999999566,76.6665039999998,101.53857400000015,108.46142599999985,108.3334960000002
209,105.0,89.74365200000011,115.38476599999922,270.89746099999957,-59.8718259999996,113.20507799999996,107.69238299999961,121.6665039999998,127.56396500000028,52.82031300000017,75.76904300000024,102.30761700000039,108.46142599999985,106.79492200000004
210,97.30761700000039,81.6665039999998,114.48730499999965,267.4360349999997,-76.15380900000036,107.82031300000017,102.94873000000007,114.61523400000078,119.48730499999965,42.43603499999972,66.41015599999992,99.35888699999941,100.64111300000059,103.46142599999985
211,88.7177729999994,74.87158199999976,113.58984400000008,258.84619099999964,-88.71801800000003,104.74365200000011,100.64111300000059,105.76904300000024,112.69238299999961,32.43603499999972,54.87158199999976,95.25634799999989,88.9741210000002,101.15380900000036
212,85.89746099999957,75.12841800000024,114.35888699999941,251.6665039999998,-90.38452099999995,106.2822270000006,103.3334960000002,102.69238299999961,112.69238299999961,30.897460999999566,48.333496000000196,93.20507799999996,80.38476599999922,101.79492200000004
213,90.25634799999989,82.94873000000007,116.53857400000015,251.9228520000006,-80.25634799999989,111.53857400000015,110.12841800000024,108.3334960000002,119.61523400000078,39.23095699999976,49.61523400000078,95.0,79.23095699999976,104.23095699999976
214,97.82031300000017,94.48730499999965,118.46142599999985,259.23095699999976,-65.38452099999995,116.41015599999992,116.9228520000006,118.84619099999964,128.7177729999994,50.897460999999566,55.25634799999989,99.48730499999965,85.25634799999989,105.89746099999957
215,103.0771479999994,103.7177729999994,118.58984400000008,267.5639650000003,-55.25634799999989,117.05126999999993,119.87158199999976,127.17968800000017,134.87158199999976,57.69238299999961,59.87158199999976,103.0771479999994,93.9741210000002,105.38476599999922
216,103.3334960000002,107.05126999999993,117.17968800000017,269.10253900000043,-56.41015600000037,112.56396500000028,117.82031300000017,128.20507799999996,135.89746099999957,55.76904300000024,60.25634799999989,102.82031300000017,100.64111300000059,103.46142599999985
217,100.38476599999922,104.35888699999941,115.64111300000059,261.2822270000006,-67.17944299999999,106.41015599999992,113.20507799999996,122.30761700000039,133.0771479999994,48.46142599999985,57.05126999999993,99.23095699999976,102.43603499999972,102.56396500000028
218,97.82031300000017,99.74365200000011,115.76904300000024,249.3588869999994,-79.61547900000005,102.94873000000007,110.25634799999989,115.38476599999922,129.61523400000078,43.0771479999994,53.20507799999996,96.0258789999998,100.76904300000024,104.10253900000043
219,98.46142599999985,98.20507799999996,118.0771479999994,241.2822270000006,-84.8718259999996,105.0,111.15380900000036,113.3334960000002,128.3334960000002,44.23095699999976,51.666503999999804,97.30761700000039,98.84619099999964,107.17968800000017
220,101.53857400000015,102.05126999999993,121.41015599999992,241.6665039999998,-81.15380900000036,110.64111300000059,114.87158199999976,117.69238299999961,130.0,50.76904300000024,53.846190999999635,103.0771479999994,98.9741210000002,110.12841800000024
221,104.74365200000011,108.9741210000002,123.84619099999964,248.0771479999994,-73.71801800000003,115.76904300000024,118.7177729999994,125.76904300000024,133.20507799999996,56.79492200000004,59.35888699999941,110.38476599999922,100.76904300000024,111.15380900000036
222,106.15380900000036,114.87158199999976,125.0,254.87158199999976,-69.74365200000011,117.17968800000017,120.51269500000035,133.0771479999994,135.76904300000024,58.333496000000196,66.0258789999998,115.51269500000035,102.30761700000039,110.12841800000024
223,106.53857400000015,117.05126999999993,125.89746099999957,257.6923829999996,-71.92309599999999,115.0,120.76904300000024,136.9228520000006,137.05126999999993,56.153809000000365,71.6665039999998,116.79492200000004,102.43603499999972,109.35888699999941
224,107.30761700000039,116.15380900000036,128.0771479999994,256.6665039999998,-76.53857400000015,112.69238299999961,120.51269500000035,136.79492200000004,137.05126999999993,54.35888699999941,73.84619099999964,115.64111300000059,101.6665039999998,110.89746099999957
225,109.87158199999976,115.12841800000024,131.6665039999998,255.2563479999999,-78.46142599999985,112.43603499999972,120.12841800000024,133.9741210000002,136.2822270000006,55.0,70.89746099999957,114.23095699999976,101.0258789999998,113.9741210000002
226,113.46142599999985,115.38476599999922,134.7436520000001,256.4101559999999,-75.51293900000019,113.7177729999994,119.35888699999941,130.51269500000035,134.7436520000001,56.79492200000004,63.974121000000196,114.23095699999976,100.89746099999957,115.89746099999957
227,116.2822270000006,117.17968800000017,135.89746099999957,259.23095699999976,-69.8718259999996,115.0,118.46142599999985,129.10253900000043,133.20507799999996,56.153809000000365,57.05126999999993,115.64111300000059,100.38476599999922,115.12841800000024
228,117.17968800000017,119.48730499999965,134.87158199999976,260.12841800000024,-65.38452099999995,115.38476599999922,118.7177729999994,131.0258789999998,132.05126999999993,51.9228520000006,54.102539000000434,117.05126999999993,99.87158199999976,112.30761700000039
229,116.53857400000015,122.17968800000017,132.3076170000004,256.15380900000036,-64.8718259999996,115.38476599999922,120.51269500000035,134.87158199999976,131.9228520000006,46.2822270000006,56.53857400000015,116.79492200000004,100.25634799999989,109.74365200000011
230,115.38476599999922,124.48730499999965,128.7177729999994,247.6923829999996,-68.97436500000003,115.0,122.56396500000028,136.9228520000006,132.43603499999972,42.56396500000028,61.666503999999804,114.10253900000043,102.05126999999993,108.58984400000008
231,114.23095699999976,125.89746099999957,124.87158199999976,238.58984400000008,-76.53857400000015,113.84619099999964,123.0771479999994,135.38476599999922,132.82031300000017,42.05126999999993,66.15380900000036,110.51269500000035,103.7177729999994,107.94873000000007
232,113.46142599999985,126.41015599999992,122.30761700000039,232.82031300000017,-83.58984399999963,111.79492200000004,121.79492200000004,131.9228520000006,132.43603499999972,43.7177729999994,68.58984400000008,108.20507799999996,103.46142599999985,107.30761700000039
233,113.58984400000008,127.56396500000028,121.9228520000006,232.43603499999972,-85.64111300000013,109.74365200000011,120.76904300000024,130.89746099999957,131.79492200000004,45.0,69.87158199999976,109.10253900000043,100.64111300000059,106.41015599999992
234,114.74365200000011,130.76904300000024,123.58984400000008,235.6411130000006,-80.51293900000019,108.7177729999994,122.05126999999993,134.23095699999976,132.05126999999993,45.0,71.53857400000015,112.30761700000039,97.69238299999961,106.2822270000006
235,116.41015599999992,135.2563479999999,125.76904300000024,239.61523400000078,-71.02563499999997,109.61523400000078,125.51269500000035,140.6411130000006,133.46142599999985,44.48730499999965,73.58984400000008,114.61523400000078,97.56396500000028,107.17968800000017
236,117.30761700000039,138.84619099999964,126.0258789999998,242.6923829999996,-63.46142599999985,111.79492200000004,128.7177729999994,145.2563479999999,134.87158199999976,45.12841800000024,73.84619099999964,113.3334960000002,101.15380900000036,108.7177729999994
237,116.41015599999992,139.61523400000078,122.43603499999972,244.10253900000043,-62.051270000000386,113.7177729999994,129.23095699999976,144.48730499999965,134.61523400000078,47.43603499999972,69.23095699999976,108.0771479999994,105.89746099999957,109.35888699999941
238,113.9741210000002,138.46142599999985,116.0258789999998,243.58984400000008,-67.05127000000039,114.35888699999941,125.89746099999957,138.84619099999964,132.94873000000007,50.38476599999922,59.61523400000078,102.17968800000017,107.82031300000017,108.58984400000008
239,111.41015599999992,137.6923829999996,110.12841800000024,240.76904300000024,-74.48706099999981,113.3334960000002,120.64111300000059,131.9228520000006,131.2822270000006,52.30761700000039,49.61523400000078,99.35888699999941,105.64111300000059,106.9228520000006
240,109.74365200000011,138.0771479999994,108.20507799999996,236.79492200000004,-80.25634799999989,111.9228520000006,116.6665039999998,128.0771479999994,130.89746099999957,52.69238299999961,46.153809000000365,101.15380900000036,101.15380900000036,106.0258789999998
241,109.23095699999976,139.10253900000043,111.15380900000036,234.48730499999965,-82.94872999999961,111.41015599999992,116.15380900000036,128.9741210000002,132.43603499999972,52.56396500000028,52.94873000000007,106.15380900000036,98.46142599999985,106.6665039999998
242,109.23095699999976,139.7436520000001,116.15380900000036,235.76904300000024,-83.33325200000036,112.56396500000028,118.58984400000008,133.58984400000008,135.12841800000024,53.0771479999994,66.6665039999998,111.2822270000006,100.0,108.46142599999985
243,108.84619099999964,139.7436520000001,119.48730499999965,239.48730499999965,-82.30761700000039,113.84619099999964,121.0258789999998,138.3334960000002,137.82031300000017,54.74365200000011,79.10253900000043,113.3334960000002,105.25634799999989,110.64111300000059
244,108.46142599999985,140.0,118.46142599999985,241.41015599999992,-80.0,114.10253900000043,121.15380900000036,140.0,139.10253900000043,56.666503999999804,83.46142599999985,112.17968800000017,111.15380900000036,112.56396500000028
245,108.7177729999994,140.76904300000024,114.23095699999976,238.3334960000002,-75.76928699999962,112.82031300000017,118.58984400000008,137.17968800000017,138.46142599999985,56.9228520000006,79.61523400000078,109.35888699999941,114.61523400000078,113.7177729999994
246,110.51269500000035,141.79492200000004,109.61523400000078,231.2822270000006,-68.97436500000003,111.2822270000006,115.12841800000024,131.79492200000004,136.6665039999998,55.25634799999989,73.46142599999985,108.0771479999994,115.0,114.23095699999976
247,113.46142599999985,142.94873000000007,107.30761700000039,225.2563479999999,-61.025634999999966,110.25634799999989,113.58984400000008,126.2822270000006,134.7436520000001,52.30761700000039,71.9228520000006,109.61523400000078,113.58984400000008,114.48730499999965
248,116.53857400000015,144.48730499999965,108.20507799999996,225.2563479999999,-55.64111300000013,109.35888699999941,114.48730499999965,123.0771479999994,133.20507799999996,49.87158199999976,77.17968800000017,113.46142599999985,112.43603499999972,114.87158199999976
249,118.7177729999994,147.17968800000017,111.53857400000015,232.43603499999972,-56.025634999999966,108.3334960000002,116.2822270000006,122.43603499999972,132.3076170000004,49.23095699999976,84.48730499999965,117.05126999999993,112.30761700000039,115.38476599999922
250,119.61523400000078,151.41015599999992,115.64111300000059,243.20507799999996,-61.92309599999999,107.56396500000028,116.79492200000004,124.35888699999941,131.9228520000006,51.153809000000365,88.0771479999994,118.0771479999994,113.46142599999985,115.76904300000024
251,119.35888699999941,156.53857400000015,118.46142599999985,251.53857400000015,-68.97436500000003,107.56396500000028,116.15380900000036,127.43603499999972,132.05126999999993,54.35888699999941,86.41015599999992,116.41015599999992,114.87158199999976,115.89746099999957
252,118.20507799999996,160.76904300000024,118.20507799999996,252.3076170000004,-72.30761700000039,108.3334960000002,115.64111300000059,129.87158199999976,132.3076170000004,56.666503999999804,82.69238299999961,113.84619099999964,115.64111300000059,116.15380900000036
253,115.89746099999957,161.15380900000036,114.87158199999976,246.0258789999998,-70.38452099999995,109.10253900000043,116.41015599999992,130.0,132.05126999999993,56.410155999999915,81.41015599999992,112.30761700000039,114.87158199999976,116.15380900000036
254,113.20507799999996,156.9228520000006,110.0,238.0771479999994,-65.38452099999995,109.48730499999965,118.58984400000008,127.82031300000017,131.2822270000006,54.48730499999965,83.84619099999964,112.43603499999972,113.0771479999994,115.25634799999989
255,111.79492200000004,150.6411130000006,106.79492200000004,235.12841800000024,-60.1281740000004,108.9741210000002,122.43603499999972,126.41015599999992,131.2822270000006,53.46142599999985,88.58984400000008,113.58984400000008,112.30761700000039,114.10253900000043
256,113.9741210000002,148.20507799999996,107.56396500000028,239.7436520000001,-55.51293900000019,108.3334960000002,127.43603499999972,129.23095699999976,133.9741210000002,55.76904300000024,92.56396500000028,115.38476599999922,114.48730499999965,113.84619099999964
257,120.76904300000024,154.3588869999994,112.82031300000017,249.10253900000043,-50.89746100000002,108.3334960000002,132.43603499999972,137.6923829999996,139.87158199999976,61.2822270000006,93.7177729999994,117.43603499999972,120.89746099999957,115.89746099999957
258,130.12841800000024,167.6923829999996,119.87158199999976,257.4360349999997,-46.153809000000365,108.9741210000002,135.12841800000024,148.20507799999996,146.6665039999998,67.05126999999993,92.05126999999993,119.23095699999976,129.3588869999994,119.10253900000043
259,137.05126999999993,180.76904300000024,124.35888699999941,260.2563479999999,-43.07690400000001,109.61523400000078,133.84619099999964,154.10253900000043,150.2563479999999,69.48730499999965,88.9741210000002,119.23095699999976,135.89746099999957,121.0258789999998
260,137.56396500000028,185.0,122.43603499999972,257.82031300000017,-44.8718259999996,109.74365200000011,128.0771479999994,150.2563479999999,147.17968800000017,66.6665039999998,85.51269500000035,116.6665039999998,135.2563479999999,120.0
261,132.17968800000017,177.82031300000017,114.23095699999976,253.58984400000008,-51.41015600000037,109.10253900000043,119.74365200000011,137.3076170000004,138.0771479999994,59.74365200000011,82.05126999999993,112.82031300000017,126.79492200000004,116.41015599999992
262,125.51269500000035,165.12841800000024,104.35888699999941,251.41015599999992,-58.846190999999635,108.3334960000002,112.43603499999972,122.30761700000039,127.43603499999972,52.05126999999993,79.74365200000011,110.51269500000035,115.25634799999989,112.82031300000017
263,122.94873000000007,155.76904300000024,98.7177729999994,252.82031300000017,-61.92309599999999,107.30761700000039,109.10253900000043,113.46142599999985,121.15380900000036,47.30761700000039,80.0,112.17968800000017,108.3334960000002,111.6665039999998
264,125.64111300000059,155.38476599999922,100.12841800000024,256.6665039999998,-58.71801800000003,105.76904300000024,110.12841800000024,114.23095699999976,122.05126999999993,46.9228520000006,82.56396500000028,116.41015599999992,110.25634799999989,113.46142599999985
265,130.51269500000035,162.56396500000028,106.0258789999998,259.87158199999976,-51.92309599999999,103.3334960000002,113.58984400000008,121.41015599999992,128.20507799999996,49.87158199999976,85.25634799999989,119.74365200000011,118.20507799999996,116.0258789999998
266,133.46142599999985,172.3076170000004,111.6665039999998,260.51269500000035,-45.64111300000013,101.41015599999992,116.79492200000004,128.84619099999964,135.2563479999999,53.974121000000196,85.64111300000059,119.48730499999965,126.0258789999998,117.56396500000028
267,133.58984400000008,179.87158199999976,114.48730499999965,258.84619099999964,-41.28198199999997,101.6665039999998,118.46142599999985,133.0771479999994,140.76904300000024,58.333496000000196,83.84619099999964,116.53857400000015,129.61523400000078,117.82031300000017
268,133.3334960000002,184.23095699999976,115.38476599999922,257.5639650000003,-38.07690400000001,104.35888699999941,119.61523400000078,134.87158199999976,144.87158199999976,63.974121000000196,82.94873000000007,114.23095699999976,130.2563479999999,118.3334960000002
269,136.41015599999992,187.17968800000017,117.30761700000039,259.3588869999994,-33.974365000000034,108.84619099999964,122.17968800000017,137.6923829999996,149.3588869999994,71.9228520000006,86.6665039999998,116.0258789999998,132.56396500000028,120.76904300000024
270,143.7177729999994,191.2822270000006,122.30761700000039,264.87158199999976,-28.846190999999635,113.3334960000002,127.30761700000039,143.3334960000002,155.12841800000024,81.2822270000006,96.41015599999992,122.17968800000017,139.3588869999994,125.89746099999957
271,152.43603499999972,196.6665039999998,128.7177729999994,271.4101559999999,-24.10253899999998,115.64111300000059,132.82031300000017,149.48730499999965,160.38476599999922,88.3334960000002,108.84619099999964,129.3588869999994,148.84619099999964,131.79492200000004
272,156.9228520000006,200.6411130000006,132.17968800000017,275.51269500000035,-21.923095999999987,114.74365200000011,135.38476599999922,151.9228520000006,161.2822270000006,88.3334960000002,117.17968800000017,132.56396500000028,155.6411130000006,135.12841800000024
273,153.46142599999985,200.2563479999999,129.10253900000043,275.12841800000024,-23.333252000000357,111.41015599999992,132.43603499999972,147.43603499999972,155.38476599999922,80.0,115.25634799999989,128.46142599999985,155.12841800000024,133.3334960000002
274,143.46142599999985,195.6411130000006,120.12841800000024,271.2822270000006,-27.051270000000386,108.58984400000008,125.64111300000059,137.17968800000017,144.48730499999965,66.9228520000006,103.7177729999994,119.48730499999965,147.05126999999993,127.56396500000028
275,132.94873000000007,189.87158199999976,110.51269500000035,266.9228520000006,-29.74365200000011,108.3334960000002,119.74365200000011,126.6665039999998,133.84619099999964,56.2822270000006,90.64111300000059,112.05126999999993,136.15380900000036,122.17968800000017
276,127.94873000000007,187.3076170000004,106.15380900000036,264.23095699999976,-28.846190999999635,109.87158199999976,118.84619099999964,122.05126999999993,129.23095699999976,53.46142599999985,84.87158199999976,111.41015599999992,128.58984400000008,121.2822270000006
277,130.0,189.10253900000043,109.10253900000043,263.46142599999985,-24.74365200000011,111.2822270000006,123.20507799999996,125.12841800000024,132.3076170000004,58.333496000000196,89.48730499999965,117.69238299999961,127.69238299999961,124.74365200000011
278,135.2563479999999,193.20507799999996,116.2822270000006,263.5898440000001,-19.8718259999996,110.89746099999957,129.3588869999994,132.82031300000017,139.23095699999976,66.41015599999992,99.10253900000043,126.0258789999998,132.56396500000028,128.9741210000002
279,139.23095699999976,196.53857400000015,122.05126999999993,264.23095699999976,-16.794922000000042,108.9741210000002,133.0771479999994,139.61523400000078,145.12841800000024,72.43603499999972,106.15380900000036,131.0258789999998,139.10253900000043,130.38476599999922
280,140.38476599999922,197.56396500000028,123.58984400000008,266.15380900000036,-15.38452099999995,107.05126999999993,132.82031300000017,142.82031300000017,147.56396500000028,74.74365200000011,107.43603499999972,131.6665039999998,144.23095699999976,128.0771479999994
281,141.41015599999992,197.94873000000007,122.56396500000028,270.6411130000006,-13.71801800000003,107.05126999999993,130.89746099999957,143.84619099999964,147.82031300000017,75.76904300000024,105.12841800000024,130.2563479999999,147.3076170000004,124.61523400000078
282,144.7436520000001,199.3588869999994,122.56396500000028,276.6665039999998,-9.8718259999996,108.84619099999964,130.51269500000035,145.2563479999999,148.3334960000002,78.58984400000008,103.7177729999994,130.2563479999999,149.7436520000001,122.69238299999961
283,149.3588869999994,200.51269500000035,124.74365200000011,281.15380900000036,-4.743652000000111,110.76904300000024,132.6923829999996,147.43603499999972,149.7436520000001,83.3334960000002,105.12841800000024,132.05126999999993,150.6411130000006,122.94873000000007
284,150.76904300000024,198.84619099999964,126.6665039999998,280.76904300000024,-1.7949220000000423,110.64111300000059,134.87158199999976,148.46142599999985,150.2563479999999,86.15380900000036,107.56396500000028,132.94873000000007,147.43603499999972,123.46142599999985
285,145.2563479999999,192.05126999999993,124.10253900000043,274.10253900000043,-4.102538999999979,107.94873000000007,134.10253900000043,146.2822270000006,147.43603499999972,82.56396500000028,107.17968800000017,130.0,138.58984400000008,121.79492200000004
286,133.0771479999994,181.0258789999998,115.38476599999922,262.82031300000017,-12.051270000000386,104.23095699999976,128.7177729999994,140.51269500000035,141.15380900000036,71.9228520000006,101.41015599999992,122.69238299999961,126.53857400000015,117.56396500000028
287,119.74365200000011,169.23095699999976,104.10253900000043,252.05126999999993,-22.435790999999426,101.53857400000015,121.0258789999998,133.20507799999996,134.10253900000043,58.846190999999635,92.05126999999993,114.35888699999941,116.9228520000006,112.94873000000007
288,112.30761700000039,161.2822270000006,96.6665039999998,246.9228520000006,-30.0,100.64111300000059,115.12841800000024,127.56396500000028,129.3588869999994,50.12841800000024,83.9741210000002,109.87158199999976,114.48730499999965,110.89746099999957
289,114.74365200000011,159.48730499999965,97.17968800000017,249.87158199999976,-31.666747999999643,101.41015599999992,113.9741210000002,126.15380900000036,128.84619099999964,49.48730499999965,82.05126999999993,111.41015599999992,119.10253900000043,112.56396500000028
290,125.12841800000024,162.43603499999972,104.74365200000011,258.0771479999994,-27.564209000000574,102.69238299999961,116.79492200000004,128.7177729999994,131.41015599999992,55.25634799999989,86.2822270000006,117.82031300000017,126.0258789999998,117.05126999999993
291,136.41015599999992,166.6665039999998,114.10253900000043,265.89746099999957,-22.30761700000039,103.58984400000008,120.38476599999922,132.3076170000004,133.7177729999994,61.410155999999915,91.6665039999998,124.48730499999965,129.48730499999965,121.15380900000036
292,141.41015599999992,168.3334960000002,119.10253900000043,268.46142599999985,-21.28198199999997,103.0771479999994,121.79492200000004,132.82031300000017,133.3334960000002,62.69238299999961,92.43603499999972,127.30761700000039,126.53857400000015,121.79492200000004
293,137.17968800000017,166.53857400000015,117.30761700000039,265.12841800000024,-26.538574000000153,101.6665039999998,120.51269500000035,127.94873000000007,129.7436520000001,58.20507799999996,87.05126999999993,124.61523400000078,118.9741210000002,118.7177729999994
294,127.17968800000017,162.94873000000007,111.15380900000036,259.23095699999976,-34.35888699999987,100.76904300000024,117.69238299999961,120.0,125.89746099999957,52.05126999999993,78.84619099999964,118.9741210000002,111.79492200000004,114.35888699999941
295,118.3334960000002,160.51269500000035,105.89746099999957,255.51269500000035,-37.564209000000574,101.53857400000015,115.89746099999957,114.35888699999941,124.87158199999976,49.35888699999941,73.3334960000002,114.48730499999965,109.23095699999976,112.05126999999993
296,116.0258789999998,160.76904300000024,105.38476599999922,256.2822270000006,-31.28198199999997,102.82031300000017,116.6665039999998,114.87158199999976,127.56396500000028,51.79492200000004,73.84619099999964,113.46142599999985,111.6665039999998,112.82031300000017
297,120.76904300000024,163.20507799999996,109.10253900000043,261.53857400000015,-17.435790999999426,103.46142599999985,119.23095699999976,120.38476599999922,131.6665039999998,57.56396500000028,79.48730499999965,115.38476599999922,115.89746099999957,115.51269500000035
298,128.84619099999964,165.6411130000006,114.35888699999941,269.23095699999976,-3.4614259999998467,103.20507799999996,121.79492200000004,126.2822270000006,133.9741210000002,63.846190999999635,86.41015599999992,118.0771479999994,118.84619099999964,118.0771479999994
299,135.51269500000035,166.41015599999992,118.58984400000008,275.76904300000024,3.5898440000000846,103.20507799999996,122.56396500000028,127.94873000000007,133.46142599999985,68.58984400000008,90.89746099999957,119.74365200000011,119.61523400000078,119.48730499999965
300,137.43603499999972,166.15380900000036,119.87158199999976,278.46142599999985,2.0512699999999313,103.9741210000002,120.89746099999957,125.25634799999989,131.41015599999992,71.0258789999998,91.0258789999998,119.35888699999941,119.87158199999976,119.74365200000011
301,133.58984400000008,165.76904300000024,117.43603499999972,276.15380900000036,-5.512939000000188,105.0,117.69238299999961,121.0258789999998,129.87158199999976,70.76904300000024,87.05126999999993,117.30761700000039,120.64111300000059,118.84619099999964
302,126.0258789999998,166.2822270000006,111.6665039999998,270.3847659999992,-14.61547900000005,105.64111300000059,114.35888699999941,118.9741210000002,129.7436520000001,68.3334960000002,80.76904300000024,114.74365200000011,121.2822270000006,117.30761700000039
303,118.46142599999985,166.79492200000004,105.12841800000024,264.48730499999965,-21.41015600000037,105.51269500000035,112.56396500000028,121.41015599999992,130.51269500000035,64.74365200000011,74.74365200000011,113.20507799999996,120.51269500000035,115.76904300000024
304,114.48730499999965,165.76904300000024,101.0258789999998,261.53857400000015,-23.461425999999847,105.0,113.0771479999994,127.17968800000017,131.53857400000015,61.9228520000006,71.41015599999992,113.58984400000008,117.94873000000007,115.25634799999989
305,114.35888699999941,162.05126999999993,100.64111300000059,262.3076170000004,-21.153809000000365,104.48730499999965,115.38476599999922,133.20507799999996,132.56396500000028,60.76904300000024,71.15380900000036,115.0,115.25634799999989,115.76904300000024
306,115.51269500000035,155.38476599999922,102.56396500000028,265.3847659999992,-17.051270000000386,103.7177729999994,117.82031300000017,136.15380900000036,132.94873000000007,62.05126999999993,73.3334960000002,115.89746099999957,113.84619099999964,116.0258789999998
307,115.25634799999989,148.46142599999985,104.74365200000011,268.5898440000001,-13.71801800000003,103.0771479999994,119.23095699999976,135.76904300000024,133.3334960000002,65.12841800000024,77.17968800000017,115.38476599999922,113.84619099999964,115.12841800000024
308,114.35888699999941,145.2563479999999,106.0258789999998,270.6411130000006,-12.435790999999426,102.82031300000017,119.23095699999976,134.23095699999976,134.3588869999994,68.84619099999964,82.17968800000017,114.74365200000011,114.35888699999941,114.23095699999976
309,115.38476599999922,147.3076170000004,106.2822270000006,271.4101559999999,-12.820557000000008,103.3334960000002,118.3334960000002,133.84619099999964,136.2822270000006,71.41015599999992,86.79492200000004,115.0,114.48730499999965,114.87158199999976
310,119.23095699999976,152.82031300000017,106.41015599999992,271.2822270000006,-14.230713000000378,104.23095699999976,117.30761700000039,135.0,137.43603499999972,71.2822270000006,88.7177729999994,115.89746099999957,114.48730499999965,116.9228520000006
311,124.23095699999976,157.82031300000017,107.56396500000028,271.4101559999999,-15.769286999999622,104.74365200000011,116.53857400000015,135.38476599999922,136.2822270000006,68.7177729999994,87.30761700000039,116.53857400000015,115.25634799999989,119.10253900000043
312,128.46142599999985,160.76904300000024,110.64111300000059,273.20507799999996,-16.153809000000365,104.74365200000011,116.2822270000006,134.23095699999976,133.0771479999994,66.2822270000006,84.87158199999976,116.53857400000015,118.20507799999996,120.76904300000024
313,131.9228520000006,162.94873000000007,115.38476599999922,277.94873000000007,-13.58984399999963,104.35888699999941,116.53857400000015,132.56396500000028,130.51269500000035,67.05126999999993,85.38476599999922,117.05126999999993,123.58984400000008,122.82031300000017
314,135.89746099999957,166.2822270000006,120.12841800000024,284.48730499999965,-8.58984399999963,103.9741210000002,117.43603499999972,132.05126999999993,130.89746099999957,71.15380900000036,90.38476599999922,119.23095699999976,129.87158199999976,125.76904300000024
315,140.6411130000006,170.89746099999957,123.0771479999994,290.12841800000024,-4.102538999999979,103.84619099999964,118.46142599999985,132.82031300000017,133.3334960000002,75.0,97.17968800000017,122.56396500000028,134.23095699999976,128.46142599999985
316,144.87158199999976,174.61523400000078,123.46142599999985,291.6665039999998,-3.5898440000000846,103.58984400000008,118.84619099999964,132.82031300000017,134.48730499999965,74.35888699999941,101.41015599999992,125.51269500000035,134.7436520000001,128.84619099999964
317,146.2822270000006,174.48730499999965,121.6665039999998,288.3334960000002,-7.564209000000574,102.82031300000017,117.43603499999972,129.48730499999965,131.41015599999992,68.0771479999994,100.25634799999989,126.6665039999998,132.05126999999993,126.79492200000004
318,143.58984400000008,170.2563479999999,118.7177729999994,281.79492200000004,-13.333252000000357,101.9228520000006,114.48730499999965,122.82031300000017,124.35888699999941,59.48730499999965,94.61523400000078,125.38476599999922,129.10253900000043,123.46142599999985
319,137.82031300000017,164.3588869999994,115.25634799999989,275.12841800000024,-17.435790999999426,101.15380900000036,111.2822270000006,115.12841800000024,117.30761700000039,53.974121000000196,88.9741210000002,122.56396500000028,128.0771479999994,120.89746099999957
320,132.56396500000028,160.76904300000024,112.82031300000017,271.79492200000004,-17.69238299999961,101.79492200000004,110.0,110.64111300000059,114.87158199999976,55.12841800000024,88.3334960000002,119.74365200000011,129.61523400000078,120.51269500000035
321,131.79492200000004,161.6665039999998,112.69238299999961,273.9741210000002,-14.487060999999812,104.87158199999976,111.41015599999992,111.6665039999998,118.58984400000008,63.0771479999994,94.23095699999976,118.58984400000008,132.17968800000017,122.43603499999972
322,136.15380900000036,165.6411130000006,115.0,280.0,-9.743652000000111,110.0,114.35888699999941,117.69238299999961,126.0258789999998,73.9741210000002,102.69238299999961,119.48730499999965,134.3588869999994,125.51269500000035
323,142.3076170000004,168.3334960000002,117.82031300000017,285.6411130000006,-5.128174000000399,114.61523400000078,116.41015599999992,124.74365200000011,131.9228520000006,82.56396500000028,107.17968800000017,121.79492200000004,135.6411130000006,127.69238299999961
324,145.89746099999957,167.3076170000004,118.84619099999964,286.9228520000006,-1.7949220000000423,115.89746099999957,116.15380900000036,128.84619099999964,133.20507799999996,85.25634799999989,105.38476599999922,124.10253900000043,136.6665039999998,128.20507799999996
325,146.0258789999998,163.9741210000002,118.58984400000008,284.23095699999976,0.512695000000349,113.46142599999985,115.25634799999989,129.3588869999994,131.41015599999992,83.3334960000002,100.76904300000024,126.15380900000036,139.10253900000043,127.94873000000007
326,145.76904300000024,162.82031300000017,119.61523400000078,281.9228520000006,2.8203130000001693,109.23095699999976,116.53857400000015,129.61523400000078,130.89746099999957,80.89746099999957,99.61523400000078,128.20507799999996,143.58984400000008,128.84619099999964
327,148.84619099999964,167.17968800000017,124.35888699999941,283.9741210000002,6.153809000000365,106.2822270000006,121.79492200000004,132.82031300000017,135.38476599999922,81.79492200000004,104.74365200000011,130.76904300000024,148.9741210000002,131.2822270000006
328,155.6411130000006,175.12841800000024,132.05126999999993,290.2563479999999,9.102539000000434,106.0258789999998,129.23095699999976,138.84619099999964,143.20507799999996,85.51269500000035,113.20507799999996,132.94873000000007,153.0771479999994,134.10253900000043
329,161.6665039999998,181.53857400000015,139.23095699999976,296.6665039999998,9.743652000000111,107.43603499999972,134.61523400000078,144.23095699999976,149.23095699999976,88.9741210000002,118.58984400000008,133.3334960000002,154.23095699999976,135.12841800000024
330,162.17968800000017,181.41015599999992,142.05126999999993,298.46142599999985,7.051269999999931,108.3334960000002,134.3588869999994,144.87158199999976,148.58984400000008,89.23095699999976,116.9228520000006,131.79492200000004,152.17968800000017,133.46142599999985
331,156.41015599999992,175.0,139.48730499999965,295.12841800000024,3.9741210000001956,107.30761700000039,128.20507799999996,140.12841800000024,141.79492200000004,86.79492200000004,109.48730499999965,129.48730499999965,148.84619099999964,130.0
332,148.9741210000002,167.05126999999993,134.10253900000043,290.2563479999999,4.6152340000007825,104.87158199999976,119.87158199999976,133.0771479999994,133.3334960000002,83.84619099999964,102.05126999999993,128.20507799999996,146.41015599999992,126.41015599999992
333,144.61523400000078,162.17968800000017,129.3588869999994,287.82031300000017,10.641113000000587,102.43603499999972,114.48730499999965,128.20507799999996,128.46142599999985,82.17968800000017,99.10253900000043,128.3334960000002,145.76904300000024,123.84619099999964
334,144.48730499999965,162.05126999999993,127.17968800000017,288.46142599999985,19.230956999999762,101.2822270000006,115.64111300000059,127.69238299999961,128.9741210000002,82.05126999999993,101.15380900000036,128.58984400000008,146.15380900000036,122.69238299999961
335,146.41015599999992,165.0,127.05126999999993,289.48730499999965,24.871581999999762,101.41015599999992,122.05126999999993,130.6411130000006,132.17968800000017,82.69238299999961,104.74365200000011,128.3334960000002,146.9228520000006,122.69238299999961
336,147.6923829999996,168.20507799999996,127.56396500000028,288.20507799999996,23.589844000000085,102.30761700000039,129.3588869999994,134.23095699999976,135.0,83.7177729999994,106.79492200000004,127.56396500000028,147.56396500000028,123.58984400000008
337,146.79492200000004,168.84619099999964,127.69238299999961,284.87158199999976,15.897460999999566,103.0771479999994,132.6923829999996,135.2563479999999,135.12841800000024,84.74365200000011,105.51269500000035,127.56396500000028,147.94873000000007,125.0
338,143.58984400000008,166.41015599999992,127.56396500000028,281.4101559999999,6.153809000000365,103.3334960000002,130.0,132.56396500000028,132.82031300000017,84.48730499999965,101.79492200000004,128.46142599999985,146.9228520000006,126.0258789999998
339,139.87158199999976,162.05126999999993,128.0771479999994,280.0,0.256347999999889,103.0771479999994,123.46142599999985,127.94873000000007,129.87158199999976,83.20507799999996,98.46142599999985,129.7436520000001,143.3334960000002,125.51269500000035
340,138.58984400000008,159.10253900000043,129.7436520000001,282.17968800000017,2.8203130000001693,102.82031300000017,117.56396500000028,125.12841800000024,128.46142599999985,82.05126999999993,98.58984400000008,130.89746099999957,137.94873000000007,123.7177729999994
341,141.15380900000036,159.48730499999965,132.17968800000017,286.9228520000006,12.56396500000028,103.3334960000002,115.38476599999922,126.6665039999998,129.87158199999976,82.69238299999961,102.43603499999972,131.41015599999992,134.10253900000043,121.79492200000004
342,145.2563479999999,161.9228520000006,133.7177729999994,290.89746099999957,23.077147999999397,104.35888699999941,116.79492200000004,131.15380900000036,132.43603499999972,84.35888699999941,106.15380900000036,130.89746099999957,133.84619099999964,120.64111300000059
343,147.3076170000004,162.94873000000007,133.0771479999994,290.12841800000024,26.538574000000153,105.12841800000024,118.84619099999964,134.3588869999994,133.7177729999994,84.87158199999976,105.51269500000035,128.46142599999985,135.6411130000006,120.64111300000059
344,145.6411130000006,160.2563479999999,130.6411130000006,284.3588869999994,20.641113000000587,104.61523400000078,118.58984400000008,132.6923829999996,132.05126999999993,82.17968800000017,100.12841800000024,124.35888699999941,136.0258789999998,121.53857400000015
345,141.79492200000004,154.23095699999976,127.82031300000017,277.05126999999993,10.0,103.0771479999994,115.64111300000059,126.53857400000015,128.46142599999985,76.53857400000015,93.3334960000002,120.51269500000035,132.05126999999993,122.82031300000017
346,138.84619099999964,148.3334960000002,126.2822270000006,273.20507799999996,3.077147999999397,102.05126999999993,112.05126999999993,119.23095699999976,125.0,70.51269500000035,89.48730499999965,118.58984400000008,124.74365200000011,124.10253900000043
347,138.58984400000008,146.53857400000015,126.6665039999998,275.89746099999957,5.3847659999992175,103.0771479999994,110.76904300000024,115.38476599999922,124.10253900000043,67.43603499999972,90.89746099999957,119.23095699999976,118.7177729999994,124.87158199999976
348,140.89746099999957,150.76904300000024,128.3334960000002,284.6152340000008,15.897460999999566,106.2822270000006,113.3334960000002,117.69238299999961,126.79492200000004,69.35888699999941,96.41015599999992,121.2822270000006,118.20507799999996,124.74365200000011
349,143.46142599999985,159.23095699999976,129.61523400000078,295.12841800000024,27.43603499999972,110.12841800000024,117.43603499999972,124.35888699999941,131.53857400000015,75.64111300000059,101.6665039999998,122.43603499999972,123.7177729999994,123.58984400000008
350,143.3334960000002,166.41015599999992,128.7177729999994,301.6665039999998,32.94873000000007,112.17968800000017,119.61523400000078,131.0258789999998,135.38476599999922,83.0771479999994,101.41015599999992,121.15380900000036,130.76904300000024,121.53857400000015
351,138.84619099999964,167.3076170000004,125.12841800000024,300.89746099999957,30.0,111.15380900000036,118.20507799999996,133.20507799999996,135.76904300000024,87.56396500000028,93.7177729999994,117.94873000000007,133.20507799999996,119.10253900000043
352,132.3076170000004,161.2822270000006,120.38476599999922,294.6152340000008,22.82031300000017,108.3334960000002,115.51269500000035,130.76904300000024,132.6923829999996,87.56396500000028,83.0771479999994,114.48730499999965,128.46142599999985,117.56396500000028
353,127.94873000000007,152.56396500000028,117.43603499999972,288.5898440000001,18.205077999999958,105.89746099999957,115.38476599999922,127.43603499999972,129.23095699999976,84.74365200000011,76.9228520000006,113.0771479999994,119.61523400000078,118.3334960000002
354,128.7177729999994,147.05126999999993,117.82031300000017,286.9228520000006,20.0,105.38476599999922,119.74365200000011,126.79492200000004,128.20507799999996,82.30761700000039,79.74365200000011,114.48730499999965,112.69238299999961,121.15380900000036
355,133.20507799999996,147.43603499999972,121.0258789999998,290.2563479999999,26.282227000000603,106.6665039999998,126.0258789999998,129.48730499999965,130.51269500000035,82.56396500000028,88.46142599999985,117.56396500000028,112.17968800000017,123.9741210000002
356,137.05126999999993,151.2822270000006,124.10253900000043,295.76904300000024,32.05126999999993,108.0771479999994,130.0,132.3076170000004,134.3588869999994,85.12841800000024,95.51269500000035,119.74365200000011,117.30761700000039,124.61523400000078
357,136.15380900000036,153.7177729999994,124.10253900000043,299.87158199999976,32.94873000000007,107.43603499999972,128.3334960000002,132.3076170000004,136.6665039999998,87.43603499999972,95.38476599999922,119.10253900000043,122.82031300000017,121.79492200000004
358,130.38476599999922,150.89746099999957,120.0,300.12841800000024,28.589844000000085,104.10253900000043,122.56396500000028,129.23095699999976,135.89746099999957,86.9228520000006,88.46142599999985,116.53857400000015,123.7177729999994,117.43603499999972
359,123.20507799999996,143.84619099999964,114.35888699999941,296.79492200000004,22.56396500000028,100.25634799999989,117.17968800000017,125.76904300000024,132.56396500000028,83.7177729999994,80.38476599999922,114.35888699999941,119.23095699999976,114.48730499999965
360,119.61523400000078,137.05126999999993,111.0258789999998,292.6923829999996,19.48730499999965,98.9741210000002,116.6665039999998,125.0,129.87158199999976,80.51269500000035,77.05126999999993,114.48730499999965,113.0771479999994,114.87158199999976
361,122.17968800000017,135.76904300000024,112.30761700000039,290.89746099999957,21.410155999999915,101.6665039999998,121.9228520000006,127.82031300000017,130.0,81.0258789999998,80.12841800000024,117.05126999999993,110.76904300000024,118.58984400000008
362,129.23095699999976,141.2822270000006,117.43603499999972,292.82031300000017,27.17968800000017,106.9228520000006,129.23095699999976,132.3076170000004,133.3334960000002,86.6665039999998,86.79492200000004,120.38476599999922,114.10253900000043,123.3334960000002
363,136.41015599999992,149.87158199999976,123.20507799999996,296.2822270000006,33.0771479999994,110.76904300000024,133.58984400000008,135.76904300000024,137.56396500000028,94.74365200000011,92.17968800000017,122.82031300000017,119.87158199999976,127.05126999999993
364,139.10253900000043,155.76904300000024,125.64111300000059,298.0771479999994,35.38476599999922,110.51269500000035,131.9228520000006,135.51269500000035,138.9741210000002,99.74365200000011,92.43603499999972,123.46142599999985,122.17968800000017,127.43603499999972
365,135.0,154.23095699999976,122.94873000000007,296.15380900000036,32.82031300000017,106.9228520000006,124.87158199999976,131.41015599999992,135.0,97.30761700000039,87.56396500000028,121.79492200000004,117.69238299999961,123.7177729999994
366,125.64111300000059,145.2563479999999,116.41015599999992,290.51269500000035,26.666503999999804,102.56396500000028,116.9228520000006,124.61523400000078,126.6665039999998,87.82031300000017,80.51269500000035,118.3334960000002,107.30761700000039,117.56396500000028
367,116.0258789999998,133.58984400000008,110.25634799999989,283.20507799999996,20.0,100.25634799999989,111.9228520000006,118.20507799999996,118.20507799999996,76.15380900000036,75.38476599999922,114.35888699999941,96.6665039999998,112.30761700000039
368,111.6665039999998,125.25634799999989,108.3334960000002,276.53857400000015,16.538574000000153,100.64111300000059,111.6665039999998,114.74365200000011,113.9741210000002,69.10253900000043,74.74365200000011,112.17968800000017,92.05126999999993,110.89746099999957
369,115.38476599999922,123.9741210000002,112.43603499999972,272.94873000000007,17.56396500000028,102.30761700000039,114.61523400000078,115.38476599999922,116.41015599999992,70.51269500000035,78.7177729999994,113.3334960000002,96.79492200000004,113.9741210000002
370,124.48730499999965,129.10253900000043,120.51269500000035,273.3334960000002,21.922852000000603,104.10253900000043,117.94873000000007,119.23095699999976,123.20507799999996,78.9741210000002,84.61523400000078,117.56396500000028,107.94873000000007,119.48730499999965
371,132.6923829999996,135.76904300000024,128.3334960000002,276.2822270000006,26.282227000000603,105.12841800000024,118.9741210000002,123.3334960000002,128.84619099999964,88.3334960000002,89.23095699999976,122.56396500000028,118.58984400000008,124.35888699999941
372,134.23095699999976,138.58984400000008,131.15380900000036,278.7177729999994,27.43603499999972,104.87158199999976,116.6665039999998,124.61523400000078,128.58984400000008,91.79492200000004,89.74365200000011,125.64111300000059,122.05126999999993,125.64111300000059
373,127.69238299999961,136.2822270000006,127.56396500000028,278.3334960000002,24.230956999999762,103.58984400000008,112.56396500000028,122.05126999999993,121.9228520000006,87.56396500000028,86.41015599999992,124.74365200000011,117.05126999999993,122.69238299999961
374,118.0771479999994,132.05126999999993,121.53857400000015,275.3847659999992,19.871581999999762,102.17968800000017,110.0,117.69238299999961,114.35888699999941,80.25634799999989,81.79492200000004,120.64111300000059,108.3334960000002,117.69238299999961
375,112.69238299999961,130.89746099999957,118.84619099999964,273.0771479999994,19.230956999999762,101.79492200000004,111.9228520000006,115.25634799999989,112.30761700000039,77.17968800000017,79.87158199999976,116.2822270000006,102.94873000000007,114.35888699999941
376,116.2822270000006,134.7436520000001,122.69238299999961,273.9741210000002,25.128418000000238,103.20507799999996,118.0771479999994,116.6665039999998,117.94873000000007,81.9228520000006,82.94873000000007,115.25634799999989,104.35888699999941,114.61523400000078
377,126.41015599999992,141.0258789999998,129.87158199999976,277.17968800000017,34.74365200000011,105.12841800000024,125.0,120.51269500000035,127.43603499999972,91.2822270000006,89.10253900000043,118.3334960000002,110.76904300000024,117.56396500000028
378,135.0,144.61523400000078,134.23095699999976,278.9741210000002,42.05126999999993,105.64111300000059,128.0771479999994,122.82031300000017,133.0771479999994,98.3334960000002,93.9741210000002,122.82031300000017,117.17968800000017,120.12841800000024
379,135.89746099999957,142.82031300000017,132.17968800000017,276.6665039999998,43.846190999999635,103.9741210000002,125.64111300000059,121.41015599999992,130.89746099999957,98.3334960000002,94.48730499999965,125.64111300000059,120.0,120.76904300000024
380,128.84619099999964,137.43603499999972,125.38476599999922,271.9228520000006,41.410155999999915,101.9228520000006,120.12841800000024,117.43603499999972,122.94873000000007,92.69238299999961,91.41015599999992,125.12841800000024,118.84619099999964,119.61523400000078
381,119.87158199999976,132.56396500000028,118.58984400000008,268.20507799999996,38.7177729999994,101.53857400000015,115.64111300000059,114.87158199999976,115.38476599999922,85.89746099999957,87.94873000000007,122.30761700000039,115.89746099999957,118.0771479999994
382,114.74365200000011,131.0258789999998,115.38476599999922,267.5639650000003,37.69238299999961,103.84619099999964,114.74365200000011,115.38476599999922,113.58984400000008,81.79492200000004,86.2822270000006,119.48730499999965,113.46142599999985,117.56396500000028
383,114.87158199999976,132.56396500000028,116.2822270000006,268.5898440000001,37.17968800000017,107.69238299999961,116.79492200000004,117.69238299999961,118.0771479999994,81.0258789999998,86.79492200000004,118.46142599999985,111.9228520000006,118.20507799999996
