,EEG.AF3,EEG.F7,EEG.F3,EEG.FC5,EEG.T7,EEG.P7,EEG.O1,EEG.O2,EEG.P8,EEG.T8,EEG.FC6,EEG.F4,EEG.F8,EEG.AF4
0,148.0771479999994,139.7436520000001,108.84619099999964,193.9741210000002,101.0258789999998,110.76904300000024,111.53857400000015,111.79492200000004,110.51269500000035,118.3334960000002,145.38476599999922,119.48730499999965,163.9741210000002,131.0258789999998
1,147.3076170000004,133.20507799999996,110.76904300000024,199.10253900000043,99.61523400000078,111.41015599999992,108.0771479999994,111.79492200000004,108.58984400000008,112.56396500000028,144.87158199999976,118.84619099999964,164.23095699999976,132.05126999999993
2,150.76904300000024,131.2822270000006,113.46142599999985,205.89746099999957,99.35888699999941,113.20507799999996,107.05126999999993,113.84619099999964,111.6665039999998,112.17968800000017,146.2822270000006,120.25634799999989,168.9741210000002,133.46142599999985
3,156.41015599999992,134.3588869999994,115.64111300000059,212.6923829999996,98.7177729999994,114.87158199999976,108.46142599999985,115.12841800000024,115.51269500000035,115.12841800000024,147.56396500000028,122.56396500000028,175.0,134.3588869999994
4,161.6665039999998,140.2563479999999,117.30761700000039,218.7177729999994,98.58984400000008,115.76904300000024,111.41015599999992,114.74365200000011,116.79492200000004,117.17968800000017,148.0771479999994,123.58984400000008,179.61523400000078,134.61523400000078
5,164.48730499999965,145.38476599999922,119.35888699999941,224.3588869999994,100.89746099999957,115.38476599999922,115.0,114.10253900000043,115.64111300000059,116.79492200000004,149.3588869999994,123.7177729999994,182.56396500000028,135.38476599999922
6,165.2563479999999,146.9228520000006,122.69238299999961,230.2563479999999,106.15380900000036,114.61523400000078,118.7177729999994,115.25634799999989,114.87158199999976,116.15380900000036,153.46142599999985,125.0,186.53857400000015,137.94873000000007
7,165.89746099999957,144.10253900000043,126.53857400000015,235.76904300000024,111.9228520000006,114.10253900000043,121.41015599999992,118.46142599999985,116.53857400000015,117.30761700000039,160.6411130000006,129.10253900000043,193.58984400000008,142.17968800000017
8,167.43603499999972,138.46142599999985,128.3334960000002,239.3588869999994,114.48730499999965,114.10253900000043,121.2822270000006,120.51269500000035,118.84619099999964,119.61523400000078,168.3334960000002,134.23095699999976,202.17968800000017,146.0258789999998
9,168.7177729999994,131.6665039999998,125.76904300000024,239.7436520000001,111.2822270000006,114.74365200000011,117.43603499999972,117.30761700000039,117.94873000000007,119.87158199999976,171.6665039999998,136.41015599999992,208.0771479999994,146.6665039999998
10,167.94873000000007,124.35888699999941,119.23095699999976,237.05126999999993,103.84619099999964,115.38476599999922,110.89746099999957,108.58984400000008,112.05126999999993,115.76904300000024,168.3334960000002,132.94873000000007,207.43603499999972,143.20507799999996
11,165.12841800000024,117.17968800000017,112.56396500000028,234.87158199999976,97.30761700000039,116.2822270000006,104.48730499999965,99.23095699999976,104.35888699999941,109.35888699999941,161.2822270000006,125.76904300000024,201.41015599999992,137.82031300000017
12,162.17968800000017,111.15380900000036,110.25634799999989,237.05126999999993,97.82031300000017,117.17968800000017,101.41015599999992,95.12841800000024,100.89746099999957,105.76904300000024,156.2822270000006,119.74365200000011,195.12841800000024,133.7177729999994
13,161.79492200000004,107.17968800000017,113.84619099999964,244.7436520000001,107.56396500000028,117.82031300000017,102.17968800000017,98.84619099999964,104.48730499999965,107.69238299999961,156.9228520000006,118.20507799999996,193.0771479999994,133.0771479999994
14,165.2563479999999,105.89746099999957,120.25634799999989,255.12841800000024,122.69238299999961,118.0771479999994,105.0,107.05126999999993,112.94873000000007,113.20507799999996,161.9228520000006,120.89746099999957,196.15380900000036,135.12841800000024
15,171.41015599999992,106.79492200000004,125.0,263.9741210000002,136.0258789999998,117.69238299999961,106.6665039999998,114.23095699999976,120.64111300000059,117.56396500000028,167.3076170000004,124.23095699999976,201.79492200000004,137.94873000000007
16,177.6923829999996,108.9741210000002,125.25634799999989,268.9741210000002,142.3076170000004,117.05126999999993,105.38476599999922,115.25634799999989,122.30761700000039,118.7177729999994,169.7436520000001,124.87158199999976,206.0258789999998,139.7436520000001
17,181.15380900000036,111.41015599999992,122.30761700000039,271.4101559999999,142.43603499999972,116.79492200000004,101.9228520000006,109.74365200000011,117.69238299999961,118.3334960000002,169.48730499999965,122.17968800000017,206.53857400000015,139.48730499999965
18,180.76904300000024,112.30761700000039,118.58984400000008,273.20507799999996,141.9228520000006,117.30761700000039,98.7177729999994,101.41015599999992,111.15380900000036,119.61523400000078,168.46142599999985,118.20507799999996,203.46142599999985,137.3076170000004
19,176.9228520000006,110.0,116.0258789999998,275.2563479999999,146.41015599999992,118.0771479999994,98.3334960000002,95.76904300000024,108.58984400000008,123.46142599999985,168.58984400000008,115.89746099999957,198.20507799999996,134.23095699999976
20,171.41015599999992,103.7177729999994,113.9741210000002,276.0258789999998,156.53857400000015,118.46142599999985,100.12841800000024,96.41015599999992,111.9228520000006,127.82031300000017,169.87158199999976,116.15380900000036,191.2822270000006,131.53857400000015
21,166.6665039999998,95.0,111.15380900000036,274.10253900000043,168.20507799999996,118.3334960000002,101.41015599999992,101.41015599999992,118.20507799999996,129.7436520000001,170.6411130000006,118.20507799999996,182.43603499999972,128.9741210000002
22,163.9741210000002,86.9228520000006,107.30761700000039,270.76904300000024,176.41015599999992,117.82031300000017,99.87158199999976,105.25634799999989,121.79492200000004,127.94873000000007,169.7436520000001,119.74365200000011,172.05126999999993,126.0258789999998
23,162.3076170000004,81.9228520000006,103.3334960000002,268.0771479999994,179.7436520000001,117.17968800000017,95.25634799999989,102.82031300000017,118.58984400000008,123.46142599999985,167.05126999999993,118.7177729999994,161.53857400000015,122.17968800000017
24,158.7177729999994,79.23095699999976,99.35888699999941,266.2822270000006,180.38476599999922,117.17968800000017,89.61523400000078,92.82031300000017,108.20507799999996,117.69238299999961,163.58984400000008,114.61523400000078,151.41015599999992,117.05126999999993
25,151.15380900000036,75.25634799999989,95.12841800000024,263.7177729999994,182.6923829999996,117.69238299999961,85.12841800000024,78.58984400000008,93.9741210000002,111.79492200000004,160.51269500000035,108.46142599999985,141.2822270000006,111.15380900000036
26,141.6665039999998,67.43603499999972,90.51269500000035,258.46142599999985,190.2563479999999,118.20507799999996,82.94873000000007,66.0258789999998,80.51269500000035,106.6665039999998,158.9741210000002,102.69238299999961,130.76904300000024,106.53857400000015
27,134.87158199999976,57.05126999999993,87.05126999999993,251.15380900000036,203.7177729999994,118.3334960000002,83.0771479999994,60.12841800000024,72.30761700000039,103.9741210000002,160.38476599999922,99.61523400000078,121.15380900000036,105.76904300000024
28,134.7436520000001,47.94873000000007,86.0258789999998,244.87158199999976,219.87158199999976,118.3334960000002,84.87158199999976,61.9228520000006,71.0258789999998,105.38476599999922,166.2822270000006,99.61523400000078,115.12841800000024,108.9741210000002
29,140.12841800000024,42.56396500000028,87.05126999999993,242.82031300000017,233.3334960000002,119.10253900000043,87.17968800000017,68.3334960000002,75.38476599999922,112.05126999999993,176.2822270000006,101.41015599999992,113.3334960000002,114.10253900000043
30,145.76904300000024,39.87158199999976,88.3334960000002,244.87158199999976,240.12841800000024,120.51269500000035,88.3334960000002,74.10253900000043,80.51269500000035,121.9228520000006,187.94873000000007,103.3334960000002,114.74365200000011,117.43603499999972
31,145.89746099999957,37.05126999999993,87.56396500000028,247.56396500000028,241.0258789999998,121.79492200000004,86.53857400000015,75.25634799999989,81.0258789999998,130.51269500000035,197.05126999999993,103.3334960000002,116.9228520000006,116.0258789999998
32,138.0771479999994,31.410155999999915,83.46142599999985,246.41015599999992,239.87158199999976,121.9228520000006,82.17968800000017,71.0258789999998,75.38476599999922,133.9741210000002,200.38476599999922,100.12841800000024,117.56396500000028,110.25634799999989
33,125.12841800000024,22.56396500000028,76.41015599999992,239.3588869999994,240.76904300000024,121.2822270000006,77.05126999999993,64.87158199999976,67.43603499999972,133.20507799999996,197.6923829999996,94.48730499999965,114.61523400000078,102.56396500000028
34,113.20507799999996,12.82031300000017,68.9741210000002,228.84619099999964,245.38476599999922,120.64111300000059,73.7177729999994,61.666503999999804,63.846190999999635,133.3334960000002,193.0771479999994,88.84619099999964,107.69238299999961,96.79492200000004
35,107.82031300000017,6.666503999999804,64.35888699999941,220.76904300000024,252.3076170000004,120.76904300000024,73.0771479999994,63.7177729999994,67.82031300000017,139.48730499999965,191.2822270000006,85.25634799999989,98.20507799999996,94.61523400000078
36,108.9741210000002,7.43603499999972,63.846190999999635,220.0,259.10253900000043,122.17968800000017,73.84619099999964,68.7177729999994,75.89746099999957,151.6665039999998,194.3588869999994,83.84619099999964,89.35888699999941,96.0258789999998
37,113.20507799999996,15.256347999999889,66.41015599999992,227.05126999999993,264.3588869999994,125.0,74.48730499999965,71.9228520000006,81.41015599999992,164.61523400000078,200.6411130000006,83.46142599999985,85.0,98.9741210000002
38,116.15380900000036,27.05126999999993,69.48730499999965,237.94873000000007,268.9741210000002,128.46142599999985,73.7177729999994,70.51269500000035,80.0,173.20507799999996,207.17968800000017,83.3334960000002,87.94873000000007,102.43603499999972
39,117.30761700000039,38.20507799999996,71.2822270000006,247.17968800000017,274.7436520000001,130.76904300000024,72.43603499999972,65.51269500000035,73.3334960000002,176.0258789999998,212.3076170000004,83.7177729999994,97.43603499999972,105.76904300000024
40,117.69238299999961,44.74365200000011,71.15380900000036,251.53857400000015,281.9228520000006,130.76904300000024,71.6665039999998,60.0,65.76904300000024,176.41015599999992,215.38476599999922,85.0,108.84619099999964,108.46142599999985
41,118.58984400000008,44.74365200000011,69.10253900000043,250.38476599999922,288.5898440000001,128.46142599999985,71.9228520000006,56.153809000000365,60.897460999999566,177.56396500000028,215.2563479999999,85.25634799999989,115.25634799999989,108.9741210000002
42,118.7177729999994,39.102539000000434,65.64111300000059,245.89746099999957,291.6665039999998,125.25634799999989,72.17968800000017,54.87158199999976,59.23095699999976,179.87158199999976,211.0258789999998,82.82031300000017,112.43603499999972,106.79492200000004
43,116.9228520000006,31.282227000000603,62.05126999999993,241.53857400000015,290.2563479999999,123.20507799999996,71.6665039999998,55.12841800000024,59.48730499999965,182.17968800000017,203.46142599999985,77.56396500000028,101.15380900000036,103.20507799999996
44,113.7177729999994,25.384765999999217,60.38476599999922,240.12841800000024,286.4101559999999,123.7177729999994,70.0,56.410155999999915,59.87158199999976,184.61523400000078,196.15380900000036,72.17968800000017,87.94873000000007,100.38476599999922
45,112.43603499999972,24.615234000000783,62.17968800000017,242.05126999999993,285.12841800000024,126.2822270000006,68.7177729999994,57.82031300000017,61.2822270000006,189.61523400000078,193.46142599999985,70.64111300000059,80.12841800000024,100.25634799999989
46,114.35888699999941,28.461425999999847,66.79492200000004,245.12841800000024,289.7436520000001,129.10253900000043,69.10253900000043,59.35888699999941,64.48730499999965,198.3334960000002,196.9228520000006,73.84619099999964,80.64111300000059,102.30761700000039
47,117.56396500000028,32.82031300000017,71.6665039999998,244.87158199999976,299.87158199999976,130.76904300000024,70.64111300000059,60.0,68.0771479999994,208.0771479999994,203.7177729999994,79.74365200000011,86.15380900000036,104.74365200000011
48,117.30761700000039,32.69238299999961,73.58984400000008,238.3334960000002,311.15380900000036,130.89746099999957,71.2822270000006,59.102539000000434,68.0771479999994,213.46142599999985,208.46142599999985,83.46142599999985,89.48730499999965,105.12841800000024
49,112.05126999999993,26.410155999999915,71.53857400000015,226.79492200000004,318.3334960000002,130.38476599999922,69.48730499999965,56.025878999999804,61.79492200000004,211.0258789999998,206.9228520000006,82.43603499999972,86.0258789999998,103.20507799999996
50,104.35888699999941,16.922852000000603,67.30761700000039,215.12841800000024,317.94873000000007,130.0,65.76904300000024,51.666503999999804,50.64111300000059,202.17968800000017,199.87158199999976,77.82031300000017,77.05126999999993,100.38476599999922
51,98.84619099999964,9.487304999999651,64.10253900000043,207.3076170000004,310.76904300000024,130.38476599999922,63.0771479999994,47.94873000000007,40.12841800000024,192.56396500000028,191.79492200000004,73.7177729999994,68.58984400000008,98.9741210000002
52,98.20507799999996,6.666503999999804,64.35888699999941,203.9741210000002,302.5639650000003,131.6665039999998,64.10253900000043,47.17968800000017,36.666503999999804,188.3334960000002,187.94873000000007,74.10253900000043,65.89746099999957,99.87158199999976
53,101.2822270000006,7.692382999999609,67.82031300000017,203.58984400000008,300.2563479999999,132.94873000000007,68.84619099999964,50.64111300000059,42.56396500000028,192.82031300000017,190.6411130000006,79.74365200000011,69.10253900000043,102.56396500000028
54,103.9741210000002,9.230956999999762,72.43603499999972,204.10253900000043,307.3076170000004,133.0771479999994,74.23095699999976,56.79492200000004,54.102539000000434,204.3588869999994,197.17968800000017,87.05126999999993,73.7177729999994,104.87158199999976
55,102.05126999999993,7.948730000000069,74.35888699999941,203.9741210000002,320.0,131.9228520000006,75.76904300000024,61.153809000000365,63.333496000000196,216.79492200000004,201.79492200000004,90.64111300000059,73.84619099999964,104.87158199999976
56,93.9741210000002,2.4360349999997197,71.41015599999992,202.6923829999996,330.12841800000024,130.76904300000024,71.53857400000015,59.48730499999965,63.589844000000085,223.58984400000008,200.0,87.82031300000017,66.6665039999998,101.79492200000004
57,83.58984400000008,-5.256347999999889,65.38476599999922,201.2822270000006,332.4360349999997,131.2822270000006,64.23095699999976,52.56396500000028,55.38476599999922,222.94873000000007,192.43603499999972,80.76904300000024,55.64111300000059,97.43603499999972
58,78.0771479999994,-9.61547900000005,61.9228520000006,202.43603499999972,330.0,133.0771479999994,59.87158199999976,46.2822270000006,46.153809000000365,219.23095699999976,186.0258789999998,75.89746099999957,48.333496000000196,95.12841800000024
59,82.94873000000007,-5.641113000000132,66.15380900000036,208.7177729999994,330.76904300000024,134.87158199999976,63.20507799999996,47.82031300000017,44.61523400000078,219.3588869999994,188.3334960000002,78.20507799999996,50.64111300000059,97.43603499999972
60,96.6665039999998,6.922852000000603,78.3334960000002,219.7436520000001,341.2822270000006,135.89746099999957,74.48730499999965,59.48730499999965,54.87158199999976,228.0771479999994,201.53857400000015,87.30761700000039,61.79492200000004,103.58984400000008
61,111.41015599999992,21.794922000000042,92.82031300000017,230.38476599999922,360.51269500000035,136.0258789999998,87.69238299999961,76.15380900000036,73.0771479999994,243.84619099999964,219.48730499999965,98.0771479999994,72.94873000000007,110.12841800000024
62,118.3334960000002,29.358886999999413,101.0258789999998,234.61523400000078,379.7436520000001,135.51269500000035,95.0,88.3334960000002,89.23095699999976,258.7177729999994,232.17968800000017,103.7177729999994,73.7177729999994,112.82031300000017
63,113.46142599999985,24.102539000000434,97.69238299999961,230.0,388.7177729999994,134.61523400000078,91.79492200000004,87.94873000000007,93.46142599999985,264.23095699999976,231.6665039999998,101.0258789999998,59.48730499999965,109.35888699999941
64,100.25634799999989,8.589844000000085,85.12841800000024,220.0,382.94873000000007,133.46142599999985,80.64111300000059,75.64111300000059,83.3334960000002,256.6665039999998,218.58984400000008,92.30761700000039,35.38476599999922,101.2822270000006
65,85.51269500000035,-8.205077999999958,71.6665039999998,211.0258789999998,367.6923829999996,132.3076170000004,68.9741210000002,59.87158199999976,65.64111300000059,241.15380900000036,200.76904300000024,83.20507799999996,12.56396500000028,93.20507799999996
66,75.51269500000035,-18.076904000000013,65.64111300000059,207.3076170000004,353.0771479999994,131.6665039999998,64.10253900000043,51.025878999999804,51.53857400000015,227.3076170000004,188.7177729999994,78.7177729999994,-0.12841800000023795,89.35888699999941
67,71.15380900000036,-19.74365200000011,68.3334960000002,207.94873000000007,347.17968800000017,131.41015599999992,67.05126999999993,52.69238299999961,47.94873000000007,222.82031300000017,187.3076170000004,80.38476599999922,-1.9228520000006029,89.74365200000011
68,68.9741210000002,-18.846190999999635,73.9741210000002,208.0771479999994,349.7436520000001,131.0258789999998,72.43603499999972,59.74365200000011,52.94873000000007,227.17968800000017,192.94873000000007,84.74365200000011,0.512695000000349,91.0258789999998
69,65.25634799999989,-22.051270000000386,75.12841800000024,204.10253900000043,354.48730499999965,130.38476599999922,74.10253900000043,63.46142599999985,58.333496000000196,232.94873000000007,197.05126999999993,86.79492200000004,0.256347999999889,89.87158199999976
70,60.25634799999989,-29.487060999999812,70.38476599999922,197.43603499999972,356.15380900000036,130.0,71.0258789999998,60.12841800000024,57.94873000000007,233.46142599999985,194.10253900000043,84.23095699999976,-3.717772999999397,87.05126999999993
71,59.23095699999976,-33.974365000000034,65.89746099999957,195.12841800000024,356.79492200000004,130.2563479999999,67.94873000000007,54.61523400000078,54.102539000000434,229.23095699999976,187.3076170000004,80.12841800000024,-5.38452099999995,86.41015599999992
72,67.43603499999972,-26.28198199999997,69.10253900000043,202.56396500000028,362.3076170000004,131.6665039999998,70.64111300000059,55.76904300000024,54.35888699999941,227.05126999999993,185.12841800000024,79.48730499999965,2.0512699999999313,91.53857400000015
73,83.20507799999996,-5.769286999999622,80.12841800000024,216.6665039999998,374.23095699999976,133.46142599999985,78.9741210000002,66.41015599999992,63.46142599999985,231.6665039999998,192.56396500000028,84.61523400000078,17.56396500000028,100.51269500000035
74,95.51269500000035,14.487304999999651,91.0258789999998,226.53857400000015,382.82031300000017,134.3588869999994,86.41015599999992,78.58984400000008,75.38476599999922,238.9741210000002,204.10253900000043,91.2822270000006,30.128418000000238,106.79492200000004
75,92.30761700000039,16.410155999999915,91.2822270000006,222.82031300000017,373.7177729999994,133.46142599999985,86.15380900000036,80.38476599999922,78.3334960000002,238.46142599999985,207.82031300000017,92.94873000000007,26.153809000000365,103.84619099999964
76,71.0258789999998,-7.179442999999992,77.69238299999961,207.43603499999972,342.6923829999996,131.15380900000036,77.17968800000017,67.05126999999993,66.0258789999998,224.23095699999976,196.0258789999998,86.0258789999998,2.5639650000002803,91.6665039999998
77,43.846190999999635,-43.46142599999985,58.0771479999994,192.82031300000017,303.5898440000001,129.23095699999976,66.53857400000015,46.9228520000006,45.38476599999922,202.56396500000028,173.58984400000008,74.74365200000011,-28.58984399999963,78.0771479999994
78,28.333496000000196,-67.69238299999961,46.2822270000006,191.9228520000006,280.3847659999992,128.9741210000002,63.20507799999996,34.61523400000078,32.17968800000017,187.6923829999996,155.76904300000024,67.17968800000017,-48.846190999999635,72.56396500000028
79,34.74365200000011,-63.07690400000001,50.38476599999922,205.89746099999957,289.23095699999976,130.89746099999957,70.38476599999922,40.25634799999989,37.69238299999961,189.7436520000001,154.48730499999965,68.84619099999964,-47.82055700000001,78.84619099999964
80,58.20507799999996,-32.82055700000001,66.6665039999998,222.94873000000007,326.15380900000036,133.58984400000008,83.46142599999985,61.2822270000006,60.12841800000024,206.6665039999998,170.0,78.7177729999994,-30.1281740000004,92.17968800000017
81,83.3334960000002,2.1796880000001693,83.20507799999996,229.23095699999976,368.0771479999994,135.38476599999922,93.20507799999996,84.87158199999976,86.0258789999998,226.2822270000006,190.38476599999922,90.25634799999989,-10.641113000000132,103.58984400000008
82,96.41015599999992,21.282227000000603,89.74365200000011,220.51269500000035,390.0,135.2563479999999,94.48730499999965,97.94873000000007,100.76904300000024,236.53857400000015,201.9228520000006,96.79492200000004,-2.6923829999996087,107.05126999999993
83,94.10253900000043,17.94873000000007,85.76904300000024,205.38476599999922,381.6665039999998,133.58984400000008,88.84619099999964,95.76904300000024,98.9741210000002,234.61523400000078,199.10253900000043,95.64111300000059,-8.71801800000003,103.58984400000008
84,84.10253900000043,1.7949220000000423,77.82031300000017,197.17968800000017,353.7177729999994,131.79492200000004,82.05126999999993,84.48730499999965,86.15380900000036,226.2822270000006,186.79492200000004,89.61523400000078,-21.025634999999966,98.20507799999996
85,76.53857400000015,-12.435790999999426,72.82031300000017,201.6665039999998,326.0258789999998,130.89746099999957,79.35888699999941,73.46142599999985,72.69238299999961,219.48730499999965,175.38476599999922,83.9741210000002,-30.1281740000004,95.0
86,76.15380900000036,-15.897461000000021,73.0771479999994,213.58984400000008,312.17968800000017,130.89746099999957,81.2822270000006,68.58984400000008,65.89746099999957,217.17968800000017,172.17968800000017,82.30761700000039,-31.666747999999643,95.0
87,81.15380900000036,-10.1281740000004,75.64111300000059,222.05126999999993,311.0258789999998,131.2822270000006,85.38476599999922,69.61523400000078,67.56396500000028,217.3076170000004,176.9228520000006,83.9741210000002,-28.205077999999958,96.6665039999998
88,85.51269500000035,-3.077147999999397,76.79492200000004,221.41015599999992,311.53857400000015,131.2822270000006,88.3334960000002,73.58984400000008,73.84619099999964,216.41015599999992,183.9741210000002,86.41015599999992,-25.25634799999989,97.82031300000017
89,85.38476599999922,-1.9228520000006029,75.64111300000059,215.38476599999922,304.23095699999976,130.6411130000006,89.10253900000043,76.9228520000006,79.23095699999976,212.82031300000017,187.3076170000004,86.79492200000004,-26.538574000000153,97.17968800000017
90,81.79492200000004,-7.179442999999992,74.35888699999941,213.9741210000002,290.3847659999992,130.2563479999999,88.3334960000002,78.3334960000002,80.38476599999922,207.6923829999996,186.0258789999998,85.0,-31.41015600000037,95.12841800000024
91,79.48730499999965,-13.076904000000013,75.76904300000024,223.58984400000008,280.3847659999992,130.51269500000035,87.69238299999961,78.9741210000002,78.20507799999996,203.0771479999994,183.20507799999996,83.46142599999985,-35.64111300000013,92.94873000000007
92,81.6665039999998,-13.076904000000013,80.12841800000024,239.87158199999976,283.9741210000002,131.53857400000015,87.17968800000017,80.25634799999989,76.15380900000036,200.38476599999922,181.53857400000015,84.23095699999976,-35.25634799999989,92.17968800000017
93,86.9228520000006,-5.512939000000188,83.7177729999994,250.0,300.12841800000024,132.43603499999972,86.41015599999992,82.69238299999961,76.79492200000004,198.9741210000002,180.89746099999957,86.6665039999998,-30.38452099999995,92.94873000000007
94,90.12841800000024,5.769043000000238,82.30761700000039,243.20507799999996,317.3076170000004,132.43603499999972,84.87158199999976,85.51269500000035,80.38476599999922,197.3076170000004,179.3588869999994,88.3334960000002,-25.1281740000004,94.61523400000078
95,88.20507799999996,15.384765999999217,75.76904300000024,220.0,322.05126999999993,131.79492200000004,83.20507799999996,86.9228520000006,84.74365200000011,194.87158199999976,175.51269500000035,87.69238299999961,-23.58984399999963,95.76904300000024
96,81.53857400000015,20.384765999999217,67.69238299999961,192.6923829999996,309.48730499999965,131.2822270000006,82.94873000000007,85.51269500000035,86.9228520000006,191.79492200000004,170.2563479999999,85.12841800000024,-26.923095999999987,95.64111300000059
97,74.10253900000043,19.871581999999762,62.17968800000017,175.76904300000024,286.4101559999999,131.15380900000036,85.12841800000024,81.15380900000036,84.87158199999976,187.56396500000028,164.87158199999976,81.9228520000006,-33.33325200000036,93.3334960000002
98,69.35888699999941,14.230956999999762,61.666503999999804,175.38476599999922,265.12841800000024,131.15380900000036,89.74365200000011,75.51269500000035,78.9741210000002,181.41015599999992,160.12841800000024,79.87158199999976,-39.74365200000011,89.35888699999941
99,68.3334960000002,5.897460999999566,65.12841800000024,186.9228520000006,254.61523400000078,131.0258789999998,95.64111300000059,72.17968800000017,72.82031300000017,173.3334960000002,156.2822270000006,80.0,-44.23071300000038,85.38476599999922
100,69.48730499999965,-1.9228520000006029,69.35888699999941,198.20507799999996,254.61523400000078,129.87158199999976,100.12841800000024,73.20507799999996,70.0,165.0,153.46142599999985,81.79492200000004,-46.153809000000365,83.46142599999985
101,69.61523400000078,-6.281981999999971,70.76904300000024,199.48730499999965,256.0258789999998,126.79492200000004,101.0258789999998,77.30761700000039,71.0258789999998,158.20507799999996,151.6665039999998,83.3334960000002,-46.41015600000037,84.10253900000043
102,65.76904300000024,-7.179442999999992,67.69238299999961,189.48730499999965,248.7177729999994,121.79492200000004,97.17968800000017,79.61523400000078,72.69238299999961,153.20507799999996,149.3588869999994,82.94873000000007,-46.92309599999999,85.25634799999989
103,58.46142599999985,-6.538574000000153,61.79492200000004,176.2822270000006,230.12841800000024,116.79492200000004,90.25634799999989,76.9228520000006,71.53857400000015,148.84619099999964,145.76904300000024,80.25634799999989,-48.846190999999635,84.87158199999976
104,50.64111300000059,-6.41015600000037,56.79492200000004,169.7436520000001,207.17968800000017,114.48730499999965,84.10253900000043,70.89746099999957,67.56396500000028,145.12841800000024,141.9228520000006,76.9228520000006,-50.51293900000019,82.69238299999961
105,46.53857400000015,-6.666747999999643,56.025878999999804,175.76904300000024,191.0258789999998,116.41015599999992,82.56396500000028,67.05126999999993,65.38476599999922,142.94873000000007,141.9228520000006,75.25634799999989,-49.10253899999998,81.2822270000006
106,48.20507799999996,-5.256347999999889,61.410155999999915,192.17968800000017,189.87158199999976,121.79492200000004,87.43603499999972,70.76904300000024,69.61523400000078,144.23095699999976,148.3334960000002,76.9228520000006,-42.30761700000039,83.20507799999996
107,53.7177729999994,-0.38476599999921746,71.2822270000006,210.6411130000006,202.43603499999972,127.05126999999993,96.6665039999998,82.17968800000017,80.38476599999922,148.84619099999964,159.23095699999976,81.6665039999998,-31.923095999999987,88.58984400000008
108,58.7177729999994,7.179688000000169,80.12841800000024,221.79492200000004,217.3076170000004,128.9741210000002,105.12841800000024,95.0,92.17968800000017,154.3588869999994,168.84619099999964,87.05126999999993,-22.69238299999961,93.84619099999964
109,59.23095699999976,13.846190999999635,82.56396500000028,221.9228520000006,221.15380900000036,126.2822270000006,108.46142599999985,101.2822270000006,97.94873000000007,157.17968800000017,171.53857400000015,90.51269500000035,-19.10253899999998,94.87158199999976
110,56.153809000000365,16.794922000000042,77.30761700000039,216.9228520000006,208.0771479999994,120.76904300000024,106.0258789999998,97.82031300000017,95.51269500000035,155.51269500000035,166.41015599999992,90.64111300000059,-20.89746100000002,91.41015599999992
111,54.48730499999965,16.538574000000153,69.74365200000011,217.43603499999972,184.3588869999994,115.89746099999957,101.53857400000015,88.9741210000002,88.9741210000002,150.89746099999957,158.58984400000008,88.84619099999964,-22.820557000000008,87.56396500000028
112,58.0771479999994,16.153809000000365,66.79492200000004,230.2563479999999,162.94873000000007,114.35888699999941,99.23095699999976,82.30761700000039,84.35888699999941,145.89746099999957,154.61523400000078,87.56396500000028,-20.1281740000004,88.3334960000002
113,65.89746099999957,18.205077999999958,71.41015599999992,251.15380900000036,152.17968800000017,116.2822270000006,100.12841800000024,82.17968800000017,84.35888699999941,142.6923829999996,157.94873000000007,88.20507799999996,-13.333252000000357,94.35888699999941
114,73.3334960000002,22.05126999999993,79.48730499999965,267.5639650000003,150.89746099999957,119.10253900000043,102.82031300000017,87.17968800000017,87.69238299999961,140.2563479999999,165.51269500000035,90.12841800000024,-7.435790999999426,101.79492200000004
115,76.41015599999992,25.0,84.74365200000011,268.5898440000001,151.41015599999992,120.12841800000024,104.74365200000011,91.9228520000006,90.38476599999922,136.6665039999998,170.38476599999922,91.41015599999992,-6.666747999999643,105.51269500000035
116,75.12841800000024,25.384765999999217,83.9741210000002,254.10253900000043,147.6923829999996,118.58984400000008,104.87158199999976,92.94873000000007,90.12841800000024,131.0258789999998,167.94873000000007,91.15380900000036,-11.153809000000365,103.0771479999994
117,72.56396500000028,23.461425999999847,78.46142599999985,235.0,140.38476599999922,115.64111300000059,103.46142599999985,90.51269500000035,87.94873000000007,125.0,159.48730499999965,89.23095699999976,-16.923095999999987,96.79492200000004
118,71.53857400000015,21.666503999999804,71.79492200000004,224.48730499999965,134.10253900000043,113.46142599999985,101.79492200000004,87.82031300000017,86.6665039999998,121.15380900000036,150.51269500000035,86.6665039999998,-21.153809000000365,90.64111300000059
119,71.79492200000004,21.153809000000365,67.30761700000039,227.6923829999996,131.15380900000036,113.3334960000002,100.51269500000035,86.53857400000015,87.82031300000017,120.76904300000024,145.12841800000024,85.0,-24.358886999999868,87.17968800000017
120,70.51269500000035,20.51269500000035,65.38476599999922,238.7177729999994,128.9741210000002,115.12841800000024,99.74365200000011,86.15380900000036,89.61523400000078,121.2822270000006,143.20507799999996,84.23095699999976,-29.10253899999998,86.0258789999998
121,65.25634799999989,17.05126999999993,64.10253900000043,245.89746099999957,123.46142599999985,116.79492200000004,99.48730499999965,85.76904300000024,89.61523400000078,118.84619099999964,141.2822270000006,83.58984400000008,-36.66674799999964,85.25634799999989
122,57.17968800000017,10.769043000000238,61.79492200000004,242.05126999999993,114.74365200000011,117.43603499999972,99.74365200000011,85.64111300000059,87.56396500000028,112.17968800000017,138.0771479999994,82.69238299999961,-44.35888699999987,83.46142599999985
123,50.76904300000024,4.358886999999413,59.74365200000011,230.38476599999922,107.17968800000017,116.9228520000006,100.25634799999989,87.69238299999961,86.15380900000036,104.48730499999965,135.38476599999922,82.30761700000039,-46.79492200000004,81.2822270000006
124,49.48730499999965,0.6411130000005869,60.25634799999989,220.89746099999957,104.10253900000043,116.2822270000006,100.89746099999957,91.53857400000015,87.69238299999961,100.0,135.51269500000035,82.82031300000017,-42.051270000000386,80.12841800000024
125,52.94873000000007,0.769043000000238,63.7177729999994,221.6665039999998,105.51269500000035,116.15380900000036,101.2822270000006,95.12841800000024,91.79492200000004,100.76904300000024,138.7177729999994,83.9741210000002,-33.07690400000001,81.0258789999998
126,58.0771479999994,5.0,68.9741210000002,232.56396500000028,108.84619099999964,116.9228520000006,102.17968800000017,97.17968800000017,96.53857400000015,105.38476599999922,142.82031300000017,84.87158199999976,-25.641113000000132,83.7177729999994
127,62.17968800000017,13.846190999999635,74.35888699999941,246.2822270000006,111.6665039999998,118.58984400000008,104.61523400000078,98.7177729999994,101.15380900000036,110.89746099999957,145.89746099999957,85.38476599999922,-22.820557000000008,87.94873000000007
128,65.12841800000024,25.51269500000035,79.23095699999976,255.2563479999999,112.05126999999993,120.38476599999922,108.84619099999964,101.9228520000006,105.38476599999922,114.35888699999941,147.6923829999996,85.89746099999957,-23.461425999999847,92.56396500000028
129,67.17968800000017,35.0,83.58984400000008,256.79492200000004,108.3334960000002,121.15380900000036,113.58984400000008,106.0258789999998,108.58984400000008,114.61523400000078,150.0,87.17968800000017,-23.846190999999635,96.2822270000006
130,68.7177729999994,36.53857400000015,86.6665039999998,253.9741210000002,100.64111300000059,120.12841800000024,116.15380900000036,108.0771479999994,109.35888699999941,112.05126999999993,153.20507799999996,88.7177729999994,-21.923095999999987,97.56396500000028
131,68.7177729999994,29.358886999999413,87.69238299999961,251.41015599999992,91.6665039999998,118.0771479999994,114.74365200000011,105.51269500000035,107.05126999999993,108.20507799999996,156.2822270000006,89.61523400000078,-18.974365000000034,95.64111300000059
132,67.17968800000017,18.461425999999847,86.79492200000004,251.41015599999992,85.76904300000024,116.41015599999992,109.87158199999976,99.23095699999976,103.58984400000008,104.61523400000078,156.9228520000006,89.48730499999965,-17.948729999999614,91.2822270000006
133,64.35888699999941,12.307617000000391,85.25634799999989,252.82031300000017,85.51269500000035,116.2822270000006,104.48730499999965,93.46142599999985,101.41015599999992,102.17968800000017,153.84619099999964,88.84619099999964,-20.512939000000188,86.9228520000006
134,61.9228520000006,16.025878999999804,84.48730499999965,254.10253900000043,90.25634799999989,117.17968800000017,101.6665039999998,91.41015599999992,101.0258789999998,100.51269500000035,147.05126999999993,88.58984400000008,-25.38452099999995,84.35888699999941
135,60.12841800000024,27.94873000000007,85.12841800000024,253.3334960000002,96.2822270000006,117.94873000000007,102.56396500000028,93.20507799999996,101.41015599999992,99.10253900000043,138.9741210000002,88.0771479999994,-29.10253899999998,84.61523400000078
136,58.333496000000196,40.25634799999989,84.87158199999976,250.0,98.7177729999994,117.82031300000017,105.12841800000024,95.76904300000024,100.38476599999922,98.0771479999994,132.94873000000007,86.53857400000015,-28.71801800000003,86.2822270000006
137,55.64111300000059,44.87158199999976,81.79492200000004,244.87158199999976,94.48730499999965,116.6665039999998,106.79492200000004,95.38476599999922,97.05126999999993,97.30761700000039,130.0,83.46142599999985,-24.10253899999998,87.30761700000039
138,52.43603499999972,39.23095699999976,76.0258789999998,240.2563479999999,84.35888699999941,115.25634799999989,106.2822270000006,91.0258789999998,92.56396500000028,96.79492200000004,128.84619099999964,80.12841800000024,-16.794922000000042,86.9228520000006
139,51.153809000000365,28.461425999999847,70.89746099999957,238.84619099999964,73.7177729999994,115.0,104.48730499999965,85.51269500000035,89.87158199999976,96.2822270000006,127.94873000000007,78.0771479999994,-9.743652000000111,85.89746099999957
140,52.82031300000017,20.769043000000238,70.25634799999989,240.89746099999957,67.17968800000017,116.2822270000006,103.7177729999994,83.7177729999994,91.2822270000006,94.87158199999976,127.30761700000039,78.3334960000002,-6.153809000000365,85.76904300000024
141,55.76904300000024,19.615234000000783,74.61523400000078,243.0771479999994,65.0,118.20507799999996,104.87158199999976,86.9228520000006,95.89746099999957,91.6665039999998,127.82031300000017,80.25634799999989,-8.71801800000003,86.53857400000015
142,56.153809000000365,21.410155999999915,80.38476599999922,240.12841800000024,62.05126999999993,119.10253900000043,106.0258789999998,91.2822270000006,98.9741210000002,85.51269500000035,129.23095699999976,82.43603499999972,-18.076904000000013,86.9228520000006
143,51.410155999999915,20.0,82.43603499999972,229.7436520000001,53.20507799999996,117.94873000000007,104.74365200000011,91.2822270000006,95.64111300000059,77.30761700000039,129.3588869999994,82.82031300000017,-30.641113000000132,85.76904300000024
144,43.7177729999994,12.948730000000069,78.7177729999994,214.87158199999976,40.0,115.64111300000059,101.15380900000036,85.12841800000024,86.15380900000036,69.74365200000011,126.15380900000036,80.64111300000059,-39.10253899999998,83.7177729999994
145,38.846190999999635,4.743652000000111,72.56396500000028,202.43603499999972,31.153809000000365,113.84619099999964,98.0771479999994,77.69238299999961,77.43603499999972,67.30761700000039,120.38476599999922,77.69238299999961,-36.66674799999964,83.3334960000002
146,42.94873000000007,3.2050779999999577,70.0,198.84619099999964,35.25634799999989,114.23095699999976,98.58984400000008,76.2822270000006,77.69238299999961,73.58984400000008,116.2822270000006,77.30761700000039,-21.538574000000153,87.17968800000017
147,57.17968800000017,12.56396500000028,75.12841800000024,204.61523400000078,52.17968800000017,116.2822270000006,103.0771479999994,84.23095699999976,89.48730499999965,87.69238299999961,118.9741210000002,81.2822270000006,0.769043000000238,95.0
148,75.89746099999957,29.230956999999762,85.89746099999957,213.46142599999985,72.30761700000039,118.20507799999996,108.9741210000002,97.17968800000017,106.41015599999992,102.69238299999961,129.48730499999965,88.20507799999996,20.769043000000238,103.20507799999996
149,90.38476599999922,44.74365200000011,96.41015599999992,217.05126999999993,83.46142599999985,118.58984400000008,112.94873000000007,107.05126999999993,118.20507799999996,110.51269500000035,143.46142599999985,94.23095699999976,31.410155999999915,107.56396500000028
150,94.74365200000011,51.79492200000004,100.38476599999922,211.79492200000004,79.74365200000011,117.05126999999993,112.56396500000028,108.3334960000002,118.7177729999994,107.82031300000017,153.7177729999994,96.6665039999998,31.282227000000603,106.15380900000036
151,88.3334960000002,48.333496000000196,96.15380900000036,201.2822270000006,63.974121000000196,115.0,107.82031300000017,101.6665039999998,109.48730499999965,97.56396500000028,154.61523400000078,95.25634799999989,24.74365200000011,100.38476599999922
152,75.38476599999922,37.69238299999961,86.53857400000015,193.0771479999994,43.46142599999985,113.20507799999996,100.38476599999922,91.0258789999998,97.30761700000039,85.64111300000059,145.38476599999922,91.53857400000015,17.17968800000017,93.3334960000002
153,61.9228520000006,25.0,76.41015599999992,192.56396500000028,25.0,112.56396500000028,93.0771479999994,80.51269500000035,87.56396500000028,75.89746099999957,129.61523400000078,86.79492200000004,11.410155999999915,87.43603499999972
154,52.69238299999961,15.0,70.12841800000024,198.46142599999985,11.922852000000603,112.94873000000007,88.0771479999994,72.94873000000007,81.9228520000006,68.46142599999985,114.10253900000043,82.43603499999972,7.948730000000069,84.10253900000043
155,49.61523400000078,10.641113000000587,68.7177729999994,205.51269500000035,5.256347999999889,113.9741210000002,86.9228520000006,69.87158199999976,79.61523400000078,62.94873000000007,106.15380900000036,79.74365200000011,6.410155999999915,83.7177729999994
156,52.43603499999972,13.846190999999635,71.0258789999998,209.23095699999976,5.769043000000238,115.0,89.61523400000078,72.05126999999993,79.87158199999976,60.64111300000059,109.74365200000011,80.12841800000024,8.205077999999958,86.2822270000006
157,59.35888699999941,24.358886999999413,75.89746099999957,210.76904300000024,13.974121000000196,115.64111300000059,95.38476599999922,79.48730499999965,84.10253900000043,64.74365200000011,122.05126999999993,84.10253900000043,15.384765999999217,91.53857400000015
158,68.3334960000002,38.974121000000196,82.56396500000028,215.89746099999957,28.589844000000085,116.0258789999998,101.9228520000006,91.2822270000006,93.7177729999994,76.9228520000006,134.7436520000001,90.38476599999922,27.94873000000007,98.0771479999994
159,75.76904300000024,52.30761700000039,89.87158199999976,227.17968800000017,45.0,116.53857400000015,106.6665039999998,104.35888699999941,107.05126999999993,93.84619099999964,138.58984400000008,95.64111300000059,42.30761700000039,103.0771479999994
160,78.20507799999996,59.61523400000078,94.61523400000078,240.12841800000024,55.76904300000024,117.56396500000028,107.94873000000007,113.9741210000002,118.46142599999985,107.05126999999993,129.7436520000001,97.17968800000017,52.05126999999993,103.3334960000002
161,74.10253900000043,59.35888699999941,93.20507799999996,245.2563479999999,53.846190999999635,118.3334960000002,105.25634799999989,115.12841800000024,121.53857400000015,108.0771479999994,112.56396500000028,93.9741210000002,52.30761700000039,97.56396500000028
162,65.38476599999922,52.43603499999972,84.48730499999965,236.6665039999998,38.0771479999994,118.46142599999985,100.12841800000024,106.53857400000015,113.84619099999964,95.89746099999957,96.15380900000036,87.82031300000017,42.69238299999961,88.58984400000008
163,56.2822270000006,42.43603499999972,72.94873000000007,219.10253900000043,15.256347999999889,117.94873000000007,95.51269500000035,92.17968800000017,99.23095699999976,78.0771479999994,89.23095699999976,82.17968800000017,28.461425999999847,81.41015599999992
164,52.05126999999993,33.974121000000196,65.89746099999957,204.87158199999976,-2.4360349999997197,117.17968800000017,93.9741210000002,80.51269500000035,86.53857400000015,66.15380900000036,93.84619099999964,80.38476599999922,17.82031300000017,80.0
165,55.51269500000035,30.897460999999566,69.23095699999976,205.51269500000035,-5.641113000000132,116.41015599999992,96.2822270000006,78.3334960000002,82.94873000000007,66.2822270000006,103.7177729999994,83.9741210000002,17.56396500000028,85.25634799999989
166,65.64111300000059,35.25634799999989,82.05126999999993,222.05126999999993,5.769043000000238,115.89746099999957,100.76904300000024,86.53857400000015,90.0,75.64111300000059,110.12841800000024,91.2822270000006,28.205077999999958,94.48730499999965
167,76.53857400000015,45.51269500000035,96.2822270000006,242.82031300000017,22.69238299999961,115.76904300000024,105.0,99.48730499999965,102.30761700000039,85.25634799999989,107.30761700000039,98.58984400000008,43.846190999999635,102.82031300000017
168,81.2822270000006,57.56396500000028,102.82031300000017,252.6923829999996,34.23095699999976,115.89746099999957,107.05126999999993,109.61523400000078,112.43603499999972,87.69238299999961,96.41015599999992,102.69238299999961,55.12841800000024,106.41015599999992
169,77.69238299999961,66.53857400000015,98.46142599999985,245.2563479999999,34.74365200000011,116.2822270000006,106.15380900000036,112.43603499999972,115.89746099999957,82.69238299999961,83.7177729999994,102.94873000000007,57.05126999999993,104.61523400000078
170,70.38476599999922,71.0258789999998,88.46142599999985,228.20507799999996,26.282227000000603,116.2822270000006,103.3334960000002,108.9741210000002,114.10253900000043,76.41015599999992,76.53857400000015,101.53857400000015,51.666503999999804,100.64111300000059
171,66.6665039999998,72.17968800000017,82.05126999999993,216.53857400000015,13.846190999999635,115.76904300000024,100.64111300000059,104.10253900000043,111.0258789999998,75.38476599999922,77.69238299999961,100.51269500000035,45.51269500000035,98.58984400000008
172,70.0,71.41015599999992,84.48730499999965,219.87158199999976,0.769043000000238,115.0,100.0,102.05126999999993,109.61523400000078,79.74365200000011,83.58984400000008,100.38476599999922,42.82031300000017,99.48730499999965
173,77.05126999999993,67.94873000000007,93.58984400000008,234.48730499999965,-11.666747999999643,114.35888699999941,100.64111300000059,102.82031300000017,108.3334960000002,84.61523400000078,87.82031300000017,100.38476599999922,42.56396500000028,101.41015599999992
174,81.0258789999998,61.153809000000365,102.05126999999993,247.94873000000007,-22.69238299999961,113.9741210000002,100.89746099999957,103.84619099999964,105.51269500000035,84.10253900000043,87.69238299999961,99.87158199999976,40.12841800000024,101.79492200000004
175,78.46142599999985,53.7177729999994,104.87158199999976,249.61523400000078,-28.461425999999847,113.84619099999964,99.74365200000011,103.20507799999996,101.41015599999992,77.82031300000017,86.15380900000036,99.48730499999965,33.589844000000085,100.12841800000024
176,72.30761700000039,52.05126999999993,102.94873000000007,239.48730499999965,-23.974365000000034,113.9741210000002,98.20507799999996,101.53857400000015,98.9741210000002,69.87158199999976,86.2822270000006,99.87158199999976,25.897460999999566,98.0771479999994
177,68.84619099999964,60.76904300000024,100.12841800000024,226.9228520000006,-7.692382999999609,114.23095699999976,98.0771479999994,100.51269500000035,100.12841800000024,65.51269500000035,86.2822270000006,101.41015599999992,21.666503999999804,97.30761700000039
178,71.79492200000004,79.10253900000043,99.10253900000043,221.0258789999998,13.205077999999958,114.35888699999941,100.12841800000024,101.15380900000036,103.9741210000002,65.89746099999957,82.30761700000039,103.3334960000002,23.717772999999397,98.20507799999996
179,78.84619099999964,100.76904300000024,99.87158199999976,222.94873000000007,27.05126999999993,114.35888699999941,104.35888699999941,102.94873000000007,107.94873000000007,69.10253900000043,74.35888699999941,104.61523400000078,30.897460999999566,100.12841800000024
180,84.74365200000011,118.84619099999964,100.64111300000059,226.6665039999998,25.897460999999566,114.48730499999965,110.38476599999922,105.25634799999989,110.51269500000035,72.43603499999972,66.79492200000004,104.23095699999976,39.61523400000078,102.17968800000017
181,85.38476599999922,127.94873000000007,100.25634799999989,227.05126999999993,11.794922000000042,114.48730499999965,116.6665039999998,107.43603499999972,111.9228520000006,74.87158199999976,62.94873000000007,102.17968800000017,46.2822270000006,102.94873000000007
182,80.76904300000024,127.05126999999993,99.10253900000043,225.76904300000024,-5.512939000000188,114.48730499999965,120.89746099999957,108.0771479999994,112.56396500000028,75.76904300000024,62.30761700000039,100.0,48.0771479999994,102.17968800000017
183,74.35888699999941,119.23095699999976,98.20507799999996,228.46142599999985,-16.794922000000042,114.23095699999976,120.25634799999989,106.6665039999998,111.9228520000006,73.84619099999964,62.05126999999993,98.58984400000008,44.61523400000078,100.12841800000024
184,69.35888699999941,110.51269500000035,97.43603499999972,237.3076170000004,-19.74365200000011,113.46142599999985,114.35888699999941,103.0771479999994,109.10253900000043,67.56396500000028,61.410155999999915,98.3334960000002,37.17968800000017,97.56396500000028
185,67.05126999999993,106.2822270000006,96.2822270000006,247.56396500000028,-17.948729999999614,112.56396500000028,106.2822270000006,98.3334960000002,104.10253900000043,57.82031300000017,62.05126999999993,98.7177729999994,29.230956999999762,95.64111300000059
186,66.79492200000004,107.94873000000007,94.35888699999941,252.82031300000017,-16.025634999999966,112.05126999999993,101.2822270000006,94.74365200000011,99.23095699999976,50.0,65.12841800000024,99.35888699999941,25.25634799999989,95.25634799999989
187,67.82031300000017,113.7177729999994,93.84619099999964,252.05126999999993,-15.0,112.43603499999972,102.43603499999972,94.61523400000078,97.30761700000039,50.0,67.94873000000007,100.64111300000059,28.717772999999397,96.6665039999998
188,70.38476599999922,119.87158199999976,96.79492200000004,249.3588869999994,-13.846190999999635,113.84619099999964,108.9741210000002,98.58984400000008,99.48730499999965,58.333496000000196,65.25634799999989,102.56396500000028,38.974121000000196,99.61523400000078
189,73.7177729999994,122.94873000000007,102.17968800000017,248.3334960000002,-11.923095999999987,115.38476599999922,115.89746099999957,103.58984400000008,103.84619099999964,68.46142599999985,53.974121000000196,104.23095699999976,50.64111300000059,102.30761700000039
190,75.25634799999989,121.53857400000015,105.12841800000024,246.15380900000036,-11.41015600000037,115.89746099999957,117.69238299999961,105.25634799999989,106.2822270000006,71.6665039999998,36.53857400000015,103.46142599999985,55.51269500000035,102.17968800000017
191,72.56396500000028,117.56396500000028,101.6665039999998,237.17968800000017,-13.71801800000003,115.0,113.0771479999994,101.6665039999998,104.48730499999965,64.74365200000011,20.769043000000238,99.87158199999976,49.87158199999976,98.84619099999964
192,67.05126999999993,115.89746099999957,93.7177729999994,220.2563479999999,-15.769286999999622,113.46142599999985,106.0258789999998,96.53857400000015,100.12841800000024,54.35888699999941,15.384765999999217,95.38476599999922,38.46142599999985,95.0
193,64.23095699999976,121.15380900000036,88.0771479999994,202.05126999999993,-12.948729999999614,112.69238299999961,102.30761700000039,95.64111300000059,98.9741210000002,51.410155999999915,24.74365200000011,93.84619099999964,31.666503999999804,95.0
194,69.23095699999976,135.2563479999999,90.38476599999922,192.56396500000028,-3.846190999999635,113.3334960000002,105.25634799999989,102.30761700000039,105.12841800000024,61.410155999999915,44.23095699999976,97.30761700000039,36.53857400000015,100.76904300000024
195,81.79492200000004,154.10253900000043,100.0,195.89746099999957,7.43603499999972,115.12841800000024,112.69238299999961,113.46142599999985,117.56396500000028,79.48730499999965,62.30761700000039,104.10253900000043,50.76904300000024,109.61523400000078
196,95.51269500000035,169.87158199999976,110.51269500000035,206.6665039999998,14.615234000000783,116.53857400000015,118.9741210000002,122.30761700000039,129.23095699999976,93.46142599999985,68.20507799999996,110.51269500000035,64.61523400000078,116.41015599999992
197,102.30761700000039,176.0258789999998,114.61523400000078,213.3334960000002,13.077147999999397,116.15380900000036,118.9741210000002,122.82031300000017,132.05126999999993,93.7177729999994,60.38476599999922,112.94873000000007,69.35888699999941,116.79492200000004
198,97.82031300000017,172.05126999999993,110.0,207.05126999999993,3.3334960000001956,113.58984400000008,112.56396500000028,114.48730499999965,124.35888699999941,80.25634799999989,46.410155999999915,110.12841800000024,63.589844000000085,110.64111300000059
199,84.87158199999976,163.58984400000008,99.87158199999976,189.23095699999976,-10.0,110.38476599999922,103.7177729999994,102.30761700000039,111.2822270000006,61.79492200000004,36.025878999999804,103.46142599999985,52.69238299999961,101.79492200000004
200,71.41015599999992,157.94873000000007,91.15380900000036,171.0258789999998,-20.1281740000004,108.9741210000002,97.82031300000017,93.0771479999994,101.0258789999998,48.974121000000196,33.0771479999994,96.9228520000006,44.48730499999965,95.64111300000059
201,65.64111300000059,159.3588869999994,89.23095699999976,164.7436520000001,-21.794922000000042,110.76904300000024,97.17968800000017,91.15380900000036,98.3334960000002,46.410155999999915,35.12841800000024,94.23095699999976,43.589844000000085,95.38476599999922
202,70.76904300000024,167.17968800000017,94.87158199999976,173.7177729999994,-14.8718259999996,114.87158199999976,100.76904300000024,96.41015599999992,102.82031300000017,51.153809000000365,38.46142599999985,96.9228520000006,49.23095699999976,100.25634799999989
203,83.46142599999985,177.43603499999972,103.7177729999994,190.12841800000024,-3.717772999999397,118.0771479999994,105.64111300000059,105.38476599999922,110.51269500000035,57.69238299999961,41.410155999999915,102.69238299999961,57.30761700000039,106.41015599999992
204,96.2822270000006,185.2563479999999,110.76904300000024,202.43603499999972,5.641113000000587,117.30761700000039,109.61523400000078,113.84619099999964,117.05126999999993,63.0771479999994,44.35888699999941,108.20507799999996,63.589844000000085,110.0
205,102.82031300000017,187.94873000000007,112.82031300000017,205.76904300000024,9.743652000000111,111.9228520000006,112.17968800000017,118.58984400000008,120.51269500000035,66.9228520000006,47.17968800000017,110.64111300000059,66.15380900000036,109.35888699999941
206,101.2822270000006,186.15380900000036,110.38476599999922,203.84619099999964,7.307617000000391,104.74365200000011,112.82031300000017,118.0771479999994,120.64111300000059,69.87158199999976,48.46142599999985,109.23095699999976,66.0258789999998,105.89746099999957
207,94.48730499999965,181.9228520000006,105.25634799999989,201.2822270000006,-0.769043000000238,100.12841800000024,110.76904300000024,113.46142599999985,118.58984400000008,70.76904300000024,46.53857400000015,105.12841800000024,65.12841800000024,102.05126999999993
208,86.41015599999992,177.94873000000007,99.48730499999965,197.94873000000007,-11.025634999999966,100.76904300000024,106.53857400000015,107.17968800000017,115.0,68.3334960000002,42.05126999999993,100.25634799999989,64.61523400000078,99.35888699999941
209,80.64111300000059,176.15380900000036,94.74365200000011,191.41015599999992,-18.58984399999963,106.15380900000036,101.9228520000006,101.41015599999992,110.51269500000035,62.94873000000007,36.666503999999804,97.17968800000017,64.61523400000078,97.82031300000017
210,78.9741210000002,177.56396500000028,92.30761700000039,182.94873000000007,-19.358886999999868,112.94873000000007,99.35888699999941,98.20507799999996,106.2822270000006,56.410155999999915,32.43603499999972,97.17968800000017,65.0,97.69238299999961
211,81.53857400000015,181.6665039999998,92.94873000000007,177.82031300000017,-13.58984399999963,117.43603499999972,100.76904300000024,98.20507799999996,103.84619099999964,51.2822270000006,30.0,99.61523400000078,65.64111300000059,99.10253900000043
212,86.6665039999998,186.6665039999998,96.53857400000015,179.87158199999976,-4.61547900000005,117.30761700000039,106.2822270000006,100.76904300000024,103.84619099999964,49.102539000000434,29.48730499999965,102.43603499999972,66.9228520000006,101.9228520000006
213,91.0258789999998,190.51269500000035,101.0258789999998,186.15380900000036,2.9487300000000687,114.35888699999941,113.58984400000008,103.84619099999964,105.76904300000024,50.38476599999922,31.153809000000365,103.9741210000002,68.7177729999994,105.12841800000024
214,92.05126999999993,191.9228520000006,103.46142599999985,190.76904300000024,6.538574000000153,112.17968800000017,119.10253900000043,105.25634799999989,107.82031300000017,53.7177729999994,35.38476599999922,103.7177729999994,70.64111300000059,107.30761700000039
215,90.38476599999922,190.89746099999957,103.20507799999996,191.2822270000006,7.179688000000169,113.20507799999996,119.48730499999965,104.87158199999976,109.35888699999941,57.17968800000017,41.9228520000006,103.46142599999985,71.79492200000004,107.69238299999961
216,87.94873000000007,187.56396500000028,101.41015599999992,190.6411130000006,7.051269999999931,116.15380900000036,114.35888699999941,103.46142599999985,110.64111300000059,58.846190999999635,48.974121000000196,104.87158199999976,72.05126999999993,106.15380900000036
217,87.05126999999993,182.05126999999993,100.76904300000024,193.46142599999985,7.051269999999931,117.82031300000017,106.53857400000015,102.17968800000017,111.79492200000004,58.46142599999985,53.0771479999994,107.69238299999961,71.41015599999992,103.84619099999964
218,87.69238299999961,175.76904300000024,101.6665039999998,200.0,7.051269999999931,116.0258789999998,100.64111300000059,101.0258789999998,112.94873000000007,56.9228520000006,51.025878999999804,109.74365200000011,70.89746099999957,102.43603499999972
219,89.48730499999965,172.05126999999993,103.20507799999996,206.53857400000015,6.666503999999804,112.17968800000017,100.25634799999989,100.25634799999989,113.58984400000008,55.64111300000059,43.20507799999996,109.10253900000043,71.9228520000006,102.69238299999961
220,92.30761700000039,173.84619099999964,104.23095699999976,208.7177729999994,6.282227000000603,108.46142599999985,105.64111300000059,100.38476599999922,113.3334960000002,55.38476599999922,34.102539000000434,106.0258789999998,75.89746099999957,104.35888699999941
221,95.12841800000024,180.12841800000024,103.58984400000008,205.12841800000024,5.897460999999566,106.53857400000015,113.0771479999994,101.6665039999998,111.2822270000006,55.76904300000024,29.230956999999762,102.30761700000039,81.0258789999998,105.51269500000035
222,96.2822270000006,186.2822270000006,101.41015599999992,198.3334960000002,5.641113000000587,106.41015599999992,116.9228520000006,102.82031300000017,107.30761700000039,55.76904300000024,30.0,99.35888699999941,83.20507799999996,104.48730499999965
223,95.51269500000035,187.82031300000017,99.10253900000043,194.10253900000043,6.794922000000042,107.56396500000028,114.23095699999976,102.43603499999972,102.94873000000007,54.87158199999976,33.589844000000085,98.7177729999994,79.61523400000078,102.30761700000039
224,94.74365200000011,185.89746099999957,99.87158199999976,197.43603499999972,12.307617000000391,108.58984400000008,107.05126999999993,100.76904300000024,101.0258789999998,53.846190999999635,36.9228520000006,100.89746099999957,72.56396500000028,102.43603499999972
225,97.17968800000017,184.48730499999965,105.0,207.6923829999996,22.30761700000039,109.10253900000043,100.89746099999957,99.87158199999976,103.20507799999996,54.23095699999976,39.74365200000011,105.25634799999989,68.0771479999994,106.6665039999998
226,103.0771479999994,185.76904300000024,112.30761700000039,217.6923829999996,31.282227000000603,108.9741210000002,100.0,100.76904300000024,107.94873000000007,56.2822270000006,43.0771479999994,109.35888699999941,70.38476599999922,112.69238299999961
227,108.7177729999994,187.56396500000028,116.41015599999992,220.12841800000024,31.538574000000153,108.9741210000002,104.23095699999976,102.43603499999972,110.89746099999957,58.20507799999996,46.410155999999915,111.0258789999998,77.30761700000039,116.15380900000036
228,109.61523400000078,186.9228520000006,114.61523400000078,214.3588869999994,21.410155999999915,109.10253900000043,110.12841800000024,102.56396500000028,110.0,58.20507799999996,48.333496000000196,110.12841800000024,83.7177729999994,114.61523400000078
229,105.38476599999922,183.84619099999964,109.35888699999941,207.3076170000004,8.333496000000196,109.23095699999976,114.23095699999976,101.53857400000015,107.43603499999972,56.9228520000006,48.46142599999985,108.20507799999996,86.41015599999992,110.38476599999922
230,100.25634799999989,181.15380900000036,106.15380900000036,205.2563479999999,2.9487300000000687,108.7177729999994,115.51269500000035,102.17968800000017,107.56396500000028,57.43603499999972,48.20507799999996,107.69238299999961,86.53857400000015,107.94873000000007
231,98.84619099999964,180.76904300000024,108.20507799999996,208.0771479999994,9.871581999999762,107.17968800000017,114.74365200000011,106.0258789999998,112.17968800000017,62.05126999999993,49.48730499999965,109.23095699999976,86.79492200000004,109.48730499999965
232,101.79492200000004,182.43603499999972,113.46142599999985,210.76904300000024,24.230956999999762,105.25634799999989,114.10253900000043,111.2822270000006,118.7177729999994,69.48730499999965,52.17968800000017,111.53857400000015,87.82031300000017,112.82031300000017
233,105.64111300000059,184.3588869999994,116.6665039999998,210.0,36.410155999999915,104.10253900000043,114.23095699999976,114.87158199999976,122.30761700000039,75.0,54.102539000000434,112.17968800000017,87.69238299999961,113.46142599999985
234,105.89746099999957,184.48730499999965,113.9741210000002,206.9228520000006,38.7177729999994,104.10253900000043,114.61523400000078,114.23095699999976,119.74365200000011,73.9741210000002,52.82031300000017,109.48730499999965,84.61523400000078,109.74365200000011
235,100.64111300000059,182.05126999999993,106.53857400000015,204.48730499999965,31.153809000000365,104.48730499999965,114.48730499999965,110.12841800000024,112.56396500000028,66.41015599999992,47.69238299999961,104.23095699999976,79.10253900000043,103.84619099999964
236,92.17968800000017,177.43603499999972,99.61523400000078,203.46142599999985,20.641113000000587,104.35888699999941,113.58984400000008,106.0258789999998,105.76904300000024,57.17968800000017,41.2822270000006,99.61523400000078,74.35888699999941,100.38476599999922
237,86.0258789999998,173.3334960000002,97.94873000000007,202.82031300000017,14.615234000000783,103.84619099999964,113.0771479999994,105.25634799999989,104.61523400000078,52.82031300000017,38.0771479999994,98.7177729999994,73.9741210000002,101.6665039999998
238,86.6665039999998,171.9228520000006,102.82031300000017,200.38476599999922,16.282227000000603,103.7177729999994,113.7177729999994,108.20507799999996,109.74365200000011,56.025878999999804,40.25634799999989,102.56396500000028,78.9741210000002,106.41015599999992
239,93.9741210000002,173.84619099999964,110.51269500000035,195.51269500000035,22.30761700000039,104.35888699999941,114.87158199999976,111.9228520000006,117.05126999999993,63.7177729999994,45.12841800000024,109.74365200000011,86.0258789999998,110.89746099999957
240,102.43603499999972,176.6665039999998,115.0,187.82031300000017,27.82031300000017,104.74365200000011,115.12841800000024,112.43603499999972,120.12841800000024,70.12841800000024,47.56396500000028,116.15380900000036,90.51269500000035,111.9228520000006
241,105.51269500000035,177.3076170000004,112.94873000000007,179.48730499999965,30.641113000000587,104.23095699999976,113.84619099999964,108.3334960000002,116.15380900000036,71.2822270000006,45.51269500000035,118.0771479999994,90.25634799999989,108.84619099999964
242,101.2822270000006,175.0,106.53857400000015,172.94873000000007,33.0771479999994,103.20507799999996,112.30761700000039,102.69238299999961,108.84619099999964,67.69238299999961,41.79492200000004,115.51269500000035,87.30761700000039,104.48730499999965
243,93.3334960000002,171.79492200000004,101.41015599999992,169.48730499999965,36.79492200000004,102.82031300000017,112.30761700000039,100.0,104.74365200000011,63.589844000000085,41.666503999999804,111.15380900000036,85.25634799999989,102.30761700000039
244,86.6665039999998,169.3588869999994,101.15380900000036,167.43603499999972,40.51269500000035,102.82031300000017,114.10253900000043,102.56396500000028,107.30761700000039,62.17968800000017,46.79492200000004,108.20507799999996,86.15380900000036,103.46142599999985
245,83.3334960000002,167.56396500000028,104.87158199999976,164.10253900000043,40.38476599999922,102.94873000000007,116.0258789999998,108.46142599999985,113.46142599999985,63.589844000000085,52.69238299999961,107.56396500000028,88.7177729999994,105.76904300000024
246,82.30761700000039,165.51269500000035,108.9741210000002,159.10253900000043,35.38476599999922,102.94873000000007,116.53857400000015,112.69238299999961,117.43603499999972,65.89746099999957,53.46142599999985,108.0771479999994,90.0,107.05126999999993
247,82.56396500000028,164.3588869999994,111.41015599999992,156.15380900000036,29.102539000000434,103.0771479999994,116.0258789999998,112.94873000000007,116.6665039999998,67.05126999999993,49.23095699999976,109.23095699999976,89.74365200000011,107.17968800000017
248,84.61523400000078,166.41015599999992,113.46142599999985,159.10253900000043,27.30761700000039,103.0771479999994,116.15380900000036,111.6665039999998,113.9741210000002,66.9228520000006,45.897460999999566,111.41015599999992,90.25634799999989,108.46142599999985
249,88.9741210000002,172.43603499999972,116.79492200000004,167.3076170000004,31.410155999999915,102.94873000000007,118.20507799999996,112.69238299999961,114.10253900000043,67.05126999999993,49.35888699999941,114.35888699999941,93.84619099999964,111.2822270000006
250,94.61523400000078,179.23095699999976,120.76904300000024,175.6411130000006,37.94873000000007,102.94873000000007,121.53857400000015,116.79492200000004,118.20507799999996,68.20507799999996,59.35888699999941,117.17968800000017,99.10253900000043,114.35888699999941
251,98.58984400000008,182.6923829999996,123.0771479999994,178.9741210000002,41.79492200000004,103.3334960000002,124.23095699999976,120.51269500000035,122.56396500000028,70.25634799999989,68.84619099999964,118.7177729999994,102.17968800000017,115.76904300000024
252,98.84619099999964,181.0258789999998,121.15380900000036,176.0258789999998,41.53857400000015,103.9741210000002,124.61523400000078,119.87158199999976,123.0771479999994,71.9228520000006,69.87158199999976,117.69238299999961,101.2822270000006,114.35888699999941
253,95.0,175.2563479999999,115.0,169.7436520000001,39.23095699999976,104.10253900000043,122.05126999999993,114.10253900000043,117.94873000000007,71.6665039999998,60.51269500000035,113.58984400000008,97.30761700000039,110.25634799999989
254,88.3334960000002,167.43603499999972,106.6665039999998,164.10253900000043,37.05126999999993,103.84619099999964,117.17968800000017,106.53857400000015,109.23095699999976,68.84619099999964,45.51269500000035,107.05126999999993,93.0771479999994,104.74365200000011
255,81.0258789999998,160.0,99.35888699999941,161.15380900000036,35.38476599999922,103.84619099999964,112.43603499999972,101.15380900000036,101.2822270000006,63.846190999999635,32.56396500000028,100.89746099999957,90.51269500000035,100.12841800000024
256,75.51269500000035,156.53857400000015,95.89746099999957,160.51269500000035,34.48730499999965,105.12841800000024,110.0,101.2822270000006,98.7177729999994,58.974121000000196,27.82031300000017,97.82031300000017,90.0,98.0771479999994
257,75.76904300000024,159.7436520000001,98.3334960000002,162.56396500000028,36.025878999999804,108.58984400000008,111.9228520000006,107.05126999999993,103.9741210000002,58.7177729999994,32.94873000000007,99.23095699999976,91.79492200000004,100.51269500000035
258,83.84619099999964,169.23095699999976,106.9228520000006,168.9741210000002,41.666503999999804,113.0771479999994,118.0771479999994,116.2822270000006,116.0258789999998,66.41015599999992,45.0,105.0,96.79492200000004,107.56396500000028
259,97.94873000000007,181.0258789999998,119.48730499999965,181.0258789999998,50.76904300000024,116.6665039999998,126.0258789999998,125.64111300000059,130.2563479999999,81.53857400000015,58.7177729999994,112.94873000000007,104.61523400000078,116.6665039999998
260,112.30761700000039,189.48730499999965,131.2822270000006,196.15380900000036,60.38476599999922,117.94873000000007,132.3076170000004,132.6923829999996,141.2822270000006,98.20507799999996,69.10253900000043,119.87158199999976,113.46142599999985,123.46142599999985
261,120.38476599999922,191.2822270000006,137.82031300000017,208.3334960000002,66.53857400000015,116.79492200000004,134.23095699999976,136.15380900000036,145.38476599999922,108.46142599999985,73.58984400000008,123.0771479999994,120.38476599999922,124.74365200000011
262,119.23095699999976,186.79492200000004,136.79492200000004,211.53857400000015,66.6665039999998,113.9741210000002,130.89746099999957,135.89746099999957,141.79492200000004,107.30761700000039,72.30761700000039,122.05126999999993,122.69238299999961,121.0258789999998
263,111.0258789999998,179.23095699999976,129.87158199999976,203.84619099999964,61.2822270000006,110.25634799999989,124.10253900000043,133.20507799999996,133.7177729999994,96.2822270000006,66.41015599999992,118.58984400000008,119.35888699999941,115.89746099999957
264,101.15380900000036,172.82031300000017,121.41015599999992,190.0,54.23095699999976,106.6665039999998,117.30761700000039,129.61523400000078,126.0258789999998,81.9228520000006,58.0771479999994,115.12841800000024,111.9228520000006,112.94873000000007
265,94.87158199999976,169.7436520000001,115.64111300000059,178.3334960000002,49.48730499999965,104.35888699999941,114.10253900000043,126.41015599999992,122.30761700000039,71.9228520000006,50.897460999999566,113.3334960000002,103.58984400000008,112.94873000000007
266,94.10253900000043,168.7177729999994,114.35888699999941,175.12841800000024,48.20507799999996,104.10253900000043,115.76904300000024,124.23095699999976,123.20507799999996,70.51269500000035,47.69238299999961,113.3334960000002,97.69238299999961,114.10253900000043
267,96.53857400000015,168.0771479999994,116.0258789999998,179.48730499999965,48.589844000000085,105.64111300000059,120.51269500000035,123.3334960000002,125.76904300000024,76.15380900000036,49.23095699999976,113.7177729999994,95.89746099999957,114.61523400000078
268,98.46142599999985,167.94873000000007,118.84619099999964,185.76904300000024,48.974121000000196,108.58984400000008,125.0,124.61523400000078,127.56396500000028,83.84619099999964,54.48730499999965,113.9741210000002,98.58984400000008,113.9741210000002
269,99.61523400000078,171.41015599999992,122.05126999999993,190.2563479999999,51.153809000000365,112.30761700000039,127.69238299999961,129.48730499999965,129.61523400000078,90.12841800000024,61.666503999999804,114.87158199999976,105.89746099999957,113.58984400000008
270,103.0771479999994,180.12841800000024,126.53857400000015,193.20507799999996,57.82031300000017,116.15380900000036,130.12841800000024,137.94873000000007,134.87158199999976,95.25634799999989,69.87158199999976,117.05126999999993,117.82031300000017,115.0
271,111.15380900000036,191.41015599999992,132.3076170000004,196.53857400000015,67.94873000000007,118.3334960000002,133.58984400000008,147.3076170000004,143.9741210000002,100.89746099999957,76.79492200000004,119.87158199999976,132.05126999999993,118.46142599999985
272,120.25634799999989,197.82031300000017,136.41015599999992,200.12841800000024,75.89746099999957,117.17968800000017,136.53857400000015,152.43603499999972,152.43603499999972,106.53857400000015,78.84619099999964,120.76904300000024,143.0771479999994,121.6665039999998
273,123.46142599999985,192.56396500000028,135.12841800000024,201.79492200000004,75.25634799999989,112.69238299999961,135.0,148.58984400000008,153.58984400000008,108.58984400000008,72.82031300000017,117.82031300000017,145.12841800000024,121.79492200000004
274,116.6665039999998,175.89746099999957,127.43603499999972,200.51269500000035,65.51269500000035,107.17968800000017,127.30761700000039,136.41015599999992,143.9741210000002,103.46142599999985,60.38476599999922,111.2822270000006,136.53857400000015,118.0771479999994
275,104.61523400000078,157.3076170000004,117.82031300000017,198.46142599999985,53.7177729999994,103.7177729999994,117.17968800000017,122.43603499999972,128.3334960000002,92.69238299999961,48.974121000000196,105.0,123.46142599999985,112.82031300000017
276,96.9228520000006,150.0,113.46142599999985,200.2563479999999,50.51269500000035,104.48730499999965,111.41015599999992,115.0,117.30761700000039,83.46142599999985,47.56396500000028,103.58984400000008,116.9228520000006,110.64111300000059
277,100.51269500000035,159.87158199999976,118.84619099999964,208.46142599999985,60.0,108.7177729999994,114.23095699999976,118.58984400000008,118.7177729999994,82.82031300000017,58.46142599999985,108.3334960000002,123.0771479999994,113.3334960000002
278,113.46142599999985,180.2563479999999,130.6411130000006,219.48730499999965,76.9228520000006,112.94873000000007,123.20507799999996,129.3588869999994,131.6665039999998,92.05126999999993,75.25634799999989,116.53857400000015,138.20507799999996,118.7177729999994
279,126.0258789999998,197.43603499999972,139.7436520000001,224.87158199999976,89.61523400000078,113.84619099999964,131.2822270000006,139.23095699999976,146.41015599999992,105.12841800000024,87.56396500000028,122.17968800000017,151.15380900000036,122.56396500000028
280,129.87158199999976,201.6665039999998,139.10253900000043,218.20507799999996,90.89746099999957,110.51269500000035,133.20507799999996,141.2822270000006,153.7177729999994,113.84619099999964,89.87158199999976,121.6665039999998,153.3334960000002,122.05126999999993
281,124.35888699999941,193.7177729999994,129.7436520000001,203.46142599999985,82.17968800000017,105.38476599999922,130.12841800000024,135.89746099999957,151.2822270000006,114.87158199999976,84.74365200000011,116.79492200000004,145.6411130000006,118.46142599999985
282,116.41015599999992,182.17968800000017,119.35888699999941,192.43603499999972,71.6665039999998,101.41015599999992,126.79492200000004,129.61523400000078,145.0,111.2822270000006,78.7177729999994,112.82031300000017,136.9228520000006,115.51269500000035
283,112.82031300000017,175.38476599999922,115.12841800000024,194.10253900000043,66.53857400000015,100.12841800000024,127.05126999999993,128.58984400000008,142.05126999999993,108.3334960000002,76.2822270000006,113.3334960000002,134.48730499999965,115.12841800000024
284,114.61523400000078,174.7436520000001,117.56396500000028,205.76904300000024,67.69238299999961,101.41015599999992,130.12841800000024,132.43603499999972,144.23095699999976,107.30761700000039,76.6665039999998,117.17968800000017,139.10253900000043,116.15380900000036
285,117.82031300000017,175.2563479999999,121.79492200000004,215.76904300000024,71.15380900000036,103.3334960000002,131.79492200000004,136.15380900000036,147.43603499999972,106.15380900000036,76.41015599999992,120.0,145.12841800000024,116.41015599999992
286,118.58984400000008,172.56396500000028,122.69238299999961,214.23095699999976,72.82031300000017,104.10253900000043,128.84619099999964,135.2563479999999,146.9228520000006,102.94873000000007,73.9741210000002,118.58984400000008,146.6665039999998,115.38476599999922
287,117.30761700000039,167.6923829999996,120.25634799999989,200.89746099999957,72.43603499999972,102.94873000000007,122.82031300000017,131.0258789999998,142.82031300000017,98.9741210000002,70.89746099999957,113.58984400000008,143.3334960000002,114.23095699999976
288,117.05126999999993,166.0258789999998,118.46142599999985,184.10253900000043,72.69238299999961,101.15380900000036,118.84619099999964,128.3334960000002,139.3588869999994,97.82031300000017,70.76904300000024,108.9741210000002,139.87158199999976,115.12841800000024
289,120.89746099999957,171.53857400000015,121.15380900000036,173.7177729999994,76.53857400000015,100.38476599999922,121.15380900000036,131.15380900000036,141.0258789999998,102.56396500000028,75.64111300000059,108.7177729999994,141.0258789999998,118.46142599999985
290,128.20507799999996,181.79492200000004,127.82031300000017,172.43603499999972,83.9741210000002,101.0258789999998,128.46142599999985,138.3334960000002,147.05126999999993,111.6665039999998,82.69238299999961,113.3334960000002,147.05126999999993,122.94873000000007
291,133.7177729999994,189.7436520000001,133.46142599999985,175.2563479999999,91.53857400000015,101.9228520000006,135.51269500000035,144.23095699999976,152.43603499999972,118.3334960000002,86.2822270000006,119.10253900000043,152.56396500000028,125.51269500000035
292,132.43603499999972,188.9741210000002,133.0771479999994,175.0,94.23095699999976,102.05126999999993,137.56396500000028,143.46142599999985,151.9228520000006,116.6665039999998,82.43603499999972,121.79492200000004,151.9228520000006,123.58984400000008
293,123.7177729999994,179.3588869999994,126.15380900000036,168.9741210000002,89.74365200000011,101.53857400000015,133.84619099999964,136.0258789999998,145.2563479999999,106.9228520000006,72.56396500000028,119.35888699999941,144.23095699999976,117.17968800000017
294,111.9228520000006,166.53857400000015,117.43603499999972,161.0258789999998,80.12841800000024,101.0258789999998,128.0771479999994,126.0258789999998,136.2822270000006,95.0,62.17968800000017,113.0771479999994,134.3588869999994,109.87158199999976
295,103.3334960000002,157.56396500000028,112.30761700000039,157.94873000000007,70.25634799999989,100.89746099999957,124.10253900000043,118.46142599999985,130.0,87.56396500000028,56.153809000000365,106.41015599999992,128.0771479999994,105.51269500000035
296,100.76904300000024,155.38476599999922,112.17968800000017,162.82031300000017,65.25634799999989,101.0258789999998,123.20507799999996,116.0258789999998,128.20507799999996,87.56396500000028,55.12841800000024,102.05126999999993,127.94873000000007,105.25634799999989
297,102.69238299999961,158.46142599999985,114.23095699999976,172.56396500000028,67.94873000000007,101.6665039999998,123.3334960000002,117.56396500000028,130.0,92.94873000000007,56.666503999999804,100.76904300000024,131.6665039999998,107.56396500000028
298,105.89746099999957,163.3334960000002,114.61523400000078,181.15380900000036,77.43603499999972,103.20507799999996,121.79492200000004,119.87158199999976,132.56396500000028,98.0771479999994,57.30761700000039,101.6665039999998,134.87158199999976,109.48730499999965
299,107.56396500000028,166.53857400000015,111.79492200000004,184.3588869999994,88.3334960000002,105.25634799999989,118.20507799999996,120.51269500000035,134.23095699999976,99.23095699999976,55.897460999999566,103.20507799999996,134.61523400000078,109.74365200000011
300,106.79492200000004,167.17968800000017,107.94873000000007,182.94873000000007,93.9741210000002,106.0258789999998,114.87158199999976,119.10253900000043,134.10253900000043,96.15380900000036,54.102539000000434,103.58984400000008,132.05126999999993,107.69238299999961
301,103.84619099999964,165.0,106.0258789999998,180.6411130000006,90.51269500000035,104.35888699999941,113.9741210000002,117.05126999999993,132.17968800000017,91.6665039999998,53.333496000000196,102.30761700000039,129.87158199999976,104.35888699999941
302,99.74365200000011,160.51269500000035,107.17968800000017,180.38476599999922,80.0,101.2822270000006,116.15380900000036,116.15380900000036,128.58984400000008,88.0771479999994,53.589844000000085,99.74365200000011,129.3588869999994,101.2822270000006
303,95.89746099999957,155.89746099999957,110.0,183.20507799999996,69.35888699999941,99.48730499999965,120.0,117.82031300000017,125.0,86.6665039999998,54.61523400000078,97.56396500000028,130.89746099999957,100.25634799999989
304,94.87158199999976,155.2563479999999,113.0771479999994,189.3588869999994,66.41015599999992,101.53857400000015,124.48730499999965,122.82031300000017,124.61523400000078,88.3334960000002,57.30761700000039,98.3334960000002,134.23095699999976,102.56396500000028
305,98.9741210000002,161.79492200000004,115.64111300000059,198.20507799999996,74.87158199999976,106.79492200000004,128.7177729999994,130.76904300000024,130.12841800000024,93.46142599999985,62.94873000000007,102.94873000000007,138.84619099999964,107.82031300000017
306,107.56396500000028,172.94873000000007,117.82031300000017,207.94873000000007,90.38476599999922,111.9228520000006,131.79492200000004,139.3588869999994,140.0,100.64111300000059,70.51269500000035,109.61523400000078,143.7177729999994,113.84619099999964
307,116.15380900000036,182.05126999999993,118.9741210000002,214.10253900000043,102.82031300000017,113.46142599999985,132.6923829999996,144.61523400000078,148.7177729999994,105.76904300000024,76.2822270000006,114.74365200000011,146.41015599999992,117.17968800000017
308,120.0,183.46142599999985,118.7177729999994,213.0771479999994,104.74365200000011,110.76904300000024,131.53857400000015,143.58984400000008,151.0258789999998,105.89746099999957,77.17968800000017,115.51269500000035,146.53857400000015,116.2822270000006
309,118.46142599999985,178.3334960000002,117.30761700000039,205.51269500000035,97.05126999999993,106.0258789999998,130.0,138.3334960000002,146.6665039999998,102.94873000000007,74.87158199999976,112.30761700000039,145.89746099999957,112.69238299999961
310,114.48730499999965,172.3076170000004,115.76904300000024,196.53857400000015,88.20507799999996,102.56396500000028,130.0,133.58984400000008,139.87158199999976,101.41015599999992,72.69238299999961,108.3334960000002,147.17968800000017,109.10253900000043
311,110.38476599999922,168.58984400000008,114.48730499999965,190.76904300000024,84.74365200000011,101.79492200000004,131.6665039999998,132.05126999999993,135.0,102.69238299999961,72.17968800000017,105.76904300000024,149.87158199999976,106.41015599999992
312,105.89746099999957,166.2822270000006,112.43603499999972,188.7177729999994,86.53857400000015,102.56396500000028,132.56396500000028,131.9228520000006,132.43603499999972,103.46142599999985,71.2822270000006,104.61523400000078,150.76904300000024,104.23095699999976
313,100.89746099999957,162.6923829999996,108.9741210000002,188.9741210000002,88.58984400000008,103.3334960000002,131.2822270000006,130.6411130000006,130.89746099999957,99.87158199999976,67.69238299999961,103.7177729999994,147.56396500000028,102.30761700000039
314,97.56396500000028,157.94873000000007,106.15380900000036,190.38476599999922,86.9228520000006,103.0771479999994,129.61523400000078,127.94873000000007,130.0,92.17968800000017,62.43603499999972,103.20507799999996,142.82031300000017,101.79492200000004
315,98.58984400000008,155.0,106.79492200000004,194.23095699999976,82.82031300000017,102.56396500000028,130.2563479999999,126.9228520000006,131.41015599999992,86.0258789999998,60.0,104.48730499999965,142.3076170000004,104.35888699999941
316,105.25634799999989,157.43603499999972,112.43603499999972,201.6665039999998,82.17968800000017,102.56396500000028,134.10253900000043,130.89746099999957,137.17968800000017,88.0771479999994,64.61523400000078,108.58984400000008,149.7436520000001,110.0
317,115.89746099999957,166.79492200000004,121.6665039999998,212.17968800000017,90.51269500000035,103.46142599999985,140.0,140.12841800000024,146.9228520000006,100.51269500000035,77.05126999999993,115.38476599999922,163.84619099999964,117.05126999999993
318,126.9228520000006,181.15380900000036,130.76904300000024,222.56396500000028,107.43603499999972,105.0,144.61523400000078,150.89746099999957,157.6923829999996,118.9741210000002,92.82031300000017,122.82031300000017,178.7177729999994,122.94873000000007
319,134.23095699999976,193.9741210000002,135.6411130000006,227.82031300000017,124.10253900000043,106.15380900000036,145.51269500000035,157.05126999999993,164.61523400000078,133.46142599999985,104.23095699999976,127.69238299999961,187.56396500000028,124.87158199999976
320,134.10253900000043,196.2822270000006,133.9741210000002,223.0771479999994,128.9741210000002,105.76904300000024,141.53857400000015,153.58984400000008,163.0771479999994,134.7436520000001,104.61523400000078,127.17968800000017,185.38476599999922,121.15380900000036
321,125.51269500000035,182.6923829999996,126.9228520000006,208.7177729999994,115.38476599999922,103.20507799999996,134.10253900000043,139.61523400000078,151.2822270000006,119.48730499999965,92.17968800000017,121.0258789999998,171.41015599999992,112.17968800000017
322,111.6665039999998,157.05126999999993,117.30761700000039,191.6665039999998,88.20507799999996,99.61523400000078,125.76904300000024,120.51269500000035,133.0771479999994,93.0771479999994,71.41015599999992,112.05126999999993,150.38476599999922,101.6665039999998
323,98.58984400000008,132.17968800000017,109.23095699999976,180.89746099999957,62.05126999999993,97.30761700000039,120.12841800000024,105.38476599999922,116.2822270000006,68.0771479999994,51.153809000000365,104.61523400000078,132.17968800000017,94.35888699999941
324,92.30761700000039,122.94873000000007,105.64111300000059,181.9228520000006,52.17968800000017,98.58984400000008,119.61523400000078,101.2822270000006,108.58984400000008,57.05126999999993,40.38476599999922,102.05126999999993,125.64111300000059,93.58984400000008
325,95.89746099999957,134.61523400000078,108.20507799999996,193.7177729999994,64.23095699999976,103.20507799999996,124.48730499999965,109.48730499999965,112.82031300000017,64.23095699999976,43.7177729999994,105.12841800000024,133.46142599999985,99.23095699999976
326,107.17968800000017,159.3588869999994,116.79492200000004,210.51269500000035,90.64111300000059,109.35888699999941,132.82031300000017,125.25634799999989,125.89746099999957,82.69238299999961,58.7177729999994,112.56396500000028,150.38476599999922,108.3334960000002
327,120.89746099999957,181.53857400000015,129.10253900000043,225.51269500000035,116.9228520000006,113.7177729999994,141.41015599999992,140.6411130000006,140.6411130000006,99.35888699999941,76.9228520000006,121.79492200000004,166.41015599999992,116.6665039999998
328,131.79492200000004,189.87158199999976,140.6411130000006,234.10253900000043,131.6665039999998,114.74365200000011,146.9228520000006,148.9741210000002,150.76904300000024,105.76904300000024,89.10253900000043,129.61523400000078,174.7436520000001,121.0258789999998
329,136.15380900000036,184.10253900000043,146.53857400000015,234.7436520000001,132.6923829999996,112.56396500000028,147.6923829999996,148.20507799999996,153.46142599999985,103.0771479999994,90.25634799999989,133.7177729999994,174.48730499999965,120.76904300000024
330,134.23095699999976,172.94873000000007,144.10253900000043,229.10253900000043,125.51269500000035,109.10253900000043,143.7177729999994,141.15380900000036,150.12841800000024,98.3334960000002,83.0771479999994,133.20507799999996,170.38476599999922,117.30761700000039
331,129.3588869999994,166.2822270000006,136.53857400000015,220.76904300000024,116.6665039999998,106.41015599999992,137.6923829999996,133.9741210000002,144.7436520000001,97.82031300000017,76.15380900000036,130.12841800000024,168.0771479999994,113.84619099999964
332,125.89746099999957,168.3334960000002,130.51269500000035,213.3334960000002,109.61523400000078,105.38476599999922,134.10253900000043,131.6665039999998,142.05126999999993,101.41015599999992,77.05126999999993,127.69238299999961,170.12841800000024,113.20507799999996
333,126.41015599999992,176.53857400000015,131.15380900000036,207.43603499999972,105.64111300000059,105.38476599999922,136.0258789999998,135.76904300000024,143.7177729999994,105.51269500000035,86.2822270000006,128.3334960000002,175.0,116.0258789999998
334,129.48730499999965,183.20507799999996,137.05126999999993,201.2822270000006,104.10253900000043,104.87158199999976,141.79492200000004,142.56396500000028,147.3076170000004,105.64111300000059,96.2822270000006,130.89746099999957,178.20507799999996,119.48730499999965
335,129.48730499999965,181.9228520000006,141.6665039999998,192.05126999999993,103.3334960000002,103.0771479999994,145.6411130000006,145.89746099999957,147.43603499999972,100.0,97.30761700000039,131.53857400000015,175.38476599999922,120.12841800000024
336,122.43603499999972,172.3076170000004,138.0771479999994,179.10253900000043,102.17968800000017,100.38476599999922,141.79492200000004,141.6665039999998,141.41015599999992,91.41015599999992,85.64111300000059,127.05126999999993,166.6665039999998,116.0258789999998
337,110.76904300000024,159.61523400000078,126.53857400000015,166.41015599999992,99.87158199999976,98.58984400000008,130.89746099999957,131.9228520000006,131.6665039999998,85.51269500000035,67.05126999999993,118.84619099999964,157.6923829999996,109.35888699999941
338,101.6665039999998,151.15380900000036,114.35888699999941,160.38476599999922,97.43603499999972,98.58984400000008,119.23095699999976,123.58984400000008,125.38476599999922,86.9228520000006,53.0771479999994,112.43603499999972,155.6411130000006,104.61523400000078
339,101.53857400000015,149.87158199999976,110.89746099999957,164.3588869999994,96.9228520000006,100.25634799999989,114.10253900000043,122.56396500000028,128.20507799999996,95.64111300000059,52.30761700000039,113.20507799999996,163.0771479999994,105.0
340,110.51269500000035,154.10253900000043,118.58984400000008,174.3588869999994,99.23095699999976,102.30761700000039,118.84619099999964,129.23095699999976,138.7177729999994,107.43603499999972,63.846190999999635,121.6665039999998,175.51269500000035,110.89746099999957
341,122.69238299999961,160.38476599999922,131.2822270000006,182.3076170000004,103.7177729999994,103.46142599999985,129.61523400000078,138.0771479999994,150.2563479999999,117.56396500000028,77.69238299999961,132.17968800000017,185.2563479999999,118.84619099999964
342,130.0,165.0,138.20507799999996,181.6665039999998,106.2822270000006,103.3334960000002,138.0771479999994,142.17968800000017,154.87158199999976,122.43603499999972,82.82031300000017,137.17968800000017,186.9228520000006,123.9741210000002
343,127.82031300000017,165.38476599999922,133.20507799999996,171.6665039999998,102.30761700000039,102.05126999999993,137.6923829999996,138.20507799999996,149.23095699999976,121.0258789999998,75.51269500000035,132.3076170000004,180.2563479999999,122.69238299999961
344,118.20507799999996,160.12841800000024,119.74365200000011,158.84619099999964,91.2822270000006,100.25634799999989,129.3588869999994,129.87158199999976,136.9228520000006,114.23095699999976,61.53857400000015,121.15380900000036,169.10253900000043,116.53857400000015
345,109.10253900000043,152.3076170000004,108.84619099999964,153.84619099999964,79.87158199999976,98.84619099999964,121.0258789999998,124.87158199999976,126.53857400000015,106.6665039999998,51.410155999999915,112.30761700000039,160.6411130000006,110.64111300000059
346,108.7177729999994,147.94873000000007,109.23095699999976,163.0771479999994,77.82031300000017,98.3334960000002,120.64111300000059,129.10253900000043,126.2822270000006,105.0,51.666503999999804,112.30761700000039,160.89746099999957,110.12841800000024
347,118.20507799999996,152.43603499999972,120.25634799999989,183.20507799999996,89.61523400000078,99.35888699999941,129.48730499999965,141.53857400000015,137.6923829999996,113.84619099999964,59.61523400000078,120.76904300000024,170.6411130000006,115.64111300000059
348,130.89746099999957,163.7177729999994,133.0771479999994,202.82031300000017,109.35888699999941,101.6665039999998,140.89746099999957,154.10253900000043,154.23095699999976,131.9228520000006,66.6665039999998,130.6411130000006,184.10253900000043,122.82031300000017
349,136.6665039999998,173.3334960000002,137.82031300000017,210.6411130000006,123.84619099999964,104.35888699999941,146.2822270000006,158.84619099999964,165.6411130000006,151.53857400000015,65.38476599999922,134.48730499999965,192.05126999999993,126.0258789999998
350,130.76904300000024,172.82031300000017,131.0258789999998,204.23095699999976,123.58984400000008,105.51269500000035,141.53857400000015,152.94873000000007,165.38476599999922,163.58984400000008,55.25634799999989,129.61523400000078,188.58984400000008,122.69238299999961
351,115.76904300000024,161.15380900000036,117.05126999999993,190.12841800000024,109.61523400000078,103.9741210000002,130.12841800000024,139.48730499999965,154.3588869999994,163.7177729999994,40.76904300000024,118.9741210000002,175.2563479999999,114.48730499999965
352,100.12841800000024,146.15380900000036,104.35888699999941,178.46142599999985,92.56396500000028,100.51269500000035,119.74365200000011,125.0,139.61523400000078,156.41015599999992,28.974121000000196,108.84619099999964,160.2563479999999,106.53857400000015
353,93.58984400000008,139.87158199999976,100.51269500000035,175.6411130000006,85.12841800000024,98.46142599999985,117.69238299999961,117.43603499999972,130.76904300000024,151.9228520000006,26.282227000000603,105.38476599999922,153.46142599999985,103.9741210000002
354,100.51269500000035,148.9741210000002,108.46142599999985,182.6923829999996,93.3334960000002,100.76904300000024,125.89746099999957,121.79492200000004,134.10253900000043,157.6923829999996,35.76904300000024,110.76904300000024,160.38476599999922,108.9741210000002
355,116.53857400000015,168.58984400000008,124.10253900000043,194.48730499999965,111.53857400000015,106.79492200000004,139.23095699999976,135.89746099999957,147.05126999999993,171.53857400000015,53.333496000000196,121.6665039999998,176.53857400000015,118.20507799999996
356,130.2563479999999,184.87158199999976,137.43603499999972,203.58984400000008,125.51269500000035,112.43603499999972,149.3588869999994,150.2563479999999,159.61523400000078,183.0771479999994,67.43603499999972,130.76904300000024,190.0,124.48730499999965
357,131.0258789999998,185.2563479999999,140.51269500000035,204.87158199999976,123.0771479999994,113.46142599999985,149.7436520000001,154.3588869999994,160.76904300000024,183.0771479999994,66.2822270000006,131.6665039999998,189.23095699999976,122.94873000000007
358,117.94873000000007,169.48730499999965,132.05126999999993,198.9741210000002,104.23095699999976,109.10253900000043,140.51269500000035,144.87158199999976,147.94873000000007,171.15380900000036,47.82031300000017,123.9741210000002,173.3334960000002,114.61523400000078
359,100.89746099999957,149.87158199999976,119.35888699999941,191.53857400000015,82.05126999999993,103.0771479999994,128.84619099999964,128.58984400000008,129.48730499999965,158.20507799999996,22.82031300000017,113.3334960000002,153.0771479999994,105.89746099999957
360,92.94873000000007,142.17968800000017,112.56396500000028,188.84619099999964,72.82031300000017,100.12841800000024,122.82031300000017,117.56396500000028,118.58984400000008,157.82031300000017,7.307617000000391,107.56396500000028,143.20507799999996,103.84619099999964
361,100.89746099999957,153.0771479999994,117.56396500000028,193.58984400000008,83.0771479999994,102.30761700000039,126.15380900000036,119.74365200000011,122.69238299999961,175.38476599999922,10.512695000000349,110.76904300000024,151.0258789999998,110.89746099999957
362,119.74365200000011,175.38476599999922,131.2822270000006,201.6665039999998,105.25634799999989,107.17968800000017,135.76904300000024,133.3334960000002,138.58984400000008,202.17968800000017,28.077147999999397,120.76904300000024,170.6411130000006,122.69238299999961
363,136.9228520000006,193.0771479999994,143.84619099999964,206.2822270000006,124.35888699999941,110.51269500000035,144.3588869999994,148.46142599999985,154.48730499999965,222.56396500000028,45.64111300000059,130.12841800000024,187.6923829999996,130.89746099999957
364,141.6665039999998,194.10253900000043,146.53857400000015,202.56396500000028,129.10253900000043,109.35888699999941,146.53857400000015,154.87158199999976,159.48730499999965,226.15380900000036,50.76904300000024,132.43603499999972,190.51269500000035,130.0
365,132.17968800000017,178.84619099999964,138.0771479999994,191.9228520000006,118.46142599999985,104.10253900000043,141.41015599999992,149.7436520000001,151.41015599999992,215.12841800000024,41.79492200000004,127.05126999999993,178.84619099999964,121.15380900000036
366,116.79492200000004,158.58984400000008,125.25634799999989,180.6411130000006,99.35888699999941,98.58984400000008,133.20507799999996,137.6923829999996,136.9228520000006,201.2822270000006,27.94873000000007,118.46142599999985,162.82031300000017,110.76904300000024
367,106.41015599999992,146.53857400000015,116.9228520000006,174.3588869999994,81.0258789999998,96.41015599999992,127.30761700000039,126.9228520000006,126.0258789999998,195.89746099999957,20.51269500000035,112.30761700000039,154.3588869999994,105.51269500000035
368,106.79492200000004,148.46142599999985,116.9228520000006,174.7436520000001,70.89746099999957,98.3334960000002,125.76904300000024,122.69238299999961,124.35888699999941,201.79492200000004,23.589844000000085,111.2822270000006,157.05126999999993,107.56396500000028
369,115.89746099999957,159.23095699999976,123.3334960000002,179.23095699999976,72.05126999999993,101.9228520000006,126.9228520000006,124.23095699999976,129.48730499999965,212.82031300000017,32.56396500000028,114.35888699999941,165.38476599999922,113.84619099999964
370,126.9228520000006,168.7177729999994,130.38476599999922,185.12841800000024,83.3334960000002,103.7177729999994,127.56396500000028,127.30761700000039,135.2563479999999,220.2563479999999,39.48730499999965,118.46142599999985,171.0258789999998,119.48730499999965
371,134.48730499999965,170.2563479999999,134.61523400000078,191.41015599999992,99.74365200000011,102.30761700000039,127.17968800000017,128.58984400000008,137.56396500000028,220.38476599999922,40.51269500000035,121.53857400000015,170.76904300000024,121.6665039999998
372,138.0771479999994,165.89746099999957,137.05126999999993,197.82031300000017,113.84619099999964,100.0,128.0771479999994,128.7177729999994,138.0771479999994,216.15380900000036,37.56396500000028,123.7177729999994,168.3334960000002,121.41015599999992
373,140.0,161.79492200000004,140.38476599999922,202.94873000000007,120.25634799999989,100.0,132.3076170000004,130.6411130000006,140.2563479999999,213.58984400000008,35.64111300000059,125.76904300000024,168.9741210000002,120.38476599999922
374,141.15380900000036,162.56396500000028,144.10253900000043,203.84619099999964,117.17968800000017,102.43603499999972,138.58984400000008,134.61523400000078,144.3588869999994,215.38476599999922,36.53857400000015,128.0771479999994,172.94873000000007,119.61523400000078
375,139.87158199999976,166.0258789999998,144.10253900000043,198.20507799999996,106.6665039999998,105.0,142.17968800000017,136.2822270000006,145.51269500000035,218.7177729999994,37.43603499999972,128.46142599999985,175.2563479999999,118.0771479999994
376,133.7177729999994,166.15380900000036,136.79492200000004,186.79492200000004,93.7177729999994,104.74365200000011,139.3588869999994,130.76904300000024,139.3588869999994,218.9741210000002,33.974121000000196,125.0,170.89746099999957,114.61523400000078
377,123.9741210000002,159.87158199999976,123.84619099999964,173.0771479999994,84.23095699999976,101.53857400000015,130.89746099999957,118.84619099999964,126.79492200000004,214.48730499999965,24.74365200000011,118.0771479999994,160.12841800000024,110.25634799999989
378,115.12841800000024,149.87158199999976,111.9228520000006,161.6665039999998,83.20507799999996,98.0771479999994,121.41015599999992,106.6665039999998,114.23095699999976,208.58984400000008,13.974121000000196,110.76904300000024,148.84619099999964,106.79492200000004
379,111.41015599999992,141.9228520000006,106.79492200000004,154.7436520000001,90.76904300000024,97.05126999999993,115.64111300000059,100.89746099999957,108.20507799999996,205.6411130000006,6.922852000000603,106.41015599999992,142.56396500000028,105.76904300000024
380,113.9741210000002,140.12841800000024,108.9741210000002,151.2822270000006,102.17968800000017,98.46142599999985,115.51269500000035,102.94873000000007,109.87158199999976,207.05126999999993,5.769043000000238,105.89746099999957,141.9228520000006,106.6665039999998
381,120.0,143.84619099999964,114.61523400000078,147.94873000000007,110.38476599999922,100.89746099999957,119.87158199999976,109.61523400000078,115.76904300000024,209.87158199999976,9.487304999999651,107.94873000000007,144.10253900000043,108.20507799999996
382,125.25634799999989,149.48730499999965,118.7177729999994,142.3076170000004,111.0258789999998,102.69238299999961,125.64111300000059,115.89746099999957,120.64111300000059,210.2563479999999,14.871581999999762,110.51269500000035,145.2563479999999,109.23095699999976
383,126.9228520000006,152.17968800000017,118.9741210000002,134.10253900000043,104.23095699999976,103.3334960000002,129.87158199999976,118.46142599999985,121.6665039999998,208.20507799999996,19.615234000000783,112.30761700000039,144.10253900000043,109.10253900000043
