,EEG.AF3,EEG.F7,EEG.F3,EEG.FC5,EEG.T7,EEG.P7,EEG.O1,EEG.O2,EEG.P8,EEG.T8,EEG.FC6,EEG.F4,EEG.F8,EEG.AF4
0,-30.38452099999995,108.46142599999985,68.7177729999994,-18.846190999999635,-50.38452099999995,88.20507799999996,102.82031300000017,86.53857400000015,118.58984400000008,133.7177729999994,113.58984400000008,117.30761700000039,111.79492200000004,87.17968800000017
1,-51.53857400000015,100.89746099999957,62.94873000000007,-21.28198199999997,-53.58984399999963,87.94873000000007,98.3334960000002,82.17968800000017,109.61523400000078,122.82031300000017,111.79492200000004,114.74365200000011,98.84619099999964,75.76904300000024
2,-84.61547900000005,75.0,50.25634799999989,-43.58984399999963,-72.82055700000001,79.74365200000011,86.79492200000004,62.69238299999961,85.0,96.0258789999998,84.87158199999976,104.10253900000043,73.7177729999994,46.9228520000006
3,-111.79492200000004,45.12841800000024,37.30761700000039,-72.30761700000039,-94.61547900000005,69.35888699999941,74.74365200000011,38.333496000000196,58.20507799999996,66.15380900000036,48.589844000000085,91.41015599999992,50.12841800000024,17.17968800000017
4,-114.48706099999981,32.43603499999972,33.20507799999996,-86.28198199999997,-100.76928699999962,64.87158199999976,70.89746099999957,25.0,47.56396500000028,51.666503999999804,26.282227000000603,85.64111300000059,42.30761700000039,7.307617000000391
5,-87.94872999999961,47.94873000000007,41.153809000000365,-75.38452099999995,-84.8718259999996,70.0,78.46142599999985,32.56396500000028,60.38476599999922,62.94873000000007,32.05126999999993,91.53857400000015,54.87158199999976,26.538574000000153
6,-47.30761700000039,82.17968800000017,56.153809000000365,-48.974365000000034,-58.20507799999996,80.51269500000035,92.30761700000039,56.53857400000015,88.46142599999985,93.3334960000002,60.25634799999989,104.74365200000011,78.7177729999994,64.10253900000043
7,-19.10253899999998,111.41015599999992,68.9741210000002,-27.30761700000039,-39.23071300000038,88.7177729999994,103.84619099999964,82.05126999999993,113.7177729999994,124.61523400000078,90.38476599999922,115.76904300000024,97.56396500000028,96.41015599999992
8,-20.89746100000002,116.41015599999992,73.3334960000002,-24.10253899999998,-38.33325200000036,90.0,107.05126999999993,95.51269500000035,122.94873000000007,140.38476599999922,103.7177729999994,118.0771479999994,100.51269500000035,104.61523400000078
9,-47.30761700000039,96.9228520000006,70.12841800000024,-35.76928699999962,-51.025634999999966,85.38476599999922,103.20507799999996,93.9741210000002,115.76904300000024,136.79492200000004,96.9228520000006,112.43603499999972,89.10253900000043,87.43603499999972
10,-75.38452099999995,71.2822270000006,65.38476599999922,-46.53857400000015,-63.974365000000034,80.12841800000024,98.3334960000002,85.12841800000024,103.0771479999994,122.56396500000028,82.82031300000017,105.51269500000035,76.2822270000006,61.2822270000006
11,-84.74365200000011,59.61523400000078,63.7177729999994,-44.23071300000038,-66.92309599999999,77.82031300000017,97.56396500000028,78.84619099999964,96.6665039999998,110.38476599999922,77.05126999999993,102.94873000000007,73.58984400000008,46.025878999999804
12,-74.48706099999981,67.43603499999972,64.74365200000011,-31.538574000000153,-61.025634999999966,78.0771479999994,101.2822270000006,78.3334960000002,99.61523400000078,107.05126999999993,83.46142599999985,105.76904300000024,82.05126999999993,50.51269500000035
13,-60.1281740000004,84.23095699999976,64.74365200000011,-22.564209000000574,-55.38452099999995,77.82031300000017,105.0,79.48730499999965,105.51269500000035,110.25634799999989,92.69238299999961,111.15380900000036,91.9228520000006,66.79492200000004
14,-58.46142599999985,94.74365200000011,61.2822270000006,-28.205077999999958,-56.79492200000004,75.25634799999989,104.10253900000043,76.9228520000006,106.0258789999998,112.82031300000017,92.56396500000028,114.23095699999976,92.05126999999993,79.23095699999976
15,-73.07690400000001,91.15380900000036,55.64111300000059,-45.51293900000019,-64.8718259999996,71.15380900000036,97.94873000000007,69.61523400000078,97.94873000000007,109.61523400000078,79.35888699999941,112.05126999999993,80.25634799999989,76.6665039999998
16,-94.35888699999987,76.9228520000006,52.05126999999993,-59.35888699999987,-73.07690400000001,67.94873000000007,90.64111300000059,61.2822270000006,86.53857400000015,101.2822270000006,60.64111300000059,105.51269500000035,65.0,61.410155999999915
17,-107.94872999999961,62.43603499999972,53.0771479999994,-56.41015600000037,-74.35888699999987,67.17968800000017,87.94873000000007,57.82031300000017,80.38476599999922,93.58984400000008,48.974121000000196,98.84619099999964,57.30761700000039,45.12841800000024
18,-107.30761700000039,56.153809000000365,56.79492200000004,-37.30761700000039,-66.66674799999964,68.84619099999964,92.30761700000039,62.56396500000028,84.35888699999941,91.9228520000006,50.76904300000024,96.2822270000006,60.12841800000024,37.43603499999972
19,-98.20507799999996,60.0,58.20507799999996,-17.435790999999426,-53.58984399999963,71.0258789999998,100.64111300000059,73.0771479999994,94.74365200000011,96.79492200000004,61.2822270000006,98.3334960000002,65.89746099999957,37.94873000000007
20,-93.07690400000001,69.10253900000043,53.46142599999985,-13.076904000000013,-42.69238299999961,71.6665039999998,106.2822270000006,82.17968800000017,103.20507799999996,103.58984400000008,70.25634799999989,101.6665039999998,63.846190999999635,37.30761700000039
21,-99.61547900000005,76.2822270000006,45.51269500000035,-27.435790999999426,-40.64111300000013,70.12841800000024,104.10253900000043,82.82031300000017,102.30761700000039,106.41015599999992,70.64111300000059,102.94873000000007,51.79492200000004,28.205077999999958
22,-113.84619099999964,76.2822270000006,41.025878999999804,-47.82055700000001,-49.8718259999996,67.17968800000017,94.87158199999976,73.58984400000008,92.17968800000017,103.84619099999964,63.46142599999985,101.41015599999992,38.7177729999994,13.846190999999635
23,-121.28198199999997,68.7177729999994,43.974121000000196,-56.025634999999966,-67.17944299999999,64.61523400000078,85.12841800000024,60.0,79.61523400000078,98.58984400000008,54.48730499999965,98.9741210000002,37.94873000000007,6.794922000000042
24,-108.58984399999963,56.53857400000015,50.0,-45.89746100000002,-85.25634799999989,63.46142599999985,81.0258789999998,50.38476599999922,73.3334960000002,95.25634799999989,48.974121000000196,96.9228520000006,54.74365200000011,17.94873000000007
25,-76.28198199999997,46.9228520000006,52.17968800000017,-27.820557000000008,-96.66674799999964,64.10253900000043,83.84619099999964,49.35888699999941,76.79492200000004,95.64111300000059,49.102539000000434,95.89746099999957,80.38476599999922,45.25634799999989
26,-40.64111300000013,49.23095699999976,49.74365200000011,-16.538574000000153,-95.38452099999995,66.15380900000036,90.25634799999989,57.05126999999993,88.46142599999985,98.9741210000002,55.76904300000024,97.05126999999993,98.84619099999964,72.82031300000017
27,-23.333252000000357,69.61523400000078,50.0,-14.61547900000005,-78.58984399999963,69.35888699999941,96.9228520000006,71.41015599999992,103.84619099999964,104.35888699999941,68.9741210000002,102.30761700000039,100.25634799999989,81.53857400000015
28,-35.89746100000002,101.2822270000006,58.333496000000196,-13.461425999999847,-50.38452099999995,72.56396500000028,102.82031300000017,89.10253900000043,118.46142599999985,111.6665039999998,85.64111300000059,112.05126999999993,89.35888699999941,65.38476599999922
29,-70.38452099999995,124.23095699999976,69.87158199999976,-5.897461000000021,-22.564209000000574,74.23095699999976,107.69238299999961,105.51269500000035,129.10253900000043,119.87158199999976,100.38476599999922,123.3334960000002,79.48730499999965,36.9228520000006
30,-106.15380900000036,118.7177729999994,73.3334960000002,4.6152340000007825,-7.820557000000008,73.20507799999996,111.2822270000006,116.15380900000036,134.61523400000078,127.69238299999961,106.53857400000015,131.15380900000036,79.87158199999976,16.922852000000603
31,-128.97436500000003,81.53857400000015,64.48730499999965,7.56396500000028,-9.8718259999996,70.51269500000035,113.84619099999964,119.48730499999965,136.9228520000006,133.9741210000002,100.51269500000035,133.0771479999994,86.0258789999998,14.615234000000783
32,-144.35888699999987,29.102539000000434,51.666503999999804,-4.871825999999601,-23.076904000000013,68.3334960000002,114.74365200000011,116.2822270000006,137.05126999999993,137.43603499999972,82.56396500000028,130.2563479999999,83.7177729999994,18.717772999999397
33,-171.923096,-13.333252000000357,46.79492200000004,-30.38452099999995,-40.38452099999995,67.56396500000028,112.82031300000017,106.79492200000004,133.58984400000008,134.87158199999976,57.30761700000039,124.87158199999976,62.94873000000007,9.230956999999762
34,-223.71801800000003,-27.948729999999614,53.7177729999994,-58.07690400000001,-58.46142599999985,67.17968800000017,106.9228520000006,91.79492200000004,123.20507799999996,123.0771479999994,33.20507799999996,117.82031300000017,30.0,-19.61547900000005
35,-283.33325200000036,-13.58984399999963,64.87158199999976,-74.74365200000011,-74.8718259999996,66.2822270000006,98.46142599999985,74.61523400000078,106.6665039999998,104.48730499999965,18.333496000000196,110.12841800000024,5.256347999999889,-48.974365000000034
36,-307.9487299999996,16.922852000000603,68.3334960000002,-74.74365200000011,-84.61547900000005,66.0258789999998,92.43603499999972,62.94873000000007,90.76904300000024,87.17968800000017,17.17968800000017,104.10253900000043,6.666503999999804,-47.948729999999614
37,-261.15380900000036,48.589844000000085,57.69238299999961,-62.948729999999614,-82.05127000000039,68.3334960000002,92.94873000000007,63.7177729999994,84.48730499999965,79.35888699999941,28.461425999999847,101.9228520000006,33.20507799999996,0.0
38,-152.56420900000057,72.82031300000017,38.333496000000196,-51.025634999999966,-67.43579099999943,73.46142599999985,100.0,77.43603499999972,91.6665039999998,82.17968800000017,45.38476599999922,103.58984400000008,64.23095699999976,81.79492200000004
39,-44.48706099999981,88.0771479999994,21.410155999999915,-48.07690400000001,-50.25634799999989,79.23095699999976,108.46142599999985,95.76904300000024,106.41015599999992,87.82031300000017,57.43603499999972,105.25634799999989,74.10253900000043,161.2822270000006
40,-10.512939000000188,93.20507799999996,12.82031300000017,-52.948729999999614,-43.974365000000034,82.17968800000017,112.56396500000028,107.17968800000017,117.17968800000017,85.51269500000035,54.61523400000078,102.82031300000017,52.17968800000017,205.6411130000006
41,-72.30761700000039,84.10253900000043,8.077147999999397,-56.153809000000365,-55.0,81.2822270000006,110.25634799999989,106.2822270000006,115.89746099999957,71.41015599999992,34.87158199999976,94.61523400000078,10.384765999999217,207.43603499999972
42,-175.38452099999995,58.846190999999635,-1.153809000000365,-47.69238299999961,-76.41015600000037,78.84619099999964,105.12841800000024,98.84619099999964,104.74365200000011,52.56396500000028,9.615234000000783,83.9741210000002,-25.89746100000002,190.89746099999957
43,-230.76928699999962,26.538574000000153,-16.666747999999643,-24.487060999999812,-93.07690400000001,79.35888699999941,104.23095699999976,98.20507799999996,95.76904300000024,42.69238299999961,0.38476599999921746,77.17968800000017,-36.53857400000015,194.3588869999994
44,-187.820557,6.025878999999804,-28.974365000000034,10.128418000000238,-92.17944299999999,86.0258789999998,112.56396500000028,115.51269500000035,101.53857400000015,51.2822270000006,25.0,79.74365200000011,-18.333252000000357,242.82031300000017
45,-75.76928699999962,11.282227000000603,-26.666747999999643,48.7177729999994,-74.61547900000005,97.82031300000017,129.3588869999994,150.12841800000024,125.0,76.41015599999992,80.64111300000059,91.9228520000006,11.922852000000603,327.5639650000003
46,20.51269500000035,35.38476599999922,-9.358886999999868,82.69238299999961,-55.64111300000013,108.3334960000002,146.0258789999998,188.0771479999994,153.7177729999994,101.6665039999998,139.7436520000001,107.17968800000017,28.461425999999847,410.2563479999999
47,31.025878999999804,51.79492200000004,8.846190999999635,103.58984400000008,-56.28198199999997,110.38476599999922,149.61523400000078,209.48730499999965,166.6665039999998,105.25634799999989,166.2822270000006,114.87158199999976,13.077147999999397,452.05126999999993
48,-43.71801800000003,36.2822270000006,11.282227000000603,106.79492200000004,-86.53857400000015,102.43603499999972,132.56396500000028,203.0771479999994,150.51269500000035,76.2822270000006,147.43603499999972,107.17968800000017,-29.74365200000011,446.2822270000006
49,-135.1281740000004,-7.307617000000391,-4.358886999999868,98.20507799999996,-132.56420900000057,91.6665039999998,102.94873000000007,178.84619099999964,115.12841800000024,27.82031300000017,110.51269500000035,87.82031300000017,-71.53857400000015,426.15380900000036
50,-166.53857400000015,-46.153809000000365,-22.69238299999961,97.17968800000017,-162.6923829999996,89.74365200000011,81.79492200000004,167.17968800000017,90.0,-7.692382999999609,106.2822270000006,71.53857400000015,-79.35888699999987,436.6665039999998
51,-113.84619099999964,-47.948729999999614,-26.153809000000365,123.84619099999964,-150.1281740000004,103.46142599999985,88.20507799999996,198.84619099999964,102.69238299999961,-2.3076170000003913,166.53857400000015,73.46142599999985,-41.41015600000037,496.79492200000004
52,-19.74365200000011,-13.333252000000357,-12.564209000000574,180.51269500000035,-97.69238299999961,127.69238299999961,121.41015599999992,278.5898440000001,153.20507799999996,42.30761700000039,274.10253900000043,95.38476599999922,20.25634799999989,583.5898440000001
53,45.25634799999989,20.897460999999566,1.5385740000001533,243.58984400000008,-40.51293900000019,149.48730499999965,158.9741210000002,378.20507799999996,211.15380900000036,93.7177729999994,373.3334960000002,122.56396500000028,62.82031300000017,652.4360349999997
54,36.666503999999804,14.487304999999651,-3.077147999999397,278.84619099999964,-19.74365200000011,157.6923829999996,173.58984400000008,455.89746099999957,238.3334960000002,112.69238299999961,413.84619099999964,134.87158199999976,53.333496000000196,672.1796880000002
55,-36.153809000000365,-39.35888699999987,-29.487060999999812,268.84619099999964,-50.38452099999995,151.6665039999998,155.6411130000006,487.3076170000004,217.94873000000007,83.3334960000002,388.46142599999985,123.20507799999996,-6.794922000000042,646.6665039999998
56,-123.58984399999963,-106.15380900000036,-61.153809000000365,229.10253900000043,-108.84619099999964,140.6411130000006,120.0,481.79492200000004,168.0771479999994,25.25634799999989,335.6411130000006,96.79492200000004,-79.35888699999987,612.0512699999999
57,-172.43579099999943,-137.0512700000004,-76.02563499999997,198.3334960000002,-151.79492200000004,136.41015599999992,94.74365200000011,472.6923829999996,127.56396500000028,-22.30761700000039,307.05126999999993,75.64111300000059,-114.35888699999987,610.3847659999992
58,-161.28198199999997,-108.58984399999963,-64.10253899999998,208.46142599999985,-149.23071300000038,144.7436520000001,98.84619099999964,490.2563479999999,127.30761700000039,-29.230713000000378,328.5898440000001,75.0,-83.97436500000003,658.3334960000002
59,-110.1281740000004,-43.71801800000003,-35.51293900000019,258.20507799999996,-108.33325200000036,161.6665039999998,128.84619099999964,537.3076170000004,166.2822270000006,2.3076170000003913,383.46142599999985,94.61523400000078,-3.4614259999998467,732.4360349999997
60,-61.153809000000365,7.692382999999609,-10.897461000000021,315.0,-66.41015600000037,177.43603499999972,161.6665039999998,588.7177729999994,214.3588869999994,42.17968800000017,432.3076170000004,120.12841800000024,78.58984400000008,786.6665039999998
61,-44.61547900000005,11.153809000000365,-3.4614259999998467,343.9741210000002,-58.846190999999635,185.12841800000024,174.61523400000078,615.0,238.46142599999985,59.23095699999976,450.51269500000035,134.87158199999976,117.69238299999961,793.205078
62,-60.76928699999962,-22.820557000000008,-9.743652000000111,337.3076170000004,-88.07690400000001,186.2822270000006,163.9741210000002,610.3847659999992,231.15380900000036,48.46142599999985,448.46142599999985,133.3334960000002,106.41015599999992,765.2563479999999
63,-88.20507799999996,-51.92309599999999,-16.666747999999643,316.6665039999998,-123.20507799999996,189.10253900000043,146.2822270000006,596.9228520000006,213.3334960000002,31.410155999999915,455.2563479999999,123.7177729999994,75.51269500000035,742.5639650000003
64,-104.74365200000011,-44.23071300000038,-15.897461000000021,309.87158199999976,-131.66674799999964,198.84619099999964,142.3076170000004,602.1796880000002,212.3076170000004,32.94873000000007,485.12841800000024,119.10253900000043,63.974121000000196,752.5639650000003
65,-103.71801800000003,-7.564209000000574,-11.025634999999966,325.0,-107.82055700000001,212.6923829999996,158.46142599999985,633.8461909999996,235.89746099999957,56.79492200000004,522.9487300000001,125.51269500000035,87.30761700000039,784.8715819999998
66,-96.41015600000037,20.384765999999217,-11.153809000000365,343.9741210000002,-76.28198199999997,222.05126999999993,182.05126999999993,672.9487300000001,266.53857400000015,83.7177729999994,540.1284180000002,137.3076170000004,129.10253900000043,804.8715819999998
67,-99.23071300000038,9.743652000000111,-19.8718259999996,342.3076170000004,-67.69238299999961,220.38476599999922,194.61523400000078,692.4360349999997,279.23095699999976,91.0258789999998,523.5898440000001,143.0771479999994,160.0,788.5898440000001
68,-119.61547900000005,-35.64111300000013,-31.794922000000042,313.84619099999964,-92.43579099999943,210.12841800000024,188.46142599999985,680.3847659999992,265.0,73.0771479999994,488.3334960000002,137.43603499999972,161.41015599999992,745.8974609999996
69,-150.5129390000002,-84.74365200000011,-37.82055700000001,277.94873000000007,-134.10253899999998,199.87158199999976,171.6665039999998,649.3588869999994,237.43603499999972,45.0,462.5639650000003,125.38476599999922,134.48730499999965,708.7177729999994
70,-177.6923829999996,-107.05127000000039,-32.948729999999614,262.05126999999993,-166.53857400000015,196.9228520000006,158.46142599999985,623.205078,217.94873000000007,25.51269500000035,462.05126999999993,116.41015599999992,94.23095699999976,700.0
71,-189.23071300000038,-93.07690400000001,-21.923095999999987,279.3588869999994,-176.15380900000036,202.05126999999993,156.15380900000036,616.1538090000004,216.53857400000015,20.25634799999989,480.2563479999999,114.74365200000011,59.23095699999976,716.1538090000004
72,-180.76928699999962,-56.025634999999966,-14.358886999999868,318.0771479999994,-168.46142599999985,209.87158199999976,161.79492200000004,624.3588869999994,227.43603499999972,20.769043000000238,498.9741210000002,117.43603499999972,44.74365200000011,738.205078
73,-156.66674799999964,-20.38452099999995,-17.30761700000039,351.2822270000006,-158.58984399999963,215.38476599999922,167.56396500000028,634.1025390000004,238.9741210000002,18.589844000000085,505.51269500000035,118.3334960000002,57.69238299999961,751.2822270000006
74,-126.79492200000004,-6.153809000000365,-30.1281740000004,358.84619099999964,-157.0512700000004,217.82031300000017,168.20507799999996,636.1538090000004,245.0,14.102539000000434,499.23095699999976,115.25634799999989,92.69238299999961,755.0
75,-103.07690400000001,-20.641113000000132,-44.35888699999987,342.05126999999993,-162.3076170000004,220.12841800000024,164.7436520000001,631.9228520000006,249.10253900000043,15.384765999999217,486.79492200000004,111.15380900000036,134.10253900000043,756.5385740000002
76,-93.46142599999985,-55.89746100000002,-51.41015600000037,319.48730499999965,-166.02563499999997,225.38476599999922,161.79492200000004,628.5898440000001,258.20507799999996,26.538574000000153,474.3588869999994,109.74365200000011,162.94873000000007,758.205078
77,-99.74365200000011,-92.30761700000039,-49.23071300000038,307.5639650000003,-163.84619099999964,233.20507799999996,160.76904300000024,628.5898440000001,273.0771479999994,41.025878999999804,463.20507799999996,112.05126999999993,166.2822270000006,753.9741210000002
78,-120.1281740000004,-108.58984399999963,-44.8718259999996,308.3334960000002,-162.820557,239.10253900000043,158.3334960000002,625.0,285.0,45.38476599999922,452.94873000000007,115.0,143.7177729999994,735.1284180000002
79,-150.64111300000013,-93.71801800000003,-47.69238299999961,311.9228520000006,-175.1281740000004,237.94873000000007,149.23095699999976,608.9741210000002,283.46142599999985,30.641113000000587,443.9741210000002,114.61523400000078,107.43603499999972,702.4360349999997
80,-182.43579099999943,-55.76928699999962,-59.74365200000011,311.0258789999998,-205.64111300000013,230.0,133.46142599999985,580.5126950000003,267.6923829999996,1.153809000000365,438.7177729999994,109.10253900000043,75.38476599999922,670.6411130000006
81,-201.28198199999997,-19.230713000000378,-74.23071300000038,307.94873000000007,-242.43579099999943,221.0258789999998,117.94873000000007,552.0512699999999,251.53857400000015,-26.923095999999987,439.6152340000008,101.0258789999998,60.12841800000024,657.8203130000002
82,-196.66674799999964,-8.58984399999963,-81.15380900000036,309.10253900000043,-263.84619099999964,218.58984400000008,112.43603499999972,539.2309569999998,253.0771479999994,-36.92309599999999,445.12841800000024,95.25634799999989,62.30761700000039,669.7436520000001
83,-175.1281740000004,-31.538574000000153,-77.05127000000039,315.3847659999992,-257.3076170000004,224.87158199999976,119.87158199999976,547.8203130000002,279.3588869999994,-25.38452099999995,448.20507799999996,96.0258789999998,72.56396500000028,691.5385740000002
84,-156.66674799999964,-74.35888699999987,-65.51293900000019,321.4101559999999,-231.923096,234.23095699999976,133.20507799999996,567.1796880000002,319.87158199999976,-4.102538999999979,441.9228520000006,102.56396500000028,81.53857400000015,702.6923829999996
85,-156.79492200000004,-110.1281740000004,-52.948729999999614,324.87158199999976,-211.02563499999997,238.58984400000008,141.0258789999998,580.1284180000002,355.3847659999992,10.641113000000587,426.9228520000006,110.38476599999922,87.69238299999961,696.4101559999999
86,-171.79492200000004,-116.15380900000036,-43.33325200000036,330.89746099999957,-211.66674799999964,234.87158199999976,137.56396500000028,577.0512699999999,373.5898440000001,11.666503999999804,412.94873000000007,115.38476599999922,94.48730499999965,684.6152340000008
87,-184.10253899999998,-88.71801800000003,-36.66674799999964,346.0258789999998,-232.56420900000057,227.05126999999993,126.6665039999998,563.0771479999994,377.94873000000007,5.256347999999889,410.89746099999957,116.53857400000015,103.9741210000002,682.6923829999996
88,-180.1281740000004,-44.48706099999981,-31.025634999999966,368.3334960000002,-257.9487299999996,222.3076170000004,118.20507799999996,551.794922,382.05126999999993,3.9741210000001956,423.3334960000002,116.0258789999998,112.43603499999972,692.6923829999996
89,-160.1281740000004,-6.794922000000042,-24.61547900000005,387.5639650000003,-271.79492200000004,225.38476599999922,119.35888699999941,552.9487300000001,397.6923829999996,14.871581999999762,443.84619099999964,116.15380900000036,115.51269500000035,701.2822270000006
90,-133.84619099999964,11.153809000000365,-19.358886999999868,393.20507799999996,-268.33325200000036,233.9741210000002,129.7436520000001,566.2822270000006,426.4101559999999,34.87158199999976,461.9228520000006,117.94873000000007,115.25634799999989,696.2822270000006
91,-111.15380900000036,9.615234000000783,-18.974365000000034,383.3334960000002,-254.61547900000005,241.6665039999998,141.79492200000004,582.1796880000002,459.48730499999965,52.94873000000007,468.9741210000002,120.25634799999989,118.0771479999994,680.7690430000002
92,-98.20507799999996,-5.0,-26.794922000000042,364.7436520000001,-244.10253899999998,242.56396500000028,147.3076170000004,589.3588869999994,483.9741210000002,58.7177729999994,460.76904300000024,121.6665039999998,126.6665039999998,669.7436520000001
93,-99.61547900000005,-25.25634799999989,-40.89746100000002,348.84619099999964,-246.02563499999997,235.89746099999957,143.3334960000002,582.9487300000001,492.4360349999997,49.35888699999941,439.48730499999965,121.15380900000036,134.10253900000043,672.9487300000001
94,-116.66674799999964,-42.17944299999999,-53.58984399999963,346.2822270000006,-258.076904,226.79492200000004,133.7177729999994,567.9487300000001,488.0771479999994,32.56396500000028,414.3588869999994,119.10253900000043,131.41015599999992,685.6411130000006
95,-143.33325200000036,-43.974365000000034,-56.92309599999999,360.76904300000024,-269.35888699999987,221.53857400000015,125.64111300000059,555.8974609999996,483.84619099999964,22.17968800000017,399.3588869999994,117.05126999999993,118.84619099999964,696.1538090000004
96,-166.79492200000004,-25.1281740000004,-49.23071300000038,386.4101559999999,-270.7692869999996,223.0771479999994,124.23095699999976,555.6411130000006,492.05126999999993,28.077147999999397,402.94873000000007,116.41015599999992,108.0771479999994,697.6923829999996
97,-176.66674799999964,4.743652000000111,-36.53857400000015,410.0,-263.71801800000003,229.48730499999965,129.23095699999976,566.4101559999999,514.8715819999998,48.333496000000196,420.3847659999992,116.9228520000006,110.64111300000059,692.3076170000004
98,-172.56420900000057,25.51269500000035,-26.41015600000037,422.05126999999993,-256.53857400000015,236.41015599999992,136.15380900000036,579.3588869999994,542.5639650000003,71.2822270000006,436.2822270000006,117.17968800000017,127.43603499999972,684.4873049999997
99,-162.820557,23.461425999999847,-21.794922000000042,421.79492200000004,-255.0,240.51269500000035,141.41015599999992,586.2822270000006,562.6923829999996,84.48730499999965,438.46142599999985,115.89746099999957,146.79492200000004,676.794922
100,-155.64111300000013,4.871581999999762,-21.025634999999966,415.51269500000035,-257.0512700000004,241.79492200000004,143.9741210000002,585.3847659999992,570.1284180000002,85.0,426.53857400000015,113.9741210000002,154.7436520000001,669.1025390000004
101,-152.820557,-10.38452099999995,-21.794922000000042,408.84619099999964,-257.4357909999994,241.6665039999998,144.7436520000001,580.6411130000006,568.8461909999996,79.87158199999976,411.0258789999998,114.35888699999941,145.12841800000024,661.0258789999998
102,-152.820557,-8.58984399999963,-24.8718259999996,404.10253900000043,-253.84619099999964,241.0258789999998,144.23095699999976,577.0512699999999,566.5385740000002,78.20507799999996,402.05126999999993,118.84619099999964,124.48730499999965,653.3334960000002
103,-155.89746100000002,3.2050779999999577,-32.17944299999999,401.2822270000006,-250.64111300000013,239.61523400000078,141.6665039999998,574.8715819999998,567.5639650000003,81.9228520000006,400.6411130000006,126.2822270000006,106.41015599999992,648.5898440000001
104,-161.923096,5.769043000000238,-43.20507799999996,401.4101559999999,-253.20507799999996,236.15380900000036,136.0258789999998,571.1538090000004,570.0,83.84619099999964,399.3588869999994,132.05126999999993,101.2822270000006,648.3334960000002
105,-166.923096,-10.256347999999889,-53.974365000000034,405.89746099999957,-261.923096,230.76904300000024,128.46142599999985,563.205078,570.0,76.2822270000006,391.2822270000006,131.41015599999992,108.7177729999994,651.9228520000006
106,-168.076904,-34.61547900000005,-61.28198199999997,413.9741210000002,-272.6923829999996,224.87158199999976,122.17968800000017,551.5385740000002,566.0258789999998,59.87158199999976,376.4101559999999,123.7177729999994,119.10253900000043,652.3076170000004
107,-171.41015600000037,-47.69238299999961,-64.8718259999996,418.7177729999994,-282.820557,219.7436520000001,118.9741210000002,538.4614259999998,558.9741210000002,43.0771479999994,359.6152340000008,112.82031300000017,121.2822270000006,639.7436520000001
108,-185.89746100000002,-38.71801800000003,-67.69238299999961,411.9228520000006,-293.46142599999985,215.51269500000035,117.17968800000017,525.3847659999992,550.1284180000002,33.974121000000196,346.0258789999998,103.9741210000002,110.38476599999922,611.0258789999998
109,-208.71801800000003,-12.564209000000574,-71.53857400000015,393.7177729999994,-305.1281740000004,211.53857400000015,113.7177729999994,513.4614259999998,540.7690430000002,34.74365200000011,338.5898440000001,100.51269500000035,91.53857400000015,576.9228520000006
110,-223.076904,15.769043000000238,-74.61547900000005,375.89746099999957,-311.53857400000015,208.20507799999996,109.23095699999976,506.2822270000006,533.9741210000002,41.9228520000006,338.5898440000001,101.79492200000004,75.64111300000059,556.1538090000004
111,-215.5129390000002,30.641113000000587,-71.79492200000004,373.7177729999994,-303.84619099999964,207.17968800000017,108.58984400000008,508.84619099999964,535.1284180000002,51.410155999999915,344.87158199999976,105.76904300000024,70.64111300000059,559.1025390000004
112,-191.923096,25.0,-59.35888699999987,392.4360349999997,-279.8718259999996,209.3588869999994,116.6665039999998,523.5898440000001,547.9487300000001,61.53857400000015,352.5639650000003,111.41015599999992,75.76904300000024,577.8203130000002
113,-172.6923829999996,3.4614259999998467,-40.38452099999995,421.15380900000036,-250.38452099999995,213.46142599999985,132.3076170000004,545.1284180000002,570.1284180000002,72.43603499999972,355.0,118.7177729999994,84.10253900000043,593.3334960000002
114,-173.84619099999964,-22.051270000000386,-24.487060999999812,439.48730499999965,-233.46142599999985,216.2822270000006,146.6665039999998,560.6411130000006,591.2822270000006,83.3334960000002,346.79492200000004,125.76904300000024,87.69238299999961,590.6411130000006
115,-193.20507799999996,-40.89746100000002,-22.564209000000574,431.6665039999998,-242.9487299999996,214.7436520000001,148.3334960000002,557.1796880000002,597.4360349999997,88.84619099999964,326.53857400000015,127.69238299999961,83.46142599999985,570.6411130000006
116,-213.33325200000036,-47.30761700000039,-37.17944299999999,399.23095699999976,-277.5642090000006,209.10253900000043,133.46142599999985,531.6665039999998,581.1538090000004,83.3334960000002,301.53857400000015,120.64111300000059,75.0,549.1025390000004
117,-215.38452099999995,-38.46142599999985,-59.48706099999981,362.94873000000007,-317.9487299999996,203.3334960000002,109.87158199999976,496.0258789999998,550.1284180000002,68.46142599999985,286.79492200000004,107.05126999999993,71.9228520000006,544.4873049999997
118,-192.0512700000004,-14.8718259999996,-73.58984399999963,349.87158199999976,-337.4357909999994,202.17968800000017,93.0771479999994,472.82031300000017,525.7690430000002,56.025878999999804,296.6665039999998,95.89746099999957,84.87158199999976,565.7690430000002
119,-153.46142599999985,16.538574000000153,-68.84619099999964,371.4101559999999,-321.02563499999997,206.9228520000006,95.51269500000035,479.23095699999976,528.4614259999998,61.153809000000365,331.53857400000015,97.17968800000017,117.30761700000039,604.3588869999994
120,-120.64111300000013,40.25634799999989,-47.564209000000574,412.82031300000017,-277.5642090000006,213.46142599999985,116.2822270000006,512.4360349999997,560.0,87.56396500000028,372.94873000000007,112.43603499999972,159.23095699999976,637.4360349999997
121,-111.15380900000036,40.64111300000059,-24.358886999999868,442.94873000000007,-236.66674799999964,216.2822270000006,140.6411130000006,549.4873049999997,599.6152340000008,120.64111300000059,394.23095699999976,133.0771479999994,191.53857400000015,643.3334960000002
122,-125.64111300000013,14.487304999999651,-14.230713000000378,438.9741210000002,-227.3076170000004,212.17968800000017,150.6411130000006,563.8461909999996,618.4614259999998,137.3076170000004,380.76904300000024,145.12841800000024,201.79492200000004,619.6152340000008
123,-146.41015600000037,-22.564209000000574,-22.30761700000039,402.17968800000017,-254.4870609999998,202.82031300000017,140.0,545.8974609999996,603.5898440000001,125.64111300000059,342.5639650000003,141.0258789999998,194.3588869999994,586.794922
124,-152.9487299999996,-46.28198199999997,-41.025634999999966,356.4101559999999,-295.5129390000002,193.84619099999964,118.7177729999994,510.89746099999957,568.4614259999998,95.51269500000035,308.3334960000002,125.25634799999989,186.6665039999998,571.794922
125,-138.84619099999964,-44.61547900000005,-57.17944299999999,329.10253900000043,-316.923096,190.76904300000024,105.12841800000024,486.4101559999999,541.794922,71.15380900000036,301.9228520000006,111.79492200000004,193.3334960000002,584.2309569999998
126,-117.43579099999943,-27.564209000000574,-61.66674799999964,332.05126999999993,-300.897461,194.48730499999965,110.38476599999922,490.12841800000024,544.2309569999998,71.53857400000015,324.23095699999976,112.05126999999993,212.56396500000028,608.205078
127,-108.20507799999996,-17.051270000000386,-54.35888699999987,354.87158199999976,-259.4870609999998,200.2563479999999,129.7436520000001,516.6665039999998,571.6665039999998,95.89746099999957,352.5639650000003,125.38476599999922,229.87158199999976,618.9741210000002
128,-118.71801800000003,-25.25634799999989,-42.564209000000574,375.51269500000035,-223.46142599999985,202.3076170000004,147.56396500000028,542.8203130000002,599.8715819999998,126.15380900000036,361.0258789999998,140.12841800000024,232.56396500000028,605.6411130000006
129,-138.58984399999963,-45.1281740000004,-35.0,378.84619099999964,-218.20507799999996,197.82031300000017,150.51269500000035,547.1796880000002,605.8974609999996,141.0258789999998,342.17968800000017,143.46142599999985,221.0258789999998,580.0
130,-149.8718259999996,-59.74365200000011,-35.51293900000019,365.76904300000024,-244.23071300000038,189.10253900000043,137.6923829999996,525.5126950000003,585.6411130000006,132.43603499999972,311.4101559999999,133.20507799999996,207.6923829999996,562.3076170000004
131,-142.9487299999996,-58.33325200000036,-40.38452099999995,348.7177729999994,-278.97436500000003,181.15380900000036,120.12841800000024,492.82031300000017,555.2563479999999,109.61523400000078,293.0771479999994,119.10253900000043,206.9228520000006,564.3588869999994
132,-121.53857400000015,-43.07690400000001,-42.82055700000001,339.48730499999965,-295.64111300000013,177.94873000000007,111.15380900000036,471.0258789999998,536.6665039999998,91.15380900000036,300.51269500000035,113.3334960000002,223.58984400000008,582.6923829999996
133,-96.41015600000037,-24.230713000000378,-39.61547900000005,340.6411130000006,-283.46142599999985,179.3588869999994,116.15380900000036,471.2822270000006,539.4873049999997,90.0,327.17968800000017,119.87158199999976,249.87158199999976,603.8461909999996
134,-78.33325200000036,-12.564209000000574,-33.974365000000034,346.2822270000006,-253.076904,181.9228520000006,129.7436520000001,487.05126999999993,554.8715819999998,104.35888699999941,352.4360349999997,131.53857400000015,269.7436520000001,615.0
135,-73.20507799999996,-12.564209000000574,-32.30761700000039,349.3588869999994,-224.7436520000001,182.94873000000007,142.05126999999993,502.17968800000017,566.0258789999998,121.79492200000004,358.5898440000001,138.20507799999996,270.3847659999992,611.0258789999998
136,-80.1281740000004,-20.769286999999622,-36.66674799999964,347.6923829999996,-211.53857400000015,182.05126999999993,146.79492200000004,505.12841800000024,563.4614259999998,130.51269500000035,343.7177729999994,136.15380900000036,252.17968800000017,597.3076170000004
137,-92.94872999999961,-29.358886999999868,-42.82055700000001,343.9741210000002,-211.53857400000015,181.0258789999998,145.38476599999922,496.6665039999998,551.2822270000006,128.0771479999994,321.53857400000015,130.0,229.3588869999994,584.2309569999998
138,-104.48706099999981,-32.564209000000574,-45.0,341.4101559999999,-214.8718259999996,181.0258789999998,142.6923829999996,486.53857400000015,540.7690430000002,120.38476599999922,308.20507799999996,126.6665039999998,217.43603499999972,577.9487300000001
139,-109.74365200000011,-31.28198199999997,-41.153809000000365,340.2563479999999,-214.35888699999987,181.41015599999992,142.43603499999972,483.46142599999985,540.2563479999999,115.51269500000035,309.7436520000001,128.84619099999964,220.76904300000024,576.0258789999998
140,-108.20507799999996,-29.74365200000011,-35.0,338.5898440000001,-210.0,181.6665039999998,144.23095699999976,488.5898440000001,548.0771479999994,118.20507799999996,319.6152340000008,133.46142599999985,230.76904300000024,571.5385740000002
141,-102.82055700000001,-31.538574000000153,-32.051270000000386,333.46142599999985,-207.0512700000004,181.9228520000006,145.51269500000035,495.2563479999999,556.6665039999998,127.17968800000017,326.0258789999998,136.2822270000006,234.10253900000043,561.1538090000004
142,-97.69238299999961,-36.41015600000037,-35.25634799999989,323.0771479999994,-209.4870609999998,181.79492200000004,145.2563479999999,495.51269500000035,557.8203130000002,137.6923829999996,321.15380900000036,135.12841800000024,224.61523400000078,547.8203130000002
143,-96.53857400000015,-41.153809000000365,-43.20507799999996,309.7436520000001,-216.66674799999964,180.6411130000006,144.61523400000078,487.4360349999997,549.6152340000008,143.9741210000002,306.4101559999999,131.15380900000036,207.17968800000017,538.205078
144,-99.48706099999981,-41.025634999999966,-51.025634999999966,299.10253900000043,-221.66674799999964,178.46142599999985,146.41015599999992,476.79492200000004,537.4360349999997,144.3588869999994,291.6665039999998,128.0771479999994,192.82031300000017,536.794922
145,-102.30761700000039,-33.20507799999996,-54.48706099999981,296.6665039999998,-216.79492200000004,175.89746099999957,152.05126999999993,472.6923829999996,530.0,143.20507799999996,287.4360349999997,128.58984400000008,190.51269500000035,543.205078
146,-99.35888699999987,-19.230713000000378,-52.69238299999961,302.94873000000007,-199.4870609999998,172.94873000000007,159.7436520000001,479.7436520000001,532.8203130000002,146.9228520000006,296.53857400000015,132.6923829999996,202.17968800000017,552.4360349999997
147,-88.46142599999985,-6.153809000000365,-49.23071300000038,311.4101559999999,-174.7436520000001,168.58984400000008,165.76904300000024,493.3334960000002,542.9487300000001,158.46142599999985,311.79492200000004,137.05126999999993,220.89746099999957,558.0771479999994
148,-73.58984399999963,-1.6665039999998044,-49.48706099999981,313.46142599999985,-152.179443,162.05126999999993,167.82031300000017,503.84619099999964,551.794922,172.43603499999972,321.79492200000004,138.3334960000002,235.38476599999922,556.4101559999999
149,-60.76928699999962,-8.076904000000013,-56.28198199999997,306.79492200000004,-139.23071300000038,154.7436520000001,167.17968800000017,503.9741210000002,552.3076170000004,179.61523400000078,319.3588869999994,136.15380900000036,237.94873000000007,548.3334960000002
150,-54.10253899999998,-20.25634799999989,-67.69238299999961,297.17968800000017,-134.8718259999996,149.48730499999965,167.6923829999996,494.10253900000043,544.1025390000004,175.0,307.17968800000017,132.94873000000007,229.10253900000043,538.5898440000001
151,-52.82055700000001,-28.974365000000034,-78.71801800000003,292.6923829999996,-130.5129390000002,147.94873000000007,172.43603499999972,481.6665039999998,532.3076170000004,161.79492200000004,294.10253900000043,131.15380900000036,215.89746099999957,532.5639650000003
152,-53.846190999999635,-28.461425999999847,-85.25634799999989,296.2822270000006,-116.41015600000037,148.58984400000008,180.89746099999957,473.9741210000002,521.9228520000006,148.9741210000002,287.5639650000003,131.53857400000015,204.87158199999976,531.794922
153,-54.61547900000005,-21.28198199999997,-88.07690400000001,301.79492200000004,-90.89746100000002,147.05126999999993,188.58984400000008,471.9228520000006,513.3334960000002,143.3334960000002,286.2822270000006,132.6923829999996,196.53857400000015,531.4101559999999
154,-53.46142599999985,-15.769286999999622,-90.89746100000002,299.23095699999976,-63.07690400000001,139.7436520000001,191.0258789999998,470.0,503.7177729999994,144.3588869999994,283.20507799999996,132.82031300000017,187.82031300000017,525.2563479999999
155,-47.948729999999614,-16.923095999999987,-97.17944299999999,283.9741210000002,-44.74365200000011,127.17968800000017,188.3334960000002,463.9741210000002,492.82031300000017,148.84619099999964,273.5898440000001,131.2822270000006,178.7177729999994,511.9228520000006
156,-34.10253899999998,-20.38452099999995,-105.76928699999962,262.82031300000017,-37.564209000000574,113.9741210000002,185.76904300000024,455.3847659999992,485.0,155.51269500000035,260.2563479999999,130.0,175.76904300000024,497.82031300000017
157,-9.8718259999996,-16.794922000000042,-112.69238299999961,248.58984400000008,-31.025634999999966,106.53857400000015,189.48730499999965,448.9741210000002,484.87158199999976,165.0,251.2822270000006,131.0258789999998,185.38476599999922,490.76904300000024
158,21.153809000000365,-2.3076170000003913,-115.25634799999989,247.17968800000017,-12.948729999999614,106.9228520000006,200.6411130000006,446.15380900000036,490.76904300000024,176.2822270000006,251.15380900000036,134.10253900000043,205.0,491.79492200000004
159,51.025878999999804,15.769043000000238,-113.97436500000003,251.41015599999992,17.56396500000028,112.05126999999993,213.3334960000002,442.4360349999997,493.9741210000002,183.84619099999964,256.2822270000006,136.53857400000015,221.79492200000004,493.3334960000002
160,73.46142599999985,26.282227000000603,-111.41015600000037,246.15380900000036,48.846190999999635,115.51269500000035,220.38476599999922,431.79492200000004,486.15380900000036,182.3076170000004,259.6152340000008,136.2822270000006,223.46142599999985,486.15380900000036
161,90.0,25.0,-110.1281740000004,222.6923829999996,67.94873000000007,112.17968800000017,218.7177729999994,414.23095699999976,468.46142599999985,171.79492200000004,258.20507799999996,133.58984400000008,210.76904300000024,467.6923829999996
162,109.48730499999965,19.48730499999965,-112.30761700000039,187.17968800000017,73.3334960000002,102.82031300000017,211.9228520000006,397.82031300000017,451.79492200000004,160.38476599999922,256.0258789999998,131.2822270000006,197.43603499999972,444.7436520000001
163,142.17968800000017,21.282227000000603,-118.71801800000003,156.41015599999992,76.0258789999998,93.58984400000008,207.6923829999996,391.15380900000036,447.5639650000003,158.7177729999994,260.0,132.17968800000017,199.3588869999994,428.20507799999996
164,189.48730499999965,36.53857400000015,-129.23071300000038,144.7436520000001,90.38476599999922,91.53857400000015,211.6665039999998,394.10253900000043,458.20507799999996,172.05126999999993,272.4360349999997,136.6665039999998,220.76904300000024,424.10253900000043
165,242.05126999999993,60.38476599999922,-141.79492200000004,152.82031300000017,122.82031300000017,99.74365200000011,223.58984400000008,397.6923829999996,473.84619099999964,196.15380900000036,288.20507799999996,142.3076170000004,252.17968800000017,428.9741210000002
166,285.2563479999999,82.30761700000039,-152.9487299999996,168.3334960000002,166.9228520000006,114.35888699999941,237.56396500000028,392.4360349999997,481.15380900000036,219.48730499999965,298.46142599999985,146.41015599999992,279.48730499999965,433.3334960000002
167,310.3847659999992,94.48730499999965,-159.4870609999998,176.0258789999998,208.9741210000002,128.3334960000002,246.79492200000004,377.82031300000017,473.9741210000002,231.9228520000006,297.6923829999996,147.3076170000004,294.87158199999976,428.84619099999964
168,321.0258789999998,97.56396500000028,-160.38452099999995,169.48730499999965,238.20507799999996,136.41015599999992,247.56396500000028,360.3847659999992,457.4360349999997,231.2822270000006,287.5639650000003,146.41015599999992,300.12841800000024,413.46142599999985
169,328.9741210000002,98.0771479999994,-158.58984399999963,154.61523400000078,254.48730499999965,137.82031300000017,241.0258789999998,345.51269500000035,441.79492200000004,223.84619099999964,273.46142599999985,145.2563479999999,302.3076170000004,392.05126999999993
170,344.6152340000008,101.15380900000036,-158.46142599999985,144.87158199999976,265.2563479999999,135.0,231.15380900000036,329.3588869999994,432.17968800000017,218.20507799999996,259.48730499999965,144.48730499999965,307.05126999999993,371.6665039999998
171,371.53857400000015,107.82031300000017,-162.43579099999943,152.17968800000017,279.3588869999994,132.3076170000004,222.43603499999972,302.82031300000017,425.76904300000024,220.0,246.79492200000004,143.84619099999964,315.76904300000024,357.4360349999997
172,406.6665039999998,116.53857400000015,-167.0512700000004,180.76904300000024,302.17968800000017,133.84619099999964,219.23095699999976,262.17968800000017,417.3076170000004,229.48730499999965,236.15380900000036,143.7177729999994,327.94873000000007,350.51269500000035
173,444.7436520000001,128.0771479999994,-164.8718259999996,226.0258789999998,333.5898440000001,141.79492200000004,223.7177729999994,214.87158199999976,406.9228520000006,243.9741210000002,230.0,145.38476599999922,343.0771479999994,348.0771479999994
174,479.87158199999976,143.9741210000002,-152.43579099999943,274.87158199999976,367.17968800000017,153.84619099999964,233.46142599999985,174.48730499999965,398.84619099999964,258.7177729999994,230.51269500000035,148.84619099999964,359.6152340000008,345.76904300000024
175,507.05126999999993,162.6923829999996,-135.38452099999995,310.89746099999957,391.79492200000004,163.58984400000008,241.79492200000004,149.61523400000078,395.76904300000024,267.94873000000007,234.87158199999976,151.79492200000004,373.7177729999994,338.9741210000002
176,524.1025390000004,178.7177729999994,-125.0,322.94873000000007,397.4360349999997,164.7436520000001,241.9228520000006,137.3076170000004,393.5898440000001,267.94873000000007,234.61523400000078,151.53857400000015,380.2563479999999,325.2563479999999
177,533.5898440000001,186.15380900000036,-128.97436500000003,311.0258789999998,382.6923829999996,156.2822270000006,232.43603499999972,127.30761700000039,385.2563479999999,259.23095699999976,222.17968800000017,147.05126999999993,377.6923829999996,306.2822270000006
178,541.4101559999999,184.23095699999976,-142.56420900000057,285.6411130000006,357.05126999999993,142.94873000000007,219.10253900000043,112.17968800000017,368.5898440000001,248.46142599999985,198.46142599999985,140.38476599999922,369.7436520000001,286.53857400000015
179,552.3076170000004,179.3588869999994,-150.5129390000002,261.4101559999999,336.4101559999999,132.43603499999972,211.15380900000036,93.46142599999985,348.9741210000002,244.87158199999976,173.46142599999985,135.51269500000035,364.23095699999976,270.76904300000024
180,566.1538090000004,180.76904300000024,-137.6923829999996,247.6923829999996,332.82031300000017,129.10253900000043,212.82031300000017,78.3334960000002,335.0,252.43603499999972,157.56396500000028,135.12841800000024,365.6411130000006,260.3847659999992
181,578.4614259999998,192.3076170000004,-101.28198199999997,243.84619099999964,345.0,132.05126999999993,220.89746099999957,70.12841800000024,329.87158199999976,265.51269500000035,152.3076170000004,137.94873000000007,371.6665039999998,251.9228520000006
182,586.794922,208.58984400000008,-52.435790999999426,241.2822270000006,358.46142599999985,135.76904300000024,227.05126999999993,65.0,329.48730499999965,273.0771479999994,150.0,140.0,375.0,241.41015599999992
183,594.1025390000004,220.2563479999999,-8.333252000000357,231.41015599999992,358.46142599999985,134.7436520000001,226.2822270000006,56.153809000000365,327.05126999999993,267.6923829999996,142.82031300000017,138.0771479999994,370.76904300000024,228.20507799999996
184,606.1538090000004,222.3076170000004,20.51269500000035,212.3076170000004,341.9228520000006,127.05126999999993,219.23095699999976,41.025878999999804,318.84619099999964,252.56396500000028,129.87158199999976,133.0771479999994,360.76904300000024,214.7436520000001
185,624.1025390000004,217.43603499999972,35.0,190.12841800000024,320.2563479999999,115.76904300000024,210.89746099999957,24.48730499999965,307.17968800000017,238.3334960000002,116.6665039999998,129.10253900000043,351.79492200000004,204.3588869999994
186,642.5639650000003,213.84619099999964,44.74365200000011,172.43603499999972,308.84619099999964,106.41015599999992,206.15380900000036,13.717772999999397,296.9228520000006,234.10253900000043,108.58984400000008,129.3588869999994,349.6152340000008,198.0771479999994
187,653.9741210000002,217.05126999999993,59.48730499999965,162.3076170000004,313.3334960000002,103.46142599999985,206.0258789999998,12.307617000000391,290.6411130000006,241.0258789999998,106.41015599999992,133.9741210000002,354.6152340000008,194.61523400000078
188,654.2309569999998,226.6665039999998,81.9228520000006,155.51269500000035,326.4101559999999,107.30761700000039,207.17968800000017,15.769043000000238,286.53857400000015,252.43603499999972,105.51269500000035,139.61523400000078,361.9228520000006,191.15380900000036
189,646.6665039999998,237.3076170000004,106.9228520000006,144.87158199999976,335.3847659999992,114.61523400000078,205.51269500000035,16.410155999999915,280.6411130000006,259.6152340000008,102.56396500000028,142.82031300000017,364.87158199999976,185.38476599999922
190,638.7177729999994,242.56396500000028,127.43603499999972,127.56396500000028,333.20507799999996,119.61523400000078,198.9741210000002,8.846190999999635,270.51269500000035,257.05126999999993,96.79492200000004,141.53857400000015,360.2563479999999,177.43603499999972
191,637.1796880000002,240.12841800000024,141.2822270000006,107.30761700000039,322.17968800000017,118.20507799999996,190.12841800000024,-5.512939000000188,257.17968800000017,245.76904300000024,90.0,136.9228520000006,349.48730499999965,168.9741210000002
192,642.5639650000003,232.43603499999972,151.41015599999992,91.2822270000006,309.3588869999994,110.25634799999989,182.94873000000007,-21.28198199999997,243.7177729999994,231.2822270000006,83.0771479999994,132.3076170000004,336.6665039999998,161.79492200000004
193,649.3588869999994,225.2563479999999,162.94873000000007,83.20507799999996,300.0,99.35888699999941,180.0,-33.846190999999635,232.6923829999996,220.12841800000024,75.12841800000024,130.2563479999999,325.89746099999957,156.53857400000015
194,650.5126950000003,223.0771479999994,178.3334960000002,80.38476599999922,294.23095699999976,90.38476599999922,180.2563479999999,-42.051270000000386,224.48730499999965,215.51269500000035,64.87158199999976,130.38476599999922,320.12841800000024,153.3334960000002
195,642.4360349999997,225.6411130000006,196.79492200000004,76.53857400000015,289.10253900000043,86.2822270000006,180.38476599999922,-47.435790999999426,218.46142599999985,215.89746099999957,54.23095699999976,131.2822270000006,320.2563479999999,152.3076170000004
196,627.5639650000003,228.84619099999964,215.0,66.2822270000006,282.05126999999993,86.15380900000036,177.05126999999993,-51.92309599999999,213.20507799999996,216.53857400000015,47.30761700000039,131.2822270000006,323.7177729999994,152.82031300000017
197,611.1538090000004,227.82031300000017,228.9741210000002,48.46142599999985,271.2822270000006,86.53857400000015,169.48730499999965,-57.69238299999961,207.43603499999972,212.3076170000004,46.410155999999915,129.48730499999965,325.12841800000024,152.56396500000028
198,596.2822270000006,221.41015599999992,235.76904300000024,26.153809000000365,257.5639650000003,84.48730499999965,159.23095699999976,-65.38452099999995,200.2563479999999,202.17968800000017,49.48730499999965,125.64111300000059,318.7177729999994,148.3334960000002
199,584.6152340000008,213.7177729999994,236.41015599999992,6.410155999999915,244.87158199999976,78.9741210000002,150.12841800000024,-73.33325200000036,192.43603499999972,191.53857400000015,51.79492200000004,121.41015599999992,304.87158199999976,139.48730499999965
200,577.8203130000002,211.9228520000006,237.56396500000028,-3.2050779999999577,240.38476599999922,72.30761700000039,146.6665039999998,-77.17944299999999,187.82031300000017,190.2563479999999,51.410155999999915,119.87158199999976,292.17968800000017,131.15380900000036
201,577.0512699999999,220.0,247.17968800000017,0.38476599999921746,249.61523400000078,67.43603499999972,151.2822270000006,-72.17944299999999,190.76904300000024,203.9741210000002,51.025878999999804,123.7177729999994,290.76904300000024,129.3588869999994
202,579.1025390000004,233.84619099999964,267.05126999999993,12.051269999999931,267.82031300000017,65.38476599999922,160.6411130000006,-59.35888699999987,200.76904300000024,227.82031300000017,53.46142599999985,131.0258789999998,302.3076170000004,134.87158199999976
203,576.1538090000004,242.17968800000017,289.10253900000043,20.128418000000238,281.2822270000006,64.10253900000043,167.43603499999972,-46.92309599999999,210.38476599999922,246.53857400000015,57.05126999999993,136.41015599999992,316.2822270000006,139.48730499999965
204,560.6411130000006,235.51269500000035,299.23095699999976,14.871581999999762,275.0,60.64111300000059,164.23095699999976,-45.1281740000004,209.23095699999976,245.2563479999999,55.12841800000024,135.51269500000035,317.17968800000017,132.82031300000017
205,533.5898440000001,215.38476599999922,288.84619099999964,-4.358886999999868,246.6665039999998,54.35888699999941,149.87158199999976,-58.33325200000036,192.56396500000028,220.51269500000035,42.05126999999993,128.20507799999996,298.46142599999985,112.69238299999961
206,505.51269500000035,193.84619099999964,262.17968800000017,-27.564209000000574,210.38476599999922,48.589844000000085,131.9228520000006,-78.84619099999964,167.6923829999996,186.15380900000036,21.153809000000365,119.10253900000043,270.3847659999992,88.58984400000008
207,489.6152340000008,184.7436520000001,233.84619099999964,-42.564209000000574,188.0771479999994,47.17968800000017,121.41015599999992,-92.69238299999961,149.23095699999976,163.58984400000008,3.717772999999397,114.10253900000043,252.56396500000028,74.74365200000011
208,490.2563479999999,192.17968800000017,217.82031300000017,-43.33325200000036,191.0258789999998,51.153809000000365,123.9741210000002,-91.02563499999997,147.43603499999972,165.89746099999957,0.769043000000238,116.41015599999992,256.2822270000006,77.56396500000028
209,498.9741210000002,206.41015599999992,217.3076170000004,-35.1281740000004,210.38476599999922,56.153809000000365,134.48730499999965,-78.07690400000001,159.23095699999976,187.05126999999993,12.307617000000391,123.0771479999994,274.6152340000008,90.38476599999922
210,500.2563479999999,211.53857400000015,224.23095699999976,-29.61547900000005,222.94873000000007,56.410155999999915,142.17968800000017,-67.56420900000057,170.76904300000024,207.05126999999993,26.153809000000365,127.82031300000017,288.9741210000002,99.35888699999941
211,484.3588869999994,199.23095699999976,227.3076170000004,-35.51293900000019,211.53857400000015,49.48730499999965,138.9741210000002,-70.25634799999989,168.9741210000002,208.9741210000002,27.94873000000007,125.38476599999922,284.7436520000001,94.48730499999965
212,455.3847659999992,176.9228520000006,221.53857400000015,-51.66674799999964,179.87158199999976,38.7177729999994,126.79492200000004,-85.0,153.46142599999985,193.0771479999994,14.615234000000783,116.9228520000006,263.9741210000002,78.20507799999996
213,430.12841800000024,162.56396500000028,212.3076170000004,-66.66674799999964,150.76904300000024,31.538574000000153,115.64111300000059,-99.8718259999996,136.2822270000006,175.6411130000006,-3.2050779999999577,108.7177729999994,241.9228520000006,63.589844000000085
214,424.7436520000001,169.23095699999976,208.9741210000002,-68.71801800000003,146.41015599999992,33.333496000000196,114.74365200000011,-101.92309599999999,132.3076170000004,172.94873000000007,-10.256347999999889,107.17968800000017,234.87158199999976,62.94873000000007
215,441.53857400000015,193.7177729999994,216.0258789999998,-56.153809000000365,168.46142599999985,42.69238299999961,124.10253900000043,-89.10253899999998,144.7436520000001,188.0771479999994,-1.153809000000365,113.3334960000002,245.89746099999957,76.41015599999992
216,465.3847659999992,218.20507799999996,227.82031300000017,-39.8718259999996,197.3076170000004,52.17968800000017,135.6411130000006,-71.02563499999997,162.3076170000004,208.3334960000002,16.025878999999804,123.0771479999994,263.46142599999985,91.2822270000006
217,475.3847659999992,225.38476599999922,234.23095699999976,-33.46142599999985,210.12841800000024,55.51269500000035,140.2563479999999,-61.28198199999997,169.23095699999976,216.9228520000006,26.794922000000042,129.7436520000001,271.4101559999999,93.20507799999996
218,460.6411130000006,211.0258789999998,229.7436520000001,-42.82055700000001,198.3334960000002,51.2822270000006,134.48730499999965,-66.41015600000037,158.3334960000002,205.89746099999957,23.077147999999397,129.48730499999965,262.17968800000017,77.94873000000007
219,428.3334960000002,185.89746099999957,217.94873000000007,-62.17944299999999,171.15380900000036,43.974121000000196,122.30761700000039,-81.92309599999999,135.6411130000006,181.15380900000036,7.948730000000069,123.7177729999994,241.79492200000004,54.87158199999976
220,397.5639650000003,165.38476599999922,207.82031300000017,-80.76928699999962,145.6411130000006,39.23095699999976,110.76904300000024,-97.56420900000057,114.48730499999965,156.0258789999998,-8.461425999999847,116.6665039999998,222.43603499999972,39.23095699999976
221,385.12841800000024,159.23095699999976,205.76904300000024,-90.1281740000004,135.51269500000035,40.51269500000035,106.0258789999998,-105.1281740000004,105.38476599999922,143.20507799999996,-16.923095999999987,112.82031300000017,213.46142599999985,40.0
222,394.6152340000008,166.15380900000036,212.6923829999996,-87.82055700000001,144.10253900000043,46.79492200000004,110.0,-101.92309599999999,110.0,147.56396500000028,-13.58984399999963,113.84619099999964,216.2822270000006,55.0
223,416.15380900000036,178.7177729999994,223.20507799999996,-76.28198199999997,165.51269500000035,54.48730499999965,120.25634799999989,-90.51293900000019,122.30761700000039,164.61523400000078,-1.7949220000000423,118.20507799999996,226.0258789999998,73.58984400000008
224,433.84619099999964,188.9741210000002,230.38476599999922,-61.92309599999999,186.9228520000006,58.974121000000196,131.0258789999998,-76.92309599999999,133.20507799999996,182.94873000000007,11.282227000000603,122.82031300000017,236.41015599999992,84.35888699999941
225,435.51269500000035,192.82031300000017,229.61523400000078,-53.46142599999985,194.48730499999965,58.20507799999996,135.76904300000024,-68.46142599999985,135.89746099999957,190.12841800000024,16.922852000000603,123.9741210000002,241.79492200000004,80.51269500000035
226,419.10253900000043,189.61523400000078,221.0258789999998,-57.17944299999999,181.6665039999998,52.82031300000017,130.89746099999957,-70.64111300000013,127.94873000000007,180.2563479999999,10.0,120.0,238.58984400000008,63.7177729999994
227,393.46142599999985,181.53857400000015,209.23095699999976,-73.07690400000001,152.94873000000007,45.12841800000024,118.3334960000002,-83.46142599999985,113.0771479999994,158.84619099999964,-7.179442999999992,112.17968800000017,227.17968800000017,43.0771479999994
228,371.2822270000006,172.17968800000017,200.0,-92.94872999999961,122.82031300000017,37.43603499999972,104.48730499999965,-100.38452099999995,98.84619099999964,139.61523400000078,-25.1281740000004,104.48730499999965,212.05126999999993,29.358886999999413
229,361.53857400000015,166.0258789999998,198.20507799999996,-104.61547900000005,107.56396500000028,31.666503999999804,96.6665039999998,-111.02563499999997,92.56396500000028,134.7436520000001,-33.07690400000001,101.41015599999992,201.0258789999998,29.230956999999762
230,364.87158199999976,167.43603499999972,205.2563479999999,-100.1281740000004,117.17968800000017,29.871581999999762,99.10253900000043,-107.56420900000057,97.56396500000028,147.82031300000017,-25.512939000000188,105.0,200.2563479999999,40.897460999999566
231,375.76904300000024,177.05126999999993,217.56396500000028,-82.05127000000039,147.6923829999996,32.69238299999961,109.74365200000011,-90.76928699999962,110.89746099999957,170.89746099999957,-5.512939000000188,113.3334960000002,210.12841800000024,56.2822270000006
232,384.87158199999976,189.3588869999994,227.17968800000017,-63.58984399999963,180.38476599999922,38.333496000000196,121.41015599999992,-70.76928699999962,123.46142599999985,189.10253900000043,14.871581999999762,122.17968800000017,222.3076170000004,64.61523400000078
233,382.94873000000007,194.10253900000043,226.79492200000004,-59.23071300000038,190.76904300000024,42.56396500000028,125.25634799999989,-62.30761700000039,125.25634799999989,189.10253900000043,20.51269500000035,125.76904300000024,223.7177729999994,58.974121000000196
234,365.6411130000006,183.9741210000002,214.87158199999976,-74.10253899999998,167.17968800000017,42.05126999999993,117.82031300000017,-73.33325200000036,112.05126999999993,168.20507799999996,2.6923829999996087,121.15380900000036,207.17968800000017,40.0
235,337.17968800000017,161.79492200000004,198.3334960000002,-99.35888699999987,121.15380900000036,38.0771479999994,103.7177729999994,-98.20507799999996,90.25634799999989,138.0771479999994,-32.051270000000386,110.89746099999957,177.6923829999996,16.410155999999915
236,309.48730499999965,140.38476599999922,187.56396500000028,-118.58984399999963,82.82031300000017,35.12841800000024,92.82031300000017,-120.51293900000019,73.46142599999985,117.30761700000039,-63.58984399999963,101.41015599999992,151.15380900000036,-0.6411130000005869
237,294.48730499999965,133.3334960000002,188.7177729999994,-120.76928699999962,77.94873000000007,37.17968800000017,91.6665039999998,-125.64111300000013,72.05126999999993,117.82031300000017,-72.94872999999961,98.20507799999996,142.6923829999996,-3.717772999999397
238,295.0,143.7177729999994,198.58984400000008,-108.20507799999996,107.43603499999972,43.846190999999635,98.58984400000008,-112.56420900000057,84.87158199999976,135.12841800000024,-56.53857400000015,101.79492200000004,155.12841800000024,4.871581999999762
239,302.17968800000017,160.38476599999922,206.41015599999992,-95.1281740000004,145.51269500000035,50.51269500000035,105.12841800000024,-93.97436500000003,98.46142599999985,153.0771479999994,-29.8718259999996,107.69238299999961,176.15380900000036,15.0
240,303.9741210000002,167.43603499999972,203.46142599999985,-95.64111300000013,161.15380900000036,52.05126999999993,103.84619099999964,-86.15380900000036,99.48730499999965,157.05126999999993,-14.102538999999979,110.12841800000024,188.46142599999985,16.922852000000603
241,295.12841800000024,157.05126999999993,189.61523400000078,-112.56420900000057,142.17968800000017,47.43603499999972,94.61523400000078,-95.0,85.89746099999957,146.0258789999998,-19.230713000000378,106.53857400000015,182.6923829999996,8.717772999999397
242,280.3847659999992,135.89746099999957,174.10253900000043,-134.8718259999996,102.30761700000039,40.25634799999989,83.58984400000008,-113.07690400000001,68.0771479999994,130.6411130000006,-38.33325200000036,99.61523400000078,163.84619099999964,-3.4614259999998467
243,268.9741210000002,119.23095699999976,167.3076170000004,-147.820557,68.7177729999994,35.25634799999989,77.82031300000017,-126.53857400000015,58.20507799999996,123.46142599999985,-54.61547900000005,94.23095699999976,144.87158199999976,-11.153809000000365
244,266.4101559999999,118.20507799999996,172.56396500000028,-143.076904,61.79492200000004,35.0,79.74365200000011,-126.66674799999964,61.666503999999804,128.46142599999985,-55.89746100000002,93.84619099999964,137.17968800000017,-10.256347999999889
245,271.15380900000036,132.82031300000017,185.12841800000024,-125.0,82.69238299999961,38.46142599999985,86.15380900000036,-115.1281740000004,73.0771479999994,139.87158199999976,-42.17944299999999,97.94873000000007,143.0771479999994,-2.8203119999998307
246,277.5639650000003,152.94873000000007,196.2822270000006,-105.76928699999962,113.20507799999996,41.79492200000004,91.79492200000004,-100.64111300000013,83.0771479999994,148.58984400000008,-24.487060999999812,103.20507799999996,156.2822270000006,6.410155999999915
247,280.6411130000006,166.0258789999998,200.51269500000035,-97.05127000000039,130.51269500000035,41.9228520000006,93.20507799999996,-91.66674799999964,84.61523400000078,148.58984400000008,-15.512939000000188,106.15380900000036,167.17968800000017,12.56396500000028
248,278.3334960000002,164.87158199999976,197.17968800000017,-102.69238299999961,122.94873000000007,38.846190999999635,90.51269500000035,-91.53857400000015,78.0771479999994,140.12841800000024,-20.641113000000132,105.76904300000024,169.48730499999965,12.307617000000391
249,271.6665039999998,151.9228520000006,190.6411130000006,-117.30761700000039,97.56396500000028,35.25634799999989,86.6665039999998,-97.82055700000001,69.23095699999976,129.10253900000043,-34.48706099999981,103.7177729999994,163.58984400000008,5.769043000000238
250,262.3076170000004,137.6923829999996,186.15380900000036,-131.02563499999997,74.87158199999976,34.87158199999976,84.48730499999965,-103.97436500000003,64.61523400000078,123.20507799999996,-45.25634799999989,103.3334960000002,155.0,-3.9741210000001956
251,252.94873000000007,132.82031300000017,187.05126999999993,-135.0,72.30761700000039,39.35888699999941,85.25634799999989,-104.23071300000038,67.69238299999961,127.82031300000017,-43.33325200000036,106.9228520000006,150.6411130000006,-11.41015600000037
252,245.6411130000006,140.89746099999957,191.9228520000006,-126.66674799999964,90.51269500000035,46.2822270000006,88.20507799999996,-97.69238299999961,77.17968800000017,141.15380900000036,-29.10253899999998,113.3334960000002,153.3334960000002,-12.307617000000391
253,241.6665039999998,155.6411130000006,197.05126999999993,-111.92309599999999,114.48730499999965,51.410155999999915,91.0258789999998,-87.94872999999961,87.43603499999972,155.38476599999922,-13.58984399999963,119.10253900000043,159.87158199999976,-6.923095999999987
254,241.41015599999992,166.15380900000036,199.61523400000078,-100.38452099999995,126.41015599999992,51.79492200000004,92.05126999999993,-80.38452099999995,92.94873000000007,162.82031300000017,-7.307617000000391,121.0258789999998,164.48730499999965,0.38476599999921746
255,244.3588869999994,164.48730499999965,198.9741210000002,-99.74365200000011,119.48730499999965,48.0771479999994,91.2822270000006,-77.94872999999961,91.79492200000004,161.79492200000004,-13.205077999999958,117.56396500000028,164.48730499999965,4.871581999999762
256,247.43603499999972,151.41015599999992,196.41015599999992,-110.25634799999989,100.38476599999922,43.7177729999994,90.0,-81.15380900000036,85.0,156.0258789999998,-24.8718259999996,110.51269500000035,161.0258789999998,3.717772999999397
257,246.6665039999998,134.87158199999976,193.84619099999964,-124.74365200000011,82.05126999999993,41.9228520000006,89.10253900000043,-87.94872999999961,76.15380900000036,150.12841800000024,-34.23071300000038,103.46142599999985,156.6665039999998,-1.9228520000006029
258,239.61523400000078,124.74365200000011,192.17968800000017,-132.9487299999996,73.7177729999994,43.7177729999994,87.94873000000007,-95.1281740000004,68.84619099999964,146.41015599999992,-36.79492200000004,100.0,151.9228520000006,-8.974365000000034
259,228.58984400000008,125.76904300000024,191.41015599999992,-129.7436520000001,75.89746099999957,47.94873000000007,86.2822270000006,-98.84619099999964,65.25634799999989,144.10253900000043,-33.33325200000036,102.05126999999993,145.51269500000035,-13.58984399999963
260,219.87158199999976,135.51269500000035,191.41015599999992,-117.43579099999943,83.46142599999985,52.05126999999993,84.61523400000078,-97.05127000000039,65.38476599999922,142.17968800000017,-26.794922000000042,107.82031300000017,137.94873000000007,-14.358886999999868
261,218.3334960000002,146.6665039999998,192.3076170000004,-103.58984399999963,90.25634799999989,53.846190999999635,84.23095699999976,-91.28198199999997,67.05126999999993,141.0258789999998,-19.74365200000011,113.84619099999964,132.43603499999972,-11.923095999999987
262,222.6923829999996,152.6923829999996,193.7177729999994,-95.51293900000019,92.82031300000017,52.82031300000017,85.76904300000024,-85.38452099999995,67.82031300000017,142.3076170000004,-13.71801800000003,116.9228520000006,133.0771479999994,-8.333252000000357
263,227.82031300000017,151.9228520000006,194.87158199999976,-96.15380900000036,92.05126999999993,51.025878999999804,88.9741210000002,-82.17944299999999,66.9228520000006,146.15380900000036,-9.743652000000111,116.2822270000006,140.38476599999922,-5.256347999999889
264,229.23095699999976,148.0771479999994,195.0,-101.41015600000037,92.05126999999993,50.76904300000024,93.20507799999996,-80.89746100000002,66.53857400000015,151.15380900000036,-8.333252000000357,113.9741210000002,151.53857400000015,-2.9487300000000687
265,225.89746099999957,146.53857400000015,193.84619099999964,-103.97436500000003,96.6665039999998,53.20507799999996,98.0771479999994,-77.56420900000057,69.61523400000078,154.48730499999965,-8.846190999999635,113.46142599999985,161.6665039999998,-1.153809000000365
266,218.46142599999985,148.9741210000002,191.79492200000004,-99.23071300000038,105.0,56.410155999999915,103.20507799999996,-70.38452099999995,76.0258789999998,154.10253900000043,-10.38452099999995,116.41015599999992,166.6665039999998,-0.8974609999995664
267,207.43603499999972,152.17968800000017,189.10253900000043,-90.25634799999989,112.05126999999993,58.0771479999994,106.9228520000006,-62.051270000000386,81.53857400000015,149.48730499999965,-11.666747999999643,120.64111300000059,165.0,-3.5898440000000846
268,193.20507799999996,151.41015599999992,185.2563479999999,-86.28198199999997,112.17968800000017,57.30761700000039,106.6665039999998,-58.33325200000036,80.51269500000035,142.94873000000007,-12.948729999999614,122.17968800000017,157.05126999999993,-10.1281740000004
269,178.3334960000002,145.6411130000006,180.38476599999922,-94.61547900000005,104.23095699999976,55.897460999999566,101.2822270000006,-63.33325200000036,70.76904300000024,137.17968800000017,-15.641113000000132,118.58984400000008,144.3588869999994,-18.58984399999963
270,167.3076170000004,137.94873000000007,175.51269500000035,-113.97436500000003,91.79492200000004,55.64111300000059,92.69238299999961,-75.76928699999962,55.38476599999922,133.58984400000008,-21.025634999999966,110.89746099999957,129.87158199999976,-25.641113000000132
271,164.3588869999994,132.6923829999996,171.79492200000004,-132.6923829999996,81.15380900000036,57.56396500000028,84.10253900000043,-88.71801800000003,40.76904300000024,130.6411130000006,-28.461425999999847,103.0771479999994,117.56396500000028,-28.974365000000034
272,169.61523400000078,132.94873000000007,170.6411130000006,-137.0512700000004,77.30761700000039,61.025878999999804,79.87158199999976,-94.10253899999998,33.589844000000085,127.05126999999993,-34.48706099999981,99.61523400000078,111.0258789999998,-27.820557000000008
273,178.58984400000008,138.9741210000002,172.43603499999972,-121.79492200000004,82.30761700000039,65.76904300000024,82.17968800000017,-87.69238299999961,37.69238299999961,124.23095699999976,-34.35888699999987,102.30761700000039,113.58984400000008,-23.846190999999635
274,183.84619099999964,148.46142599999985,176.79492200000004,-95.0,93.0771479999994,71.0258789999998,90.25634799999989,-72.05127000000039,51.53857400000015,126.6665039999998,-25.769286999999622,109.87158199999976,125.76904300000024,-18.974365000000034
275,180.51269500000035,157.05126999999993,181.9228520000006,-73.84619099999964,102.17968800000017,75.38476599999922,100.51269500000035,-55.51293900000019,68.46142599999985,136.9228520000006,-11.794922000000042,117.94873000000007,143.0771479999994,-15.512939000000188
276,169.10253900000043,159.61523400000078,184.48730499999965,-72.17944299999999,102.43603499999972,76.41015599999992,107.69238299999961,-47.30761700000039,80.25634799999989,151.2822270000006,-1.153809000000365,122.17968800000017,155.76904300000024,-15.641113000000132
277,154.7436520000001,153.7177729999994,182.05126999999993,-91.02563499999997,91.53857400000015,72.82031300000017,108.0771479999994,-50.51293900000019,81.2822270000006,160.76904300000024,-1.4101559999999154,120.38476599999922,155.38476599999922,-20.1281740000004
278,144.3588869999994,142.05126999999993,175.76904300000024,-117.56420900000057,75.76904300000024,66.2822270000006,102.05126999999993,-60.64111300000013,72.94873000000007,159.10253900000043,-12.692382999999609,114.35888699999941,141.6665039999998,-27.435790999999426
279,142.05126999999993,131.0258789999998,168.7177729999994,-134.35888699999987,65.51269500000035,60.25634799999989,93.20507799999996,-69.48706099999981,61.53857400000015,147.56396500000028,-27.30761700000039,107.94873000000007,124.23095699999976,-35.0
280,145.38476599999922,126.41015599999992,164.48730499999965,-132.56420900000057,66.41015599999992,57.43603499999972,86.2822270000006,-71.79492200000004,53.846190999999635,134.10253900000043,-35.76928699999962,104.48730499999965,114.23095699999976,-41.025634999999966
281,147.82031300000017,128.46142599999985,164.48730499999965,-118.71801800000003,75.64111300000059,57.56396500000028,83.20507799999996,-68.07690400000001,52.94873000000007,126.9228520000006,-34.23071300000038,105.38476599999922,115.12841800000024,-45.0
282,144.61523400000078,132.94873000000007,168.0771479999994,-107.17944299999999,85.12841800000024,58.7177729999994,83.20507799999996,-61.66674799999964,58.20507799999996,128.7177729999994,-25.0,109.35888699999941,121.9228520000006,-46.41015600000037
283,137.3076170000004,136.15380900000036,172.94873000000007,-107.56420900000057,89.48730499999965,59.102539000000434,84.87158199999976,-55.1281740000004,66.0258789999998,137.3076170000004,-13.71801800000003,113.7177729999994,127.43603499999972,-44.74365200000011
284,131.6665039999998,137.05126999999993,177.6923829999996,-117.43579099999943,88.9741210000002,58.20507799999996,86.79492200000004,-48.974365000000034,72.69238299999961,147.3076170000004,-4.102538999999979,116.9228520000006,128.9741210000002,-39.74365200000011
285,131.2822270000006,136.41015599999992,180.51269500000035,-126.66674799999964,86.79492200000004,56.53857400000015,88.3334960000002,-43.846190999999635,75.12841800000024,154.23095699999976,2.6923829999996087,118.20507799999996,128.46142599999985,-32.948729999999614
286,134.3588869999994,134.7436520000001,179.48730499999965,-127.17944299999999,84.48730499999965,55.0,88.46142599999985,-41.79492200000004,72.43603499999972,156.0258789999998,6.282227000000603,117.56396500000028,128.7177729999994,-28.205077999999958
287,135.76904300000024,131.9228520000006,174.48730499999965,-118.58984399999963,81.0258789999998,54.23095699999976,87.17968800000017,-45.1281740000004,65.76904300000024,153.46142599999985,6.410155999999915,115.76904300000024,129.87158199999976,-28.974365000000034
288,132.17968800000017,128.20507799999996,167.56396500000028,-107.82055700000001,75.12841800000024,54.48730499999965,85.0,-53.20507799999996,58.0771479999994,148.46142599999985,2.5639650000002803,113.58984400000008,130.0,-35.38452099999995
289,123.84619099999964,124.35888699999941,162.94873000000007,-102.56420900000057,67.30761700000039,54.61523400000078,83.3334960000002,-62.948729999999614,51.666503999999804,142.94873000000007,-4.871825999999601,112.17968800000017,127.94873000000007,-43.20507799999996
290,114.10253900000043,121.2822270000006,163.3334960000002,-105.89746100000002,59.87158199999976,53.589844000000085,83.0771479999994,-70.1281740000004,48.0771479999994,137.56396500000028,-13.846190999999635,111.79492200000004,124.74365200000011,-46.92309599999999
291,107.94873000000007,121.0258789999998,168.58984400000008,-115.1281740000004,57.05126999999993,51.9228520000006,84.23095699999976,-71.28198199999997,47.17968800000017,132.17968800000017,-20.1281740000004,112.56396500000028,123.20507799999996,-43.46142599999985
292,109.87158199999976,125.12841800000024,175.2563479999999,-123.33325200000036,61.666503999999804,50.897460999999566,86.2822270000006,-66.02563499999997,48.589844000000085,128.0771479999994,-19.487060999999812,114.35888699999941,125.38476599999922,-34.48706099999981
293,120.12841800000024,133.0771479999994,180.2563479999999,-124.10253899999998,71.79492200000004,51.53857400000015,88.58984400000008,-56.79492200000004,51.025878999999804,127.56396500000028,-10.256347999999889,117.17968800000017,131.6665039999998,-25.512939000000188
294,133.20507799999996,140.51269500000035,181.79492200000004,-116.53857400000015,80.51269500000035,53.20507799999996,90.12841800000024,-49.23071300000038,52.30761700000039,131.0258789999998,3.3334960000001956,120.25634799999989,138.46142599999985,-21.538574000000153
295,140.0,142.3076170000004,180.12841800000024,-106.28198199999997,81.6665039999998,54.48730499999965,90.12841800000024,-47.564209000000574,50.38476599999922,136.2822270000006,12.82031300000017,122.05126999999993,140.2563479999999,-24.230713000000378
296,134.10253900000043,136.41015599999992,176.6665039999998,-101.79492200000004,74.48730499999965,54.61523400000078,88.46142599999985,-52.82055700000001,44.35888699999941,138.58984400000008,11.794922000000042,121.6665039999998,133.84619099999964,-30.641113000000132
297,116.41015599999992,125.64111300000059,173.58984400000008,-107.69238299999961,63.20507799999996,55.0,85.64111300000059,-61.53857400000015,35.0,134.87158199999976,0.256347999999889,119.74365200000011,121.0258789999998,-36.92309599999999
298,95.51269500000035,115.64111300000059,172.3076170000004,-120.38452099999995,53.846190999999635,57.56396500000028,83.46142599999985,-68.84619099999964,25.769043000000238,126.15380900000036,-14.358886999999868,117.56396500000028,109.48730499999965,-40.25634799999989
299,82.56396500000028,111.2822270000006,173.3334960000002,-130.2563479999999,50.897460999999566,62.94873000000007,82.94873000000007,-70.51293900000019,21.153809000000365,117.94873000000007,-22.69238299999961,116.53857400000015,106.79492200000004,-40.76928699999962
300,84.10253900000043,114.35888699999941,176.2822270000006,-128.46142599999985,55.64111300000059,69.74365200000011,84.61523400000078,-66.02563499999997,24.48730499999965,116.0258789999998,-20.0,116.6665039999998,114.74365200000011,-39.48706099999981
301,96.2822270000006,122.82031300000017,179.48730499999965,-113.97436500000003,65.76904300000024,74.35888699999941,87.30761700000039,-57.435790999999426,34.35888699999941,122.69238299999961,-9.358886999999868,117.82031300000017,128.0771479999994,-37.82055700000001
302,108.0771479999994,131.79492200000004,180.89746099999957,-94.23071300000038,76.6665039999998,73.7177729999994,88.84619099999964,-49.48706099999981,45.51269500000035,135.12841800000024,0.6411130000005869,119.23095699999976,138.20507799999996,-36.41015600000037
303,109.10253900000043,136.53857400000015,178.3334960000002,-80.25634799999989,82.56396500000028,67.56396500000028,87.69238299999961,-46.41015600000037,52.17968800000017,146.9228520000006,2.8203130000001693,120.25634799999989,139.3588869999994,-35.64111300000013
304,97.82031300000017,135.51269500000035,171.53857400000015,-78.58984399999963,81.0258789999998,59.35888699999941,84.35888699999941,-48.20507799999996,52.56396500000028,152.94873000000007,-2.6923829999996087,120.25634799999989,132.3076170000004,-35.1281740000004
305,82.56396500000028,131.15380900000036,163.7177729999994,-86.66674799999964,74.23095699999976,53.7177729999994,81.6665039999998,-51.025634999999966,49.48730499999965,152.82031300000017,-9.102538999999979,119.23095699999976,123.0771479999994,-34.48706099999981
306,73.84619099999964,128.7177729999994,159.3588869999994,-96.15380900000036,67.82031300000017,53.333496000000196,82.05126999999993,-50.25634799999989,48.46142599999985,149.7436520000001,-8.974365000000034,117.30761700000039,117.43603499999972,-34.35888699999987
307,75.25634799999989,130.38476599999922,160.0,-100.76928699999962,65.64111300000059,57.69238299999961,86.0258789999998,-44.61547900000005,50.897460999999566,146.9228520000006,-1.7949220000000423,114.87158199999976,116.53857400000015,-36.79492200000004
308,80.89746099999957,133.46142599999985,162.56396500000028,-100.76928699999962,67.05126999999993,63.0771479999994,90.64111300000059,-38.71801800000003,53.333496000000196,144.48730499999965,5.641113000000587,111.9228520000006,116.79492200000004,-43.58984399999963
309,81.15380900000036,132.43603499999972,161.2822270000006,-100.38452099999995,68.84619099999964,66.2822270000006,92.30761700000039,-38.58984399999963,50.51269500000035,139.7436520000001,4.358886999999413,108.58984400000008,114.10253900000043,-54.10253899999998
310,71.9228520000006,125.38476599999922,154.48730499999965,-102.30761700000039,69.10253900000043,66.53857400000015,89.48730499999965,-45.76928699999962,41.2822270000006,130.76904300000024,-8.461425999999847,105.51269500000035,108.20507799999996,-64.8718259999996
311,58.0771479999994,116.2822270000006,145.89746099999957,-105.0,68.46142599999985,65.38476599999922,83.9741210000002,-55.25634799999989,30.51269500000035,120.25634799999989,-26.28198199999997,103.58984400000008,102.69238299999961,-71.66674799999964
312,47.82031300000017,111.2822270000006,142.05126999999993,-104.61547900000005,68.20507799999996,64.48730499999965,79.87158199999976,-58.846190999999635,26.025878999999804,114.23095699999976,-38.33325200000036,103.20507799999996,102.43603499999972,-71.66674799999964
313,46.153809000000365,112.43603499999972,146.41015599999992,-99.8718259999996,68.46142599999985,63.974121000000196,80.38476599999922,-53.20507799999996,31.025878999999804,117.05126999999993,-38.33325200000036,104.10253900000043,108.3334960000002,-65.89746100000002
314,51.025878999999804,117.30761700000039,156.2822270000006,-93.84619099999964,69.10253900000043,63.20507799999996,85.25634799999989,-42.17944299999999,41.410155999999915,126.6665039999998,-28.71801800000003,105.51269500000035,115.38476599999922,-58.71801800000003
315,56.153809000000365,121.15380900000036,163.84619099999964,-92.30761700000039,70.12841800000024,61.2822270000006,90.64111300000059,-34.74365200000011,48.20507799999996,135.6411130000006,-18.333252000000357,106.41015599999992,116.2822270000006,-55.51293900000019
316,57.17968800000017,120.38476599999922,162.6923829999996,-98.33325200000036,70.12841800000024,57.69238299999961,91.53857400000015,-37.17944299999999,45.0,136.6665039999998,-15.256347999999889,105.64111300000059,107.56396500000028,-58.71801800000003
317,54.102539000000434,116.53857400000015,152.82031300000017,-108.20507799999996,67.56396500000028,53.20507799999996,87.05126999999993,-47.564209000000574,33.846190999999635,129.7436520000001,-20.1281740000004,102.56396500000028,94.87158199999976,-65.89746100000002
318,51.410155999999915,115.64111300000059,141.79492200000004,-113.07690400000001,63.333496000000196,49.87158199999976,81.6665039999998,-55.38452099999995,24.871581999999762,121.9228520000006,-26.538574000000153,99.48730499999965,88.3334960000002,-70.89746100000002
319,52.94873000000007,122.30761700000039,138.58984400000008,-105.89746100000002,60.76904300000024,50.25634799999989,81.9228520000006,-51.28198199999997,27.82031300000017,122.69238299999961,-26.28198199999997,99.61523400000078,95.0,-68.97436500000003
320,57.56396500000028,135.38476599999922,145.6411130000006,-88.84619099999964,62.17968800000017,54.48730499999965,89.61523400000078,-35.25634799999989,42.56396500000028,134.23095699999976,-17.051270000000386,104.35888699999941,110.76904300000024,-61.53857400000015
321,61.53857400000015,146.9228520000006,157.05126999999993,-71.92309599999999,67.05126999999993,60.51269500000035,99.87158199999976,-17.948729999999614,58.974121000000196,148.9741210000002,-4.358886999999868,110.89746099999957,124.23095699999976,-54.61547900000005
322,61.025878999999804,149.23095699999976,163.9741210000002,-66.02563499999997,73.0771479999994,64.61523400000078,105.25634799999989,-11.666747999999643,64.87158199999976,155.51269500000035,3.3334960000001956,114.61523400000078,125.76904300000024,-53.846190999999635
323,55.38476599999922,140.6411130000006,162.43603499999972,-74.10253899999998,77.05126999999993,65.12841800000024,102.30761700000039,-19.487060999999812,57.05126999999993,148.46142599999985,1.4101559999999154,112.82031300000017,115.64111300000059,-60.0
324,46.53857400000015,127.56396500000028,155.76904300000024,-89.8718259999996,76.79492200000004,62.82031300000017,93.46142599999985,-34.10253899999998,41.79492200000004,133.0771479999994,-8.076904000000013,107.69238299999961,102.69238299999961,-68.46142599999985
325,37.82031300000017,118.3334960000002,151.0258789999998,-102.05127000000039,72.43603499999972,59.48730499999965,84.48730499999965,-44.10253899999998,29.74365200000011,120.89746099999957,-17.564209000000574,104.48730499999965,97.30761700000039,-73.20507799999996
326,33.46142599999985,117.30761700000039,153.3334960000002,-102.69238299999961,67.43603499999972,57.56396500000028,80.38476599999922,-43.46142599999985,27.56396500000028,120.0,-19.358886999999868,106.9228520000006,102.56396500000028,-71.41015600000037
327,36.410155999999915,121.41015599999992,161.79492200000004,-92.82055700000001,65.64111300000059,57.56396500000028,82.56396500000028,-35.1281740000004,34.102539000000434,128.9741210000002,-11.923095999999987,113.7177729999994,113.0771479999994,-65.51293900000019
328,44.61523400000078,123.20507799999996,169.7436520000001,-81.02563499999997,67.82031300000017,58.46142599999985,87.82031300000017,-28.333252000000357,41.666503999999804,138.3334960000002,-1.6665039999998044,119.23095699999976,118.3334960000002,-61.41015600000037
329,51.410155999999915,118.46142599999985,171.41015599999992,-77.43579099999943,71.0258789999998,58.333496000000196,91.41015599999992,-31.025634999999966,41.9228520000006,137.82031300000017,0.8974609999995664,118.20507799999996,110.76904300000024,-64.10253899999998
330,50.12841800000024,110.38476599999922,166.2822270000006,-84.8718259999996,70.89746099999957,56.410155999999915,90.25634799999989,-42.69238299999961,32.43603499999972,124.74365200000011,-8.71801800000003,110.64111300000059,92.05126999999993,-73.46142599999985
331,42.17968800000017,107.30761700000039,160.12841800000024,-97.69238299999961,65.25634799999989,54.61523400000078,85.76904300000024,-54.8718259999996,19.48730499999965,106.0258789999998,-25.1281740000004,102.43603499999972,73.20507799999996,-83.07690400000001
332,35.897460999999566,113.9741210000002,159.61523400000078,-105.76928699999962,55.64111300000059,55.897460999999566,82.43603499999972,-57.564209000000574,12.307617000000391,93.0771479999994,-35.89746100000002,99.74365200000011,66.41015599999992,-83.84619099999964
333,39.102539000000434,126.79492200000004,167.3076170000004,-101.79492200000004,46.2822270000006,61.53857400000015,84.10253900000043,-47.564209000000574,16.025878999999804,92.43603499999972,-32.564209000000574,105.0,74.61523400000078,-72.17944299999999
334,50.76904300000024,136.2822270000006,178.46142599999985,-88.46142599999985,42.17968800000017,68.9741210000002,89.87158199999976,-32.17944299999999,26.153809000000365,101.53857400000015,-18.461425999999847,114.48730499999965,88.46142599999985,-54.10253899999998
335,60.25634799999989,132.94873000000007,184.3588869999994,-76.92309599999999,43.974121000000196,73.46142599999985,94.35888699999941,-23.71801800000003,32.69238299999961,110.0,-6.41015600000037,121.41015599999992,93.7177729999994,-42.564209000000574
336,56.79492200000004,114.74365200000011,180.0,-77.82055700000001,47.94873000000007,71.9228520000006,92.30761700000039,-29.74365200000011,28.077147999999397,108.7177729999994,-8.076904000000013,121.2822270000006,83.84619099999964,-46.79492200000004
337,39.74365200000011,91.15380900000036,167.82031300000017,-90.76928699999962,50.0,66.41015599999992,83.9741210000002,-46.28198199999997,14.358886999999413,98.0771479999994,-23.58984399999963,115.89746099999957,64.74365200000011,-63.846190999999635
338,21.410155999999915,77.56396500000028,156.79492200000004,-103.71801800000003,49.35888699999941,63.0771479999994,76.0258789999998,-60.51293900000019,2.1796880000001693,87.94873000000007,-40.0,111.15380900000036,50.25634799999989,-81.02563499999997
339,16.794922000000042,83.0771479999994,154.48730499999965,-103.46142599999985,48.46142599999985,65.89746099999957,75.0,-60.76928699999962,1.7949220000000423,88.58984400000008,-42.948729999999614,112.17968800000017,50.38476599999922,-85.89746100000002
340,30.769043000000238,103.0771479999994,161.9228520000006,-87.30761700000039,50.51269500000035,73.0771479999994,82.43603499999972,-46.28198199999997,14.487304999999651,101.0258789999998,-28.71801800000003,117.82031300000017,63.846190999999635,-76.53857400000015
341,53.20507799999996,122.43603499999972,172.94873000000007,-65.0,56.9228520000006,78.20507799999996,93.46142599999985,-26.538574000000153,32.17968800000017,116.15380900000036,-7.435790999999426,123.20507799999996,80.51269500000035,-61.53857400000015
342,66.53857400000015,127.69238299999961,179.23095699999976,-50.25634799999989,65.51269500000035,76.41015599999992,100.76904300000024,-13.974365000000034,43.7177729999994,123.46142599999985,5.3847659999992175,124.10253900000043,89.87158199999976,-52.69238299999961
343,59.23095699999976,117.05126999999993,175.6411130000006,-51.53857400000015,70.51269500000035,68.3334960000002,99.87158199999976,-14.8718259999996,42.82031300000017,119.35888699999941,1.153809000000365,120.51269500000035,86.9228520000006,-56.025634999999966
344,34.87158199999976,98.84619099999964,164.3588869999994,-66.02563499999997,66.0258789999998,59.48730499999965,91.79492200000004,-26.025634999999966,31.410155999999915,109.35888699999941,-15.512939000000188,116.0258789999998,74.23095699999976,-69.10253899999998
345,8.974121000000196,83.3334960000002,152.6923829999996,-83.58984399999963,52.56396500000028,55.64111300000059,81.9228520000006,-38.71801800000003,17.30761700000039,101.6665039999998,-31.666747999999643,113.7177729999994,58.846190999999635,-82.69238299999961
346,-3.846190999999635,75.76904300000024,147.3076170000004,-94.23071300000038,37.82031300000017,58.333496000000196,76.79492200000004,-44.23071300000038,9.102539000000434,101.53857400000015,-36.28198199999997,113.7177729999994,48.846190999999635,-88.33325200000036
347,0.769043000000238,76.2822270000006,151.41015599999992,-92.69238299999961,31.410155999999915,64.87158199999976,79.23095699999976,-38.974365000000034,11.153809000000365,108.84619099999964,-27.051270000000386,114.48730499999965,49.74365200000011,-82.82055700000001
348,16.410155999999915,84.10253900000043,162.56396500000028,-79.74365200000011,38.333496000000196,71.0258789999998,87.94873000000007,-24.74365200000011,23.333496000000196,121.0258789999998,-10.256347999999889,115.64111300000059,61.79492200000004,-68.97436500000003
349,32.56396500000028,98.3334960000002,175.38476599999922,-61.92309599999999,54.74365200000011,74.10253900000043,98.20507799999996,-7.179442999999992,41.025878999999804,134.10253900000043,6.153809000000365,117.94873000000007,80.0,-53.20507799999996
350,41.9228520000006,115.12841800000024,183.84619099999964,-47.435790999999426,70.25634799999989,73.7177729999994,105.25634799999989,6.666503999999804,57.05126999999993,144.10253900000043,16.794922000000042,121.79492200000004,96.53857400000015,-41.53857400000015
351,42.82031300000017,127.56396500000028,184.7436520000001,-42.564209000000574,75.25634799999989,71.15380900000036,106.9228520000006,12.43603499999972,65.38476599999922,148.0771479999994,21.025878999999804,125.64111300000059,104.87158199999976,-37.435790999999426
352,37.94873000000007,129.87158199999976,178.84619099999964,-46.92309599999999,67.69238299999961,67.56396500000028,103.3334960000002,10.0,62.94873000000007,146.0258789999998,21.025878999999804,127.56396500000028,104.10253900000043,-40.25634799999989
353,31.282227000000603,121.79492200000004,170.12841800000024,-55.25634799999989,54.48730499999965,63.46142599999985,96.6665039999998,2.3076170000003913,51.666503999999804,139.3588869999994,20.128418000000238,126.53857400000015,97.82031300000017,-46.53857400000015
354,25.769043000000238,108.9741210000002,162.6923829999996,-61.79492200000004,43.7177729999994,59.102539000000434,89.87158199999976,-7.051270000000386,37.17968800000017,129.87158199999976,19.74365200000011,122.82031300000017,90.64111300000059,-53.07690400000001
355,22.82031300000017,98.20507799999996,158.9741210000002,-64.61547900000005,38.974121000000196,55.12841800000024,84.48730499999965,-14.61547900000005,25.769043000000238,118.9741210000002,19.230956999999762,118.0771479999994,85.51269500000035,-57.82055700000001
356,23.077147999999397,94.61523400000078,158.58984400000008,-64.48706099999981,38.974121000000196,53.589844000000085,82.43603499999972,-17.820557000000008,21.538574000000153,109.74365200000011,17.17968800000017,114.61523400000078,83.0771479999994,-59.61547900000005
357,26.666503999999804,99.35888699999941,160.6411130000006,-60.76928699999962,43.846190999999635,56.410155999999915,85.64111300000059,-14.61547900000005,25.641113000000587,106.9228520000006,15.641113000000587,113.84619099999964,83.3334960000002,-57.948729999999614
358,33.20507799999996,110.25634799999989,163.84619099999964,-51.66674799999964,55.38476599999922,63.20507799999996,93.9741210000002,-5.512939000000188,35.51269500000035,113.3334960000002,18.333496000000196,116.53857400000015,87.43603499999972,-53.20507799999996
359,39.23095699999976,121.0258789999998,166.6665039999998,-37.948729999999614,72.30761700000039,70.25634799999989,104.10253900000043,5.641113000000587,45.64111300000059,125.51269500000035,27.05126999999993,120.38476599999922,94.35888699999941,-48.33325200000036
360,38.846190999999635,124.23095699999976,167.17968800000017,-25.25634799999989,86.41015599999992,73.0771479999994,109.23095699999976,11.922852000000603,49.61523400000078,134.48730499999965,37.43603499999972,122.43603499999972,100.25634799999989,-47.564209000000574
361,28.205077999999958,117.17968800000017,164.7436520000001,-21.153809000000365,86.79492200000004,69.74365200000011,105.64111300000059,8.717772999999397,44.35888699999941,133.7177729999994,41.79492200000004,120.51269500000035,99.87158199999976,-52.69238299999961
362,9.871581999999762,105.0,161.2822270000006,-28.461425999999847,69.74365200000011,62.56396500000028,95.38476599999922,-2.6923829999996087,32.56396500000028,124.61523400000078,36.9228520000006,116.41015599999992,91.6665039999998,-61.79492200000004
363,-7.051270000000386,97.17968800000017,160.51269500000035,-42.17944299999999,44.48730499999965,56.153809000000365,85.76904300000024,-14.743652000000111,21.666503999999804,115.64111300000059,26.153809000000365,113.7177729999994,79.10253900000043,-69.8718259999996
364,-13.846190999999635,98.9741210000002,164.61523400000078,-53.846190999999635,27.17968800000017,53.333496000000196,83.0771479999994,-19.74365200000011,18.077147999999397,113.58984400000008,17.17968800000017,114.23095699999976,68.84619099999964,-72.05127000000039
365,-8.076904000000013,108.3334960000002,171.53857400000015,-56.53857400000015,29.230956999999762,53.333496000000196,87.30761700000039,-15.0,23.077147999999397,118.84619099999964,15.256347999999889,116.53857400000015,66.0258789999998,-67.43579099999943
366,5.641113000000587,118.7177729999994,176.9228520000006,-49.48706099999981,48.846190999999635,54.35888699999941,93.3334960000002,-4.487060999999812,32.43603499999972,125.38476599999922,19.615234000000783,117.17968800000017,70.89746099999957,-58.71801800000003
367,19.358886999999413,124.48730499999965,177.56396500000028,-37.17944299999999,71.15380900000036,55.12841800000024,95.64111300000059,4.743652000000111,39.61523400000078,127.17968800000017,25.25634799999989,114.48730499999965,78.58984400000008,-51.41015600000037
368,26.922852000000603,124.23095699999976,173.0771479999994,-25.641113000000132,80.51269500000035,55.64111300000059,93.20507799999996,8.205077999999958,41.025878999999804,123.20507799999996,27.69238299999961,109.74365200000011,83.7177729999994,-49.74365200000011
369,27.17968800000017,120.38476599999922,166.2822270000006,-18.846190999999635,72.43603499999972,57.17968800000017,89.10253900000043,6.025878999999804,38.0771479999994,118.46142599999985,26.538574000000153,106.2822270000006,85.0,-53.71801800000003
370,24.230956999999762,117.05126999999993,161.9228520000006,-16.28198199999997,57.17968800000017,59.87158199999976,87.94873000000007,2.9487300000000687,35.64111300000059,119.74365200000011,26.025878999999804,107.43603499999972,85.51269500000035,-58.58984399999963
371,23.589844000000085,116.9228520000006,162.6923829999996,-14.487060999999812,49.48730499999965,62.30761700000039,91.2822270000006,4.102539000000434,37.94873000000007,129.48730499999965,30.25634799999989,113.20507799999996,88.58984400000008,-58.974365000000034
372,26.282227000000603,118.84619099999964,166.79492200000004,-12.948729999999614,53.589844000000085,62.56396500000028,96.2822270000006,9.230956999999762,43.589844000000085,141.2822270000006,37.17968800000017,119.48730499999965,92.05126999999993,-54.48706099999981
373,27.69238299999961,118.84619099999964,169.3588869999994,-14.743652000000111,60.12841800000024,59.48730499999965,97.56396500000028,12.56396500000028,46.153809000000365,143.20507799999996,39.102539000000434,121.0258789999998,89.48730499999965,-50.0
374,23.333496000000196,115.38476599999922,167.82031300000017,-22.051270000000386,58.46142599999985,54.23095699999976,93.0771479999994,9.615234000000783,40.897460999999566,129.23095699999976,30.384765999999217,116.53857400000015,77.17968800000017,-50.89746100000002
375,15.0,111.6665039999998,164.3588869999994,-31.025634999999966,47.94873000000007,50.25634799999989,85.38476599999922,1.4101559999999154,29.74365200000011,106.0258789999998,13.846190999999635,109.61523400000078,60.64111300000059,-57.69238299999961
376,8.333496000000196,112.05126999999993,162.94873000000007,-35.25634799999989,36.666503999999804,49.87158199999976,79.74365200000011,-6.281981999999971,19.358886999999413,88.7177729999994,-0.38476599999921746,105.51269500000035,50.0,-66.28198199999997
377,6.282227000000603,115.38476599999922,165.38476599999922,-32.17944299999999,31.282227000000603,51.666503999999804,79.23095699999976,-10.512939000000188,14.230956999999762,87.43603499999972,-4.61547900000005,106.2822270000006,51.53857400000015,-72.17944299999999
378,6.922852000000603,115.89746099999957,169.10253900000043,-26.025634999999966,31.025878999999804,52.82031300000017,82.17968800000017,-12.564209000000574,13.333496000000196,99.23095699999976,0.256347999999889,109.74365200000011,61.2822270000006,-73.58984399999963
379,7.179688000000169,110.76904300000024,170.76904300000024,-21.794922000000042,31.538574000000153,52.56396500000028,85.25634799999989,-15.1281740000004,12.692382999999609,111.2822270000006,7.692382999999609,112.56396500000028,70.89746099999957,-70.89746100000002
380,7.820313000000169,104.23095699999976,169.61523400000078,-19.74365200000011,31.410155999999915,52.43603499999972,86.79492200000004,-16.923095999999987,11.025878999999804,113.46142599999985,11.922852000000603,112.69238299999961,74.61523400000078,-65.38452099999995
381,12.56396500000028,104.87158199999976,168.0771479999994,-15.256347999999889,33.589844000000085,54.61523400000078,88.58984400000008,-14.358886999999868,11.025878999999804,106.15380900000036,12.948730000000069,111.15380900000036,73.7177729999994,-58.846190999999635
382,21.538574000000153,115.38476599999922,167.94873000000007,-5.38452099999995,40.76904300000024,59.23095699999976,91.53857400000015,-6.538574000000153,15.128418000000238,97.69238299999961,14.358886999999413,110.25634799999989,71.9228520000006,-53.71801800000003
383,28.589844000000085,128.46142599999985,168.84619099999964,5.769043000000238,50.64111300000059,63.46142599999985,93.20507799999996,1.2822270000006029,20.897460999999566,94.74365200000011,17.56396500000028,110.64111300000059,70.0,-52.82055700000001
