,EEG.AF3,EEG.F7,EEG.F3,EEG.FC5,EEG.T7,EEG.P7,EEG.O1,EEG.O2,EEG.P8,EEG.T8,EEG.FC6,EEG.F4,EEG.F8,EEG.AF4
0,119.48730499999965,114.23095699999976,101.9228520000006,176.6665039999998,107.94873000000007,115.76904300000024,107.30761700000039,106.79492200000004,100.51269500000035,99.87158199999976,110.64111300000059,102.69238299999961,83.46142599999985,106.0258789999998
1,119.48730499999965,117.05126999999993,103.84619099999964,180.89746099999957,113.84619099999964,115.89746099999957,110.12841800000024,111.79492200000004,101.41015599999992,99.48730499999965,111.9228520000006,101.79492200000004,85.38476599999922,105.38476599999922
2,115.89746099999957,116.0258789999998,100.25634799999989,181.41015599999992,114.87158199999976,115.51269500000035,110.0,113.0771479999994,101.79492200000004,96.79492200000004,108.58984400000008,101.41015599999992,85.38476599999922,103.58984400000008
3,110.12841800000024,110.89746099999957,92.56396500000028,177.3076170000004,110.38476599999922,115.64111300000059,106.15380900000036,109.74365200000011,100.76904300000024,94.23095699999976,102.69238299999961,100.51269500000035,84.35888699999941,101.41015599999992
4,104.74365200000011,103.84619099999964,85.12841800000024,170.76904300000024,103.3334960000002,116.41015599999992,101.15380900000036,104.61523400000078,99.48730499999965,93.7177729999994,98.0771479999994,98.20507799999996,83.20507799999996,100.51269500000035
5,101.15380900000036,98.46142599999985,81.15380900000036,165.51269500000035,97.82031300000017,117.30761700000039,98.46142599999985,102.05126999999993,99.23095699999976,95.76904300000024,97.43603499999972,94.35888699999941,82.82031300000017,100.25634799999989
6,99.10253900000043,97.56396500000028,81.0258789999998,163.20507799999996,96.9228520000006,117.43603499999972,99.10253900000043,103.84619099999964,100.64111300000059,98.84619099999964,100.0,89.74365200000011,83.3334960000002,98.9741210000002
7,97.82031300000017,101.79492200000004,82.43603499999972,163.46142599999985,100.51269500000035,116.6665039999998,101.2822270000006,108.20507799999996,102.69238299999961,101.53857400000015,102.30761700000039,85.89746099999957,84.10253900000043,95.76904300000024
8,97.82031300000017,108.7177729999994,82.82031300000017,165.2563479999999,105.38476599999922,116.0258789999998,102.56396500000028,111.79492200000004,103.9741210000002,102.69238299999961,102.17968800000017,85.12841800000024,85.0,92.94873000000007
9,100.38476599999922,113.58984400000008,82.05126999999993,167.94873000000007,108.20507799999996,116.15380900000036,102.30761700000039,112.56396500000028,103.7177729999994,102.05126999999993,100.64111300000059,87.82031300000017,86.0258789999998,93.58984400000008
10,105.38476599999922,113.0771479999994,81.79492200000004,171.2822270000006,107.17968800000017,117.05126999999993,102.17968800000017,110.76904300000024,102.56396500000028,100.51269500000035,99.74365200000011,92.69238299999961,87.56396500000028,98.84619099999964
11,110.64111300000059,109.10253900000043,83.58984400000008,174.23095699999976,103.3334960000002,117.43603499999972,103.9741210000002,108.46142599999985,101.6665039999998,99.10253900000043,101.15380900000036,97.30761700000039,90.25634799999989,104.87158199999976
12,113.0771479999994,108.9741210000002,87.30761700000039,176.15380900000036,100.51269500000035,116.41015599999992,107.30761700000039,107.56396500000028,101.53857400000015,99.35888699999941,103.46142599999985,99.48730499999965,93.84619099999964,107.17968800000017
13,113.20507799999996,117.69238299999961,91.79492200000004,176.79492200000004,102.69238299999961,114.23095699999976,110.64111300000059,108.58984400000008,102.56396500000028,102.30761700000039,105.51269500000035,99.35888699999941,98.3334960000002,104.87158199999976
14,115.38476599999922,130.89746099999957,95.51269500000035,176.9228520000006,110.25634799999989,111.41015599999992,112.30761700000039,110.89746099999957,104.10253900000043,107.17968800000017,107.82031300000017,99.10253900000043,105.0,103.0771479999994
15,125.89746099999957,136.53857400000015,98.84619099999964,176.6665039999998,118.9741210000002,108.84619099999964,111.79492200000004,113.7177729999994,105.38476599999922,111.6665039999998,112.82031300000017,101.15380900000036,113.9741210000002,108.9741210000002
16,147.82031300000017,126.6665039999998,102.69238299999961,175.51269500000035,123.3334960000002,107.43603499999972,109.48730499999965,116.15380900000036,105.76904300000024,112.94873000000007,122.69238299999961,106.6665039999998,123.58984400000008,126.6665039999998
17,177.94873000000007,108.46142599999985,108.46142599999985,173.58984400000008,120.51269500000035,107.30761700000039,106.15380900000036,117.56396500000028,104.87158199999976,110.12841800000024,136.2822270000006,113.84619099999964,132.94873000000007,152.56396500000028
18,206.2822270000006,99.23095699999976,115.64111300000059,172.6923829999996,113.0771479999994,108.20507799999996,102.94873000000007,116.9228520000006,103.20507799999996,104.74365200000011,149.3588869999994,119.48730499999965,145.2563479999999,175.89746099999957
19,223.0771479999994,111.2822270000006,122.30761700000039,173.84619099999964,106.79492200000004,108.84619099999964,101.41015599999992,114.35888699999941,101.79492200000004,99.48730499999965,158.0771479999994,121.0258789999998,164.61523400000078,185.89746099999957
20,225.89746099999957,140.12841800000024,126.79492200000004,177.17968800000017,106.0258789999998,108.3334960000002,102.56396500000028,111.79492200000004,101.41015599999992,97.43603499999972,162.3076170000004,119.10253900000043,192.94873000000007,181.9228520000006
21,222.05126999999993,168.58984400000008,129.23095699999976,181.2822270000006,110.38476599999922,106.6665039999998,106.15380900000036,111.0258789999998,102.05126999999993,99.61523400000078,165.51269500000035,116.9228520000006,227.43603499999972,175.2563479999999
22,221.2822270000006,183.20507799999996,131.41015599999992,184.87158199999976,115.0,104.23095699999976,109.87158199999976,112.56396500000028,102.94873000000007,103.9741210000002,171.15380900000036,117.17968800000017,262.82031300000017,181.9228520000006
23,228.9741210000002,185.12841800000024,135.0,188.3334960000002,114.74365200000011,101.9228520000006,110.76904300000024,114.23095699999976,102.56396500000028,106.53857400000015,180.51269500000035,120.51269500000035,293.84619099999964,209.87158199999976
24,244.61523400000078,187.43603499999972,141.0258789999998,194.10253900000043,107.94873000000007,100.12841800000024,107.94873000000007,113.0771479999994,100.51269500000035,104.87158199999976,191.53857400000015,125.38476599999922,316.4101559999999,253.7177729999994
25,265.51269500000035,201.6665039999998,150.6411130000006,205.76904300000024,99.23095699999976,99.35888699999941,103.3334960000002,108.20507799999996,97.82031300000017,100.76904300000024,201.79492200000004,130.6411130000006,328.3334960000002,300.89746099999957
26,290.6411130000006,227.82031300000017,164.87158199999976,226.41015599999992,96.53857400000015,99.87158199999976,100.0,102.43603499999972,97.30761700000039,98.9741210000002,209.61523400000078,135.89746099999957,329.7436520000001,340.3847659999992
27,318.3334960000002,256.0258789999998,182.82031300000017,255.51269500000035,103.9741210000002,101.0258789999998,100.51269500000035,100.0,99.87158199999976,102.82031300000017,215.2563479999999,141.53857400000015,322.5639650000003,367.6923829999996
28,343.0771479999994,275.2563479999999,200.38476599999922,287.5639650000003,117.82031300000017,101.79492200000004,104.35888699999941,101.9228520000006,103.46142599999985,110.89746099999957,218.46142599999985,146.41015599999992,312.3076170000004,382.5639650000003
29,355.3847659999992,281.6665039999998,212.05126999999993,314.3588869999994,129.61523400000078,101.0258789999998,108.58984400000008,105.51269500000035,104.35888699999941,117.82031300000017,219.3588869999994,148.3334960000002,306.9228520000006,385.3847659999992
30,350.3847659999992,278.84619099999964,214.87158199999976,330.89746099999957,133.20507799999996,98.58984400000008,109.48730499999965,107.05126999999993,100.51269500000035,118.7177729999994,217.6923829999996,146.53857400000015,313.5898440000001,377.82031300000017
31,333.9741210000002,274.23095699999976,210.89746099999957,338.5898440000001,128.9741210000002,95.76904300000024,106.0258789999998,104.87158199999976,94.23095699999976,113.3334960000002,214.23095699999976,142.6923829999996,333.0771479999994,365.51269500000035
32,321.4101559999999,272.94873000000007,207.3076170000004,343.7177729999994,122.94873000000007,94.61523400000078,100.76904300000024,101.0258789999998,89.35888699999941,105.38476599999922,210.89746099999957,140.12841800000024,360.2563479999999,357.94873000000007
33,326.15380900000036,277.3076170000004,210.12841800000024,353.0771479999994,120.12841800000024,96.15380900000036,97.43603499999972,98.0771479999994,88.84619099999964,99.10253900000043,208.58984400000008,141.0258789999998,390.51269500000035,361.2822270000006
34,348.3334960000002,287.94873000000007,220.38476599999922,368.5898440000001,121.15380900000036,98.9741210000002,98.3334960000002,97.05126999999993,91.79492200000004,97.17968800000017,207.94873000000007,145.12841800000024,428.0771479999994,372.82031300000017
35,375.51269500000035,306.15380900000036,233.46142599999985,387.17968800000017,122.82031300000017,101.2822270000006,101.6665039999998,97.05126999999993,94.61523400000078,99.10253900000043,208.0771479999994,149.87158199999976,487.6923829999996,382.4360349999997
36,392.05126999999993,331.0258789999998,243.0771479999994,402.94873000000007,122.43603499999972,101.79492200000004,103.84619099999964,96.2822270000006,93.9741210000002,101.79492200000004,208.7177729999994,152.6923829999996,591.0258789999998,381.4101559999999
37,392.5639650000003,358.3334960000002,245.76904300000024,412.05126999999993,119.87158199999976,100.89746099999957,102.82031300000017,93.84619099999964,89.61523400000078,102.82031300000017,210.38476599999922,152.82031300000017,757.0512699999999,369.23095699999976
38,384.48730499999965,383.84619099999964,242.94873000000007,414.6152340000008,117.43603499999972,99.35888699999941,99.87158199999976,90.38476599999922,84.48730499999965,101.0258789999998,214.10253900000043,151.0258789999998,991.9228520000006,354.6152340000008
39,382.05126999999993,411.2822270000006,239.87158199999976,414.87158199999976,117.17968800000017,98.7177729999994,97.43603499999972,87.56396500000028,82.17968800000017,98.20507799999996,220.51269500000035,148.46142599999985,1282.6923829999996,347.94873000000007
40,393.84619099999964,452.94873000000007,241.2822270000006,418.84619099999964,120.51269500000035,99.48730499999965,96.53857400000015,86.41015599999992,84.10253900000043,96.9228520000006,229.23095699999976,146.6665039999998,1601.5385740000002,354.3588869999994
41,417.5639650000003,522.0512699999999,248.20507799999996,430.3847659999992,126.41015599999992,101.2822270000006,96.6665039999998,86.2822270000006,88.3334960000002,98.84619099999964,239.10253900000043,146.2822270000006,1919.4873049999997,369.6152340000008
42,442.82031300000017,620.7690430000002,258.9741210000002,449.6152340000008,132.82031300000017,102.43603499999972,97.17968800000017,86.79492200000004,92.43603499999972,103.3334960000002,248.9741210000002,147.82031300000017,2217.6923829999996,384.6152340000008
43,460.12841800000024,738.9741210000002,270.3847659999992,473.20507799999996,137.82031300000017,102.30761700000039,98.7177729999994,89.10253900000043,96.0258789999998,108.84619099999964,258.46142599999985,151.15380900000036,2490.8974609999996,392.3076170000004
44,468.0771479999994,862.6923829999996,281.53857400000015,497.5639650000003,141.2822270000006,102.05126999999993,102.43603499999972,94.61523400000078,100.64111300000059,113.9741210000002,267.82031300000017,155.76904300000024,2740.8974609999996,392.82031300000017
45,471.53857400000015,982.8203130000002,292.94873000000007,520.0,144.61523400000078,103.3334960000002,107.69238299999961,102.30761700000039,107.82031300000017,118.46142599999985,277.4360349999997,160.2563479999999,2968.4614260000008,392.05126999999993
46,476.0258789999998,1096.1538090000004,304.7436520000001,539.7436520000001,148.7177729999994,105.76904300000024,112.30761700000039,107.94873000000007,115.51269500000035,122.05126999999993,286.79492200000004,163.3334960000002,3166.1538090000004,394.6152340000008
47,481.2822270000006,1201.1538090000004,314.10253900000043,555.2563479999999,151.6665039999998,106.79492200000004,113.3334960000002,107.69238299999961,118.9741210000002,123.20507799999996,294.6152340000008,164.23095699999976,3320.6411129999997,398.5898440000001
48,482.5639650000003,1296.2822270000006,317.17968800000017,565.3847659999992,150.89746099999957,103.84619099999964,109.48730499999965,101.15380900000036,115.25634799999989,120.89746099999957,299.48730499999965,163.20507799999996,3421.794922,397.94873000000007
49,477.17968800000017,1379.8715819999998,313.9741210000002,570.3847659999992,146.41015599999992,97.30761700000039,102.82031300000017,92.43603499999972,106.0258789999998,115.89746099999957,301.9228520000006,161.6665039999998,3471.9228519999997,391.2822270000006
50,469.3588869999994,1454.4873049999997,309.23095699999976,573.7177729999994,141.53857400000015,90.64111300000059,97.30761700000039,87.56396500000028,98.3334960000002,112.17968800000017,305.3847659999992,160.2563479999999,3487.4360349999997,384.6152340000008
51,466.53857400000015,1525.7690430000002,309.23095699999976,580.5126950000003,139.7436520000001,88.0771479999994,96.15380900000036,89.74365200000011,97.82031300000017,113.46142599999985,312.82031300000017,158.9741210000002,3490.128418000001,386.15380900000036
52,470.2563479999999,1599.3588869999994,316.0258789999998,592.5639650000003,141.9228520000006,91.0258789999998,99.35888699999941,97.17968800000017,105.12841800000024,120.12841800000024,323.5898440000001,156.9228520000006,3497.1796879999993,395.76904300000024
53,472.5639650000003,1677.94873,325.2563479999999,606.794922,146.0258789999998,97.05126999999993,103.84619099999964,104.23095699999976,115.64111300000059,128.0771479999994,332.5639650000003,153.3334960000002,3512.6923829999996,403.0771479999994
54,463.84619099999964,1760.5126950000003,330.51269500000035,618.0771479999994,149.87158199999976,102.30761700000039,106.15380900000036,106.6665039999998,123.0771479999994,132.56396500000028,334.7436520000001,149.3588869999994,3528.589844,397.3076170000004
55,443.84619099999964,1845.0,329.7436520000001,624.4873049999997,152.17968800000017,103.84619099999964,105.38476599999922,104.23095699999976,124.48730499999965,131.53857400000015,330.2563479999999,147.17968800000017,3534.743651999999,378.46142599999985
56,422.3076170000004,1931.0258789999998,325.76904300000024,628.205078,152.82031300000017,101.9228520000006,102.94873000000007,100.0,120.38476599999922,126.41015599999992,323.7177729999994,148.0771479999994,3527.6923829999996,358.20507799999996
57,411.0258789999998,2017.8203130000002,324.3588869999994,633.8461909999996,151.2822270000006,98.84619099999964,100.89746099999957,97.43603499999972,114.23095699999976,120.89746099999957,320.76904300000024,150.51269500000035,3513.9741209999993,349.7436520000001
58,414.48730499999965,2101.538574,328.7177729999994,643.7177729999994,147.82031300000017,97.17968800000017,100.64111300000059,97.30761700000039,110.0,118.84619099999964,324.48730499999965,152.3076170000004,3503.3334959999993,357.3076170000004
59,427.05126999999993,2175.8974609999996,337.4360349999997,656.4101559999999,144.61523400000078,97.69238299999961,101.9228520000006,98.84619099999964,110.12841800000024,121.41015599999992,334.48730499999965,152.82031300000017,3500.5126950000003,374.48730499999965
60,436.0258789999998,2235.256348,346.4101559999999,667.9487300000001,144.10253900000043,99.48730499999965,103.3334960000002,100.25634799999989,115.25634799999989,127.05126999999993,346.79492200000004,152.94873000000007,3502.94873,388.9741210000002
61,430.12841800000024,2278.7177729999994,351.2822270000006,674.2309569999998,147.3076170000004,100.64111300000059,104.23095699999976,101.15380900000036,123.3334960000002,132.6923829999996,356.6665039999998,153.9741210000002,3505.128418000001,390.2563479999999
62,407.05126999999993,2311.1538090000004,350.3847659999992,673.3334960000002,152.94873000000007,100.25634799999989,104.61523400000078,101.53857400000015,131.0258789999998,135.51269500000035,360.51269500000035,155.51269500000035,3504.743651999999,376.53857400000015
63,374.87158199999976,2340.384765999999,345.51269500000035,667.0512699999999,158.46142599999985,99.23095699999976,104.74365200000011,102.05126999999993,134.61523400000078,135.2563479999999,358.0771479999994,156.2822270000006,3502.8203129999993,356.2822270000006
64,348.7177729999994,2371.9228520000006,340.3847659999992,660.0,161.15380900000036,98.46142599999985,104.74365200000011,102.43603499999972,132.56396500000028,133.7177729999994,352.6923829999996,155.2563479999999,3501.9228519999997,343.3334960000002
65,339.87158199999976,2404.615234000001,338.5898440000001,657.4360349999997,159.10253900000043,98.20507799999996,104.48730499999965,101.79492200000004,126.53857400000015,132.6923829999996,349.10253900000043,152.82031300000017,3502.4360349999997,346.2822270000006
66,347.5639650000003,2433.461426,341.0258789999998,661.2822270000006,151.9228520000006,97.82031300000017,103.84619099999964,99.74365200000011,120.38476599999922,132.3076170000004,350.51269500000035,150.12841800000024,3503.0771480000003,361.53857400000015
67,358.7177729999994,2456.410156,345.89746099999957,669.2309569999998,143.7177729999994,97.56396500000028,102.56396500000028,97.30761700000039,117.94873000000007,131.53857400000015,355.51269500000035,148.84619099999964,3502.8203129999993,375.76904300000024
68,358.46142599999985,2478.205078,350.89746099999957,676.4101559999999,140.12841800000024,98.20507799999996,100.89746099999957,96.6665039999998,120.76904300000024,130.51269500000035,360.2563479999999,148.9741210000002,3501.794922,377.05126999999993
69,343.84619099999964,2505.1284180000002,354.87158199999976,679.3588869999994,143.46142599999985,100.12841800000024,99.35888699999941,98.46142599999985,126.41015599999992,130.89746099999957,362.3076170000004,150.12841800000024,3501.0258790000007,365.76904300000024
70,325.12841800000024,2537.820313,358.3334960000002,677.9487300000001,150.2563479999999,102.17968800000017,98.58984400000008,101.9228520000006,130.89746099999957,133.0771479999994,361.9228520000006,151.41015599999992,3501.0258790000007,352.94873000000007
71,314.87158199999976,2570.384765999999,360.51269500000035,675.1284180000002,153.46142599999985,102.69238299999961,98.84619099999964,104.74365200000011,131.0258789999998,135.0,360.2563479999999,152.17968800000017,3500.8974609999996,348.5898440000001
72,316.0258789999998,2595.5126950000003,360.6411130000006,673.4614259999998,148.9741210000002,101.2822270000006,99.74365200000011,105.0,126.41015599999992,133.46142599999985,357.5639650000003,151.53857400000015,3498.7177730000003,352.94873000000007
73,322.4360349999997,2610.384765999999,358.46142599999985,674.1025390000004,139.23095699999976,99.10253900000043,100.64111300000059,102.05126999999993,119.48730499999965,127.82031300000017,353.46142599999985,149.87158199999976,3491.5385739999992,359.48730499999965
74,326.9228520000006,2616.5385739999992,356.2822270000006,677.0512699999999,131.0258789999998,97.82031300000017,101.0258789999998,97.82031300000017,113.9741210000002,120.89746099999957,348.9741210000002,148.3334960000002,3477.8203129999993,362.94873000000007
75,326.2822270000006,2619.743651999999,356.15380900000036,681.0258789999998,130.38476599999922,98.58984400000008,101.2822270000006,95.64111300000059,112.69238299999961,116.79492200000004,347.05126999999993,148.46142599999985,3460.8974609999996,362.4360349999997
76,321.0258789999998,2628.205078,358.5898440000001,684.7436520000001,137.82031300000017,101.0258789999998,101.79492200000004,97.56396500000028,116.15380900000036,118.20507799999996,349.10253900000043,149.87158199999976,3447.1796879999993,359.10253900000043
77,313.9741210000002,2648.205078,362.4360349999997,687.6923829999996,149.10253900000043,103.7177729999994,102.94873000000007,103.46142599999985,122.56396500000028,124.61523400000078,353.9741210000002,151.2822270000006,3442.3076170000004,354.10253900000043
78,309.87158199999976,2678.9741209999993,366.0258789999998,691.2822270000006,158.46142599999985,105.0,104.48730499999965,110.38476599999922,129.3588869999994,132.56396500000028,358.7177729999994,152.05126999999993,3444.1025390000004,349.23095699999976
79,310.89746099999957,2710.769043000001,368.46142599999985,696.1538090000004,162.43603499999972,104.61523400000078,106.15380900000036,115.0,133.9741210000002,137.56396500000028,360.12841800000024,152.43603499999972,3443.3334959999993,347.17968800000017
80,313.3334960000002,2730.384765999999,368.7177729999994,700.0,159.7436520000001,103.58984400000008,106.9228520000006,114.61523400000078,133.9741210000002,136.2822270000006,356.0258789999998,152.17968800000017,3430.6411129999997,347.3076170000004
81,310.76904300000024,2730.8974609999996,366.15380900000036,698.5898440000001,151.9228520000006,102.56396500000028,105.51269500000035,109.48730499999965,128.3334960000002,128.84619099999964,346.79492200000004,150.6411130000006,3404.230956999999,347.05126999999993
82,301.79492200000004,2717.94873,361.6665039999998,690.6411130000006,142.6923829999996,102.05126999999993,101.6665039999998,102.69238299999961,119.35888699999941,119.48730499999965,336.9228520000006,147.94873000000007,3372.3076170000004,344.7436520000001
83,292.82031300000017,2706.6665040000007,358.84619099999964,681.0258789999998,136.6665039999998,101.9228520000006,97.56396500000028,97.82031300000017,112.43603499999972,113.46142599999985,332.3076170000004,146.41015599999992,3346.0258790000007,342.6923829999996
84,290.76904300000024,2708.9741209999993,361.4101559999999,678.0771479999994,137.56396500000028,102.17968800000017,96.41015599999992,97.69238299999961,112.43603499999972,114.87158199999976,335.6411130000006,147.82031300000017,3331.2822269999997,343.5898440000001
85,295.51269500000035,2724.230956999999,369.7436520000001,685.6411130000006,145.76904300000024,102.94873000000007,100.0,101.79492200000004,120.25634799999989,122.43603499999972,343.3334960000002,152.05126999999993,3325.6411129999997,347.3076170000004
86,299.23095699999976,2739.743651999999,378.9741210000002,698.5898440000001,158.84619099999964,103.58984400000008,107.17968800000017,106.79492200000004,130.51269500000035,130.76904300000024,347.5639650000003,156.6665039999998,3321.410156,349.3588869999994
87,294.3588869999994,2742.8203129999993,383.46142599999985,706.4101559999999,171.0258789999998,103.84619099999964,113.58984400000008,108.9741210000002,135.76904300000024,133.0771479999994,342.5639650000003,158.46142599999985,3311.2822269999997,346.6665039999998
88,281.15380900000036,2730.8974609999996,380.89746099999957,702.4360349999997,177.3076170000004,103.46142599999985,115.76904300000024,107.43603499999972,132.94873000000007,126.6665039999998,329.7436520000001,156.53857400000015,3292.5639650000003,339.7436520000001
89,266.9228520000006,2711.1538090000004,373.84619099999964,688.5898440000001,174.61523400000078,103.20507799999996,112.82031300000017,104.10253900000043,125.25634799999989,114.74365200000011,316.6665039999998,151.9228520000006,3267.05127,331.6665039999998
90,259.3588869999994,2691.5385739999992,366.9228520000006,673.205078,164.48730499999965,103.84619099999964,106.53857400000015,100.89746099999957,118.20507799999996,103.7177729999994,309.87158199999976,147.6923829999996,3238.9741209999993,326.15380900000036
91,261.2822270000006,2675.384765999999,363.9741210000002,663.8461909999996,152.94873000000007,105.12841800000024,100.25634799999989,98.58984400000008,114.23095699999976,98.9741210000002,310.12841800000024,146.0258789999998,3211.0258790000007,325.51269500000035
92,270.76904300000024,2662.6923829999996,366.4101559999999,663.8461909999996,146.0258789999998,107.30761700000039,97.05126999999993,95.76904300000024,111.9228520000006,101.79492200000004,313.5898440000001,147.56396500000028,3183.4614260000008,330.51269500000035
93,283.20507799999996,2653.4614260000008,372.3076170000004,670.6411130000006,147.05126999999993,110.38476599999922,97.43603499999972,92.94873000000007,109.48730499999965,108.84619099999964,316.4101559999999,150.76904300000024,3156.0258790000007,339.7436520000001
94,292.3076170000004,2647.6923829999996,378.20507799999996,678.4614259999998,154.48730499999965,113.58984400000008,100.25634799999989,91.2822270000006,107.69238299999961,114.87158199999976,317.3076170000004,153.58984400000008,3128.7177730000003,348.0771479999994
95,292.94873000000007,2643.3334959999993,380.3847659999992,681.6665039999998,163.84619099999964,115.0,103.20507799999996,92.30761700000039,108.0771479999994,116.0258789999998,316.53857400000015,153.84619099999964,3101.5385739999992,348.84619099999964
96,284.10253900000043,2636.2822269999997,377.05126999999993,677.6923829999996,170.12841800000024,113.3334960000002,104.23095699999976,94.87158199999976,110.64111300000059,112.30761700000039,313.7177729999994,151.41015599999992,3072.94873,340.12841800000024
97,270.76904300000024,2622.1796879999993,369.87158199999976,668.4614259999998,171.2822270000006,109.87158199999976,103.0771479999994,97.56396500000028,113.3334960000002,105.89746099999957,308.3334960000002,147.94873000000007,3040.0,326.9228520000006
98,260.76904300000024,2599.743652,362.5639650000003,658.4614259999998,168.46142599999985,106.79492200000004,101.0258789999998,98.84619099999964,114.35888699999941,100.12841800000024,301.15380900000036,146.53857400000015,3000.384765999999,317.94873000000007
99,258.0771479999994,2572.05127,357.94873000000007,651.9228520000006,164.23095699999976,105.89746099999957,99.48730499999965,98.84619099999964,113.46142599999985,97.69238299999961,294.6152340000008,147.43603499999972,2955.769043000001,316.9228520000006
100,260.2563479999999,2545.6411130000006,357.17968800000017,650.1284180000002,161.0258789999998,106.79492200000004,99.23095699999976,98.58984400000008,111.9228520000006,99.35888699999941,290.3847659999992,148.84619099999964,2911.410156,320.12841800000024
101,262.17968800000017,2525.7690430000002,359.23095699999976,651.2822270000006,159.3588869999994,107.69238299999961,99.35888699999941,98.7177729999994,110.76904300000024,103.20507799999996,288.20507799999996,148.0771479999994,2872.4360349999997,320.6411130000006
102,261.15380900000036,2512.3076170000004,361.6665039999998,652.4360349999997,159.10253900000043,106.6665039999998,99.48730499999965,98.46142599999985,110.64111300000059,105.89746099999957,286.53857400000015,145.0,2838.9741209999993,315.76904300000024
103,258.84619099999964,2498.8461909999996,362.05126999999993,651.794922,159.61523400000078,103.3334960000002,99.74365200000011,96.6665039999998,110.51269500000035,104.10253900000043,284.23095699999976,141.15380900000036,2807.4360349999997,309.10253900000043
104,257.6923829999996,2478.333496,359.6152340000008,648.7177729999994,160.0,98.84619099999964,100.38476599999922,92.69238299999961,108.84619099999964,98.46142599999985,281.15380900000036,138.84619099999964,2773.4614260000008,305.89746099999957
105,257.3076170000004,2449.615234000001,355.12841800000024,643.9741210000002,160.2563479999999,96.15380900000036,101.0258789999998,88.0771479999994,104.74365200000011,92.43603499999972,277.94873000000007,139.10253900000043,2736.0258790000007,308.5898440000001
106,254.61523400000078,2418.974121,350.3847659999992,638.3334960000002,161.15380900000036,97.05126999999993,101.2822270000006,85.64111300000059,99.48730499999965,89.35888699999941,274.48730499999965,140.89746099999957,2696.0258790000007,313.9741210000002
107,247.82031300000017,2393.8461909999996,346.79492200000004,632.4360349999997,162.56396500000028,101.53857400000015,101.2822270000006,86.41015599999992,96.0258789999998,89.35888699999941,270.6411130000006,141.79492200000004,2654.871581999999,316.2822270000006
108,239.10253900000043,2376.666504,344.3588869999994,627.1796880000002,163.84619099999964,107.56396500000028,101.6665039999998,89.61523400000078,96.2822270000006,90.89746099999957,266.53857400000015,139.48730499999965,2613.589844,312.4360349999997
109,233.0771479999994,2362.6923829999996,342.6923829999996,623.205078,164.48730499999965,112.30761700000039,103.3334960000002,93.3334960000002,100.38476599999922,92.56396500000028,263.84619099999964,134.3588869999994,2573.974121,304.3588869999994
110,232.43603499999972,2344.1025390000004,342.3076170000004,620.6411130000006,165.89746099999957,114.10253900000043,107.17968800000017,96.0258789999998,106.15380900000036,95.64111300000059,264.3588869999994,130.38476599999922,2537.5639650000003,297.94873000000007
111,235.0,2316.9228520000006,344.6152340000008,620.1284180000002,170.76904300000024,113.3334960000002,112.43603499999972,98.58984400000008,112.30761700000039,101.15380900000036,269.10253900000043,131.6665039999998,2503.7177729999994,297.17968800000017
112,234.7436520000001,2283.333496,350.12841800000024,621.6665039999998,180.51269500000035,111.9228520000006,117.94873000000007,102.69238299999961,119.10253900000043,109.48730499999965,276.79492200000004,138.9741210000002,2469.4873049999997,301.15380900000036
113,226.53857400000015,2245.8974609999996,356.2822270000006,622.8203130000002,192.05126999999993,111.79492200000004,121.41015599999992,108.7177729999994,126.6665039999998,118.58984400000008,284.10253900000043,148.84619099999964,2430.384765999999,303.7177729999994
114,211.2822270000006,2201.538574,357.6923829999996,617.5639650000003,198.0771479999994,112.94873000000007,120.51269500000035,113.20507799999996,131.53857400000015,123.84619099999964,286.2822270000006,154.61523400000078,2382.179688,298.9741210000002
115,196.6665039999998,2141.410156,349.10253900000043,600.2563479999999,191.6665039999998,114.23095699999976,113.84619099999964,110.64111300000059,127.82031300000017,119.48730499999965,278.7177729999994,151.6665039999998,2321.2822270000006,285.3847659999992
116,193.20507799999996,2059.615234000001,330.12841800000024,570.1284180000002,173.84619099999964,115.0,103.20507799999996,98.46142599999985,112.94873000000007,104.10253900000043,261.9228520000006,140.38476599999922,2244.615234000001,267.82031300000017
117,205.51269500000035,1958.8461909999996,306.4101559999999,533.7177729999994,155.12841800000024,115.38476599999922,93.84619099999964,82.05126999999993,93.0771479999994,82.82031300000017,243.9741210000002,127.56396500000028,2150.7690430000002,253.46142599999985
118,227.05126999999993,1847.6923829999996,287.17968800000017,499.87158199999976,147.94873000000007,115.51269500000035,91.79492200000004,71.53857400000015,80.0,66.15380900000036,234.7436520000001,121.2822270000006,2040.5126950000003,245.76904300000024
119,243.84619099999964,1734.6152340000008,278.0771479999994,472.3076170000004,156.53857400000015,115.38476599999922,98.84619099999964,73.9741210000002,80.89746099999957,63.46142599999985,238.3334960000002,124.35888699999941,1916.0258789999998,242.6923829999996
120,246.41015599999992,1624.2309569999998,277.94873000000007,447.5639650000003,172.94873000000007,115.0,111.41015599999992,87.43603499999972,93.7177729999994,76.15380900000036,248.0771479999994,132.17968800000017,1783.205078,238.3334960000002
121,236.9228520000006,1519.8715819999998,279.7436520000001,418.5898440000001,183.58984400000008,114.87158199999976,122.17968800000017,102.69238299999961,109.23095699999976,96.15380900000036,252.56396500000028,137.17968800000017,1651.794922,228.7177729999994
122,228.0771479999994,1424.4873049999997,275.89746099999957,382.3076170000004,180.0,115.0,125.12841800000024,110.64111300000059,118.7177729999994,110.51269500000035,246.0258789999998,134.87158199999976,1531.5385740000002,214.23095699999976
123,231.9228520000006,1339.2309569999998,263.9741210000002,342.3076170000004,163.3334960000002,115.38476599999922,119.48730499999965,108.20507799999996,118.84619099999964,110.38476599999922,232.43603499999972,127.43603499999972,1427.8203130000002,199.48730499999965
124,251.53857400000015,1262.3076170000004,247.17968800000017,306.0258789999998,142.82031300000017,115.76904300000024,109.35888699999941,99.61523400000078,112.43603499999972,96.9228520000006,221.2822270000006,119.87158199999976,1338.205078,189.10253900000043
125,279.48730499999965,1190.3847659999992,230.89746099999957,279.3588869999994,127.56396500000028,116.0258789999998,100.51269500000035,92.56396500000028,104.87158199999976,79.61523400000078,218.7177729999994,117.05126999999993,1254.743652,185.76904300000024
126,305.51269500000035,1122.3076170000004,218.9741210000002,262.17968800000017,121.2822270000006,116.2822270000006,96.6665039999998,91.41015599999992,100.51269500000035,69.35888699999941,223.9741210000002,119.35888699999941,1171.410156,188.9741210000002
127,324.6152340000008,1060.3847659999992,211.79492200000004,250.38476599999922,121.0258789999998,116.41015599999992,97.56396500000028,95.76904300000024,100.76904300000024,71.6665039999998,229.87158199999976,123.9741210000002,1089.1025390000004,196.0258789999998
128,338.46142599999985,1008.7177729999994,207.6923829999996,238.20507799999996,121.0258789999998,115.89746099999957,100.25634799999989,101.53857400000015,104.35888699999941,84.10253900000043,229.48730499999965,126.6665039999998,1016.1538090000004,204.61523400000078
129,351.6665039999998,970.1284180000002,204.7436520000001,221.2822270000006,118.7177729999994,115.12841800000024,102.05126999999993,105.12841800000024,108.7177729999994,98.0771479999994,221.2822270000006,125.64111300000059,962.3076170000004,212.6923829999996
130,367.6923829999996,943.9741210000002,201.0258789999998,199.23095699999976,116.41015599999992,114.48730499999965,102.56396500000028,105.89746099999957,112.56396500000028,106.53857400000015,210.38476599999922,122.30761700000039,930.5126950000003,218.7177729999994
131,387.05126999999993,925.6411130000006,195.51269500000035,173.3334960000002,117.17968800000017,115.25634799999989,103.3334960000002,106.41015599999992,115.89746099999957,108.20507799999996,203.58984400000008,119.74365200000011,913.5898440000001,221.9228520000006
132,406.4101559999999,908.4614259999998,186.6665039999998,143.46142599999985,120.38476599999922,116.9228520000006,105.12841800000024,107.82031300000017,117.56396500000028,106.0258789999998,202.3076170000004,119.48730499999965,896.6665039999998,219.87158199999976
133,419.3588869999994,886.1538090000004,172.94873000000007,107.69238299999961,120.64111300000059,117.94873000000007,105.89746099999957,107.94873000000007,114.48730499999965,102.94873000000007,200.76904300000024,120.38476599999922,865.0,208.9741210000002
134,421.4101559999999,855.8974609999996,154.48730499999965,66.0258789999998,114.10253900000043,117.43603499999972,103.46142599999985,103.84619099999964,104.74365200000011,98.3334960000002,192.05126999999993,119.61523400000078,813.9741210000002,188.20507799999996
135,415.12841800000024,820.2563479999999,135.89746099999957,24.48730499999965,104.61523400000078,116.15380900000036,98.46142599999985,96.2822270000006,92.69238299999961,92.94873000000007,176.53857400000015,116.2822270000006,751.0258789999998,162.17968800000017
136,409.10253900000043,785.0,124.87158199999976,-6.41015600000037,101.41015599999992,116.53857400000015,95.51269500000035,92.05126999999993,87.69238299999961,91.0258789999998,163.3334960000002,112.69238299999961,689.3588869999994,139.3588869999994
137,410.12841800000024,752.4360349999997,125.64111300000059,-19.61547900000005,110.64111300000059,119.74365200000011,99.35888699999941,97.69238299999961,96.79492200000004,98.3334960000002,160.89746099999957,112.56396500000028,638.0771479999994,126.15380900000036
138,415.6411130000006,718.5898440000001,134.3588869999994,-19.358886999999868,127.69238299999961,124.87158199999976,109.87158199999976,112.94873000000007,116.2822270000006,114.87158199999976,166.79492200000004,116.79492200000004,596.4101559999999,121.41015599999992
139,417.05126999999993,675.5126950000003,139.7436520000001,-19.230713000000378,139.48730499999965,128.9741210000002,120.64111300000059,128.20507799999996,132.56396500000028,131.53857400000015,169.10253900000043,121.79492200000004,558.3334960000002,118.3334960000002
140,407.94873000000007,618.5898440000001,131.79492200000004,-32.051270000000386,134.7436520000001,128.9741210000002,123.7177729999994,132.3076170000004,133.0771479999994,135.6411130000006,157.43603499999972,121.79492200000004,520.5126950000003,110.64111300000059
141,389.7436520000001,551.794922,110.0,-59.48706099999981,114.10253900000043,124.61523400000078,115.76904300000024,121.53857400000015,115.89746099999957,121.41015599999992,133.46142599999985,113.58984400000008,485.12841800000024,97.56396500000028
142,370.51269500000035,483.9741210000002,82.94873000000007,-92.30761700000039,89.61523400000078,118.7177729999994,101.9228520000006,102.82031300000017,91.41015599999992,95.76904300000024,109.10253900000043,99.61523400000078,455.89746099999957,83.7177729999994
143,357.4360349999997,424.6152340000008,62.17968800000017,-116.79492200000004,75.51269500000035,114.87158199999976,91.2822270000006,88.7177729999994,74.35888699999941,74.61523400000078,96.0258789999998,86.15380900000036,431.79492200000004,74.74365200000011
144,352.4360349999997,377.94873000000007,54.48730499999965,-125.38452099999995,78.84619099999964,115.0,90.76904300000024,87.56396500000028,73.84619099999964,71.79492200000004,97.05126999999993,79.10253900000043,408.5898440000001,73.84619099999964
145,352.05126999999993,342.94873000000007,58.589844000000085,-120.64111300000013,95.64111300000059,117.56396500000028,100.51269500000035,99.35888699999941,88.58984400000008,88.20507799999996,105.51269500000035,81.0258789999998,382.5639650000003,78.9741210000002
146,350.0,314.6152340000008,67.94873000000007,-112.30761700000039,112.94873000000007,119.35888699999941,113.9741210000002,115.89746099999957,108.9741210000002,111.53857400000015,111.9228520000006,89.61523400000078,352.94873000000007,84.61523400000078
147,342.4360349999997,287.6923829999996,74.87158199999976,-109.10253899999998,119.48730499999965,118.58984400000008,123.3334960000002,127.30761700000039,123.0771479999994,126.0258789999998,109.74365200000011,98.7177729999994,320.3847659999992,86.2822270000006
148,329.3588869999994,258.7177729999994,75.76904300000024,-113.20507799999996,113.3334960000002,116.6665039999998,124.74365200000011,128.58984400000008,124.23095699999976,124.74365200000011,98.46142599999985,102.17968800000017,284.87158199999976,83.3334960000002
149,314.6152340000008,227.82031300000017,71.2822270000006,-120.38452099999995,102.17968800000017,115.64111300000059,119.87158199999976,121.9228520000006,114.74365200000011,112.94873000000007,82.30761700000039,98.3334960000002,245.76904300000024,78.58984400000008
150,301.6665039999998,196.2822270000006,64.61523400000078,-125.51293900000019,95.64111300000059,115.76904300000024,113.58984400000008,113.9741210000002,102.69238299999961,101.53857400000015,67.43603499999972,90.76904300000024,202.56396500000028,74.35888699999941
151,291.15380900000036,164.23095699999976,58.846190999999635,-127.69238299999961,97.05126999999993,115.76904300000024,110.0,110.25634799999989,95.89746099999957,98.0771479999994,57.30761700000039,84.61523400000078,157.94873000000007,70.64111300000059
152,281.53857400000015,130.89746099999957,55.38476599999922,-129.8718259999996,103.46142599999985,114.23095699999976,110.64111300000059,111.2822270000006,96.79492200000004,102.69238299999961,51.53857400000015,82.56396500000028,117.05126999999993,66.53857400000015
153,271.9228520000006,97.05126999999993,53.974121000000196,-134.4870609999998,110.25634799999989,111.6665039999998,113.9741210000002,114.61523400000078,102.82031300000017,110.76904300000024,49.23095699999976,83.3334960000002,85.51269500000035,62.17968800000017
154,263.46142599999985,65.76904300000024,54.102539000000434,-140.2563479999999,115.76904300000024,110.0,117.82031300000017,117.82031300000017,110.38476599999922,117.94873000000007,49.61523400000078,84.35888699999941,65.12841800000024,59.35888699999941
155,257.17968800000017,39.61523400000078,54.87158199999976,-143.46142599999985,121.53857400000015,110.0,120.0,120.38476599999922,117.05126999999993,122.82031300000017,51.666503999999804,84.23095699999976,50.12841800000024,59.74365200000011
156,251.41015599999992,17.69238299999961,54.35888699999941,-142.6923829999996,127.30761700000039,110.51269500000035,119.35888699999941,122.17968800000017,120.64111300000059,125.12841800000024,52.30761700000039,83.7177729999994,29.358886999999413,61.9228520000006
157,242.17968800000017,-5.256347999999889,50.897460999999566,-140.89746100000002,129.61523400000078,109.35888699999941,115.25634799999989,122.05126999999993,120.12841800000024,123.7177729999994,47.69238299999961,83.46142599999985,-6.153809000000365,62.17968800000017
158,227.43603499999972,-33.07690400000001,44.23095699999976,-142.6923829999996,125.12841800000024,106.15380900000036,109.48730499999965,119.23095699999976,115.64111300000059,117.94873000000007,36.9228520000006,83.20507799999996,-55.51293900000019,57.56396500000028
159,209.23095699999976,-65.76928699999962,36.2822270000006,-149.8718259999996,114.48730499999965,102.69238299999961,104.61523400000078,115.12841800000024,109.74365200000011,110.64111300000059,24.102539000000434,82.82031300000017,-107.43579099999943,48.974121000000196
160,192.82031300000017,-97.82055700000001,30.769043000000238,-158.97436500000003,103.58984400000008,102.43603499999972,103.58984400000008,112.82031300000017,106.2822270000006,106.15380900000036,15.384765999999217,82.30761700000039,-148.84619099999964,40.25634799999989
161,182.3076170000004,-124.10253899999998,29.871581999999762,-164.10253899999998,99.10253900000043,106.9228520000006,107.17968800000017,115.51269500000035,107.69238299999961,107.82031300000017,13.717772999999397,82.30761700000039,-174.8718259999996,35.897460999999566
162,177.94873000000007,-143.20507799999996,32.05126999999993,-161.66674799999964,103.58984400000008,114.35888699999941,113.9741210000002,123.58984400000008,113.7177729999994,115.0,17.30761700000039,83.46142599999985,-191.53857400000015,37.43603499999972
163,176.41015599999992,-159.61547900000005,33.7177729999994,-153.84619099999964,113.0771479999994,119.87158199999976,120.64111300000059,133.3334960000002,120.89746099999957,122.82031300000017,20.769043000000238,85.0,-211.79492200000004,42.05126999999993
164,172.17968800000017,-180.1281740000004,30.897460999999566,-147.179443,119.74365200000011,119.23095699999976,123.46142599999985,138.3334960000002,124.35888699999941,125.51269500000035,19.358886999999413,84.74365200000011,-246.53857400000015,44.48730499999965
165,161.79492200000004,-207.6923829999996,23.333496000000196,-147.56420900000057,118.0771479999994,112.94873000000007,121.15380900000036,134.3588869999994,120.38476599999922,119.74365200000011,10.897460999999566,80.89746099999957,-298.076904,40.76904300000024
166,146.2822270000006,-239.23071300000038,14.230956999999762,-154.8718259999996,108.9741210000002,105.38476599999922,115.89746099999957,122.43603499999972,109.48730499999965,107.94873000000007,-1.5385740000001533,74.10253900000043,-357.820557,31.794922000000042
167,131.79492200000004,-266.79492200000004,8.846190999999635,-162.820557,99.10253900000043,102.05126999999993,111.79492200000004,109.48730499999965,96.6665039999998,96.53857400000015,-12.307617000000391,67.94873000000007,-411.66674799999964,23.717772999999397
168,124.74365200000011,-284.102539,9.871581999999762,-164.7436520000001,95.38476599999922,105.0,111.6665039999998,103.3334960000002,89.10253900000043,91.9228520000006,-16.28198199999997,66.0258789999998,-448.20507799999996,22.43603499999972
169,126.41015599999992,-291.53857400000015,16.025878999999804,-158.46142599999985,100.25634799999989,111.6665039999998,114.35888699999941,106.6665039999998,90.51269500000035,95.76904300000024,-12.435790999999426,69.61523400000078,-465.897461,28.077147999999397
170,131.9228520000006,-294.8718259999996,22.82031300000017,-148.076904,110.51269500000035,117.56396500000028,116.9228520000006,115.89746099999957,99.10253900000043,103.9741210000002,-4.487060999999812,76.15380900000036,-472.820557,36.153809000000365
171,135.12841800000024,-300.897461,26.282227000000603,-139.8718259999996,121.0258789999998,120.0,117.82031300000017,124.61523400000078,109.23095699999976,111.0258789999998,2.5639650000002803,81.9228520000006,-480.1281740000004,41.53857400000015
172,132.94873000000007,-312.4357909999994,26.025878999999804,-137.179443,128.7177729999994,119.23095699999976,118.20507799999996,128.84619099999964,115.89746099999957,114.35888699999941,6.025878999999804,84.23095699999976,-494.4870609999998,42.30761700000039
173,126.6665039999998,-327.6923829999996,24.230956999999762,-138.84619099999964,132.56396500000028,116.79492200000004,120.51269500000035,129.23095699999976,117.94873000000007,114.87158199999976,6.666503999999804,83.9741210000002,-516.6667479999996,40.0
174,119.23095699999976,-343.46142599999985,23.333496000000196,-141.66674799999964,132.43603499999972,114.74365200000011,125.25634799999989,128.7177729999994,117.17968800000017,115.12841800000024,6.538574000000153,83.3334960000002,-543.5898439999996,36.666503999999804
175,112.69238299999961,-357.9487299999996,23.846190999999635,-142.820557,129.10253900000043,113.9741210000002,129.87158199999976,129.10253900000043,115.89746099999957,116.79492200000004,6.794922000000042,83.7177729999994,-573.4614259999998,33.589844000000085
176,106.9228520000006,-370.897461,24.230956999999762,-142.43579099999943,123.9741210000002,115.25634799999989,131.53857400000015,129.3588869999994,115.0,118.84619099999964,6.410155999999915,84.35888699999941,-606.281982,31.153809000000365
177,100.51269500000035,-383.46142599999985,22.43603499999972,-141.79492200000004,118.58984400000008,117.17968800000017,128.46142599999985,127.30761700000039,114.10253900000043,118.3334960000002,3.717772999999397,83.7177729999994,-642.3076170000004,29.102539000000434
178,92.56396500000028,-396.15380900000036,18.846190999999635,-141.79492200000004,113.7177729999994,117.94873000000007,121.9228520000006,122.82031300000017,112.30761700000039,113.3334960000002,-1.7949220000000423,81.9228520000006,-680.384521,27.43603499999972
179,84.35888699999941,-407.9487299999996,15.897460999999566,-141.41015600000037,110.89746099999957,116.2822270000006,115.64111300000059,118.58984400000008,110.12841800000024,105.64111300000059,-8.461425999999847,79.87158199999976,-716.5385740000002,26.025878999999804
180,78.46142599999985,-417.6923829999996,16.025878999999804,-139.10253899999998,111.53857400000015,113.58984400000008,113.0771479999994,118.0771479999994,109.35888699999941,100.12841800000024,-12.820557000000008,78.9741210000002,-746.1538089999999,25.641113000000587
181,76.0258789999998,-425.897461,19.102539000000434,-134.8718259999996,115.76904300000024,111.9228520000006,115.12841800000024,122.05126999999993,111.53857400000015,100.51269500000035,-12.948729999999614,79.48730499999965,-767.5642090000001,26.282227000000603
182,75.0,-435.2563479999999,21.922852000000603,-131.02563499999997,120.76904300000024,112.43603499999972,119.23095699999976,128.20507799999996,115.12841800000024,105.76904300000024,-9.61547900000005,80.38476599999922,-783.8461910000001,26.666503999999804
183,71.9228520000006,-447.820557,21.153809000000365,-130.0,122.17968800000017,113.9741210000002,121.15380900000036,132.56396500000028,117.30761700000039,110.89746099999957,-6.025634999999966,79.61523400000078,-800.6411129999997,25.384765999999217
184,65.25634799999989,-462.0512700000004,17.05126999999993,-132.56420900000057,117.82031300000017,115.12841800000024,119.48730499999965,132.82031300000017,116.41015599999992,111.79492200000004,-5.256347999999889,76.9228520000006,-821.4101559999999,22.56396500000028
185,57.30761700000039,-473.84619099999964,13.717772999999397,-135.64111300000013,109.74365200000011,115.25634799999989,116.15380900000036,130.0,114.35888699999941,108.46142599999985,-7.948729999999614,73.7177729999994,-844.3588870000003,20.384765999999217
186,52.17968800000017,-479.7436520000001,14.615234000000783,-135.76928699999962,102.94873000000007,114.61523400000078,114.74365200000011,127.56396500000028,114.61523400000078,105.51269500000035,-11.28198199999997,72.30761700000039,-864.3588870000003,21.025878999999804
187,52.30761700000039,-480.7692869999996,19.230956999999762,-131.15380900000036,101.41015599999992,113.9741210000002,117.05126999999993,128.9741210000002,118.7177729999994,106.9228520000006,-12.051270000000386,73.9741210000002,-877.6923829999996,23.846190999999635
188,55.0,-481.66674799999964,23.589844000000085,-123.97436500000003,105.76904300000024,113.84619099999964,120.64111300000059,133.84619099999964,124.61523400000078,113.0771479999994,-8.846190999999635,78.0771479999994,-885.5129390000002,26.282227000000603
189,55.64111300000059,-486.28198199999997,24.102539000000434,-117.69238299999961,112.82031300000017,114.48730499999965,122.56396500000028,139.3588869999994,128.58984400000008,120.12841800000024,-3.4614259999998467,82.43603499999972,-892.4357909999999,26.282227000000603
190,51.153809000000365,-494.4870609999998,20.51269500000035,-113.97436500000003,118.3334960000002,115.64111300000059,121.6665039999998,142.56396500000028,129.3588869999994,123.3334960000002,1.4101559999999154,85.0,-902.179443,24.358886999999413
191,43.589844000000085,-502.3076170000004,16.282227000000603,-112.30761700000039,119.61523400000078,116.2822270000006,119.74365200000011,143.20507799999996,128.46142599999985,121.41015599999992,4.102539000000434,85.12841800000024,-915.128174,22.56396500000028
192,37.69238299999961,-507.5642090000006,15.128418000000238,-111.02563499999997,117.17968800000017,116.0258789999998,119.10253900000043,142.6923829999996,128.3334960000002,117.43603499999972,5.256347999999889,82.94873000000007,-928.4614260000003,22.43603499999972
193,36.153809000000365,-511.02563499999997,17.17968800000017,-109.61547900000005,114.23095699999976,115.25634799999989,120.12841800000024,141.9228520000006,129.61523400000078,115.38476599999922,5.897460999999566,80.51269500000035,-939.4870609999998,23.589844000000085
194,38.0771479999994,-515.5129390000002,19.871581999999762,-109.23071300000038,113.46142599999985,115.51269500000035,121.6665039999998,140.89746099999957,130.51269500000035,116.6665039999998,6.666503999999804,79.61523400000078,-946.5385739999997,24.615234000000783
195,40.0,-522.6923829999996,20.128418000000238,-110.1281740000004,114.87158199999976,116.9228520000006,122.69238299999961,139.48730499999965,128.7177729999994,119.48730499999965,7.307617000000391,81.6665039999998,-950.6411129999997,24.615234000000783
196,38.589844000000085,-531.5385740000002,17.43603499999972,-111.53857400000015,115.64111300000059,118.58984400000008,122.56396500000028,137.94873000000007,124.10253900000043,119.61523400000078,6.538574000000153,85.0,-955.0,23.461425999999847
197,32.69238299999961,-539.7436520000001,13.974121000000196,-111.41015600000037,112.82031300000017,119.10253900000043,121.15380900000036,136.41015599999992,117.94873000000007,114.61523400000078,3.3334960000001956,87.05126999999993,-962.3076170000004,21.794922000000042
198,23.974121000000196,-546.025635,12.17968800000017,-108.84619099999964,106.15380900000036,117.94873000000007,118.46142599999985,134.48730499999965,112.17968800000017,106.2822270000006,-2.1796869999998307,85.38476599999922,-973.3332519999999,20.51269500000035
199,16.666503999999804,-550.6411130000001,13.205077999999958,-104.8718259999996,99.35888699999941,115.89746099999957,115.38476599999922,131.53857400000015,108.0771479999994,99.23095699999976,-7.820557000000008,80.25634799999989,-985.6411129999997,20.0
200,14.102539000000434,-554.8718259999996,15.897460999999566,-101.66674799999964,97.17968800000017,114.23095699999976,112.56396500000028,128.20507799999996,105.38476599999922,97.05126999999993,-10.897461000000021,74.35888699999941,-995.6411129999997,20.641113000000587
201,16.025878999999804,-559.4870609999998,17.94873000000007,-100.25634799999989,101.15380900000036,113.58984400000008,111.0258789999998,125.25634799999989,103.58984400000008,99.35888699999941,-9.8718259999996,71.2822270000006,-1002.0512699999999,21.666503999999804
202,19.48730499999965,-562.9487299999996,18.717772999999397,-99.48706099999981,108.46142599999985,113.7177729999994,110.89746099999957,123.9741210000002,102.69238299999961,102.56396500000028,-5.641113000000132,73.0771479999994,-1005.384521,22.82031300000017
203,21.025878999999804,-563.8461909999996,18.846190999999635,-97.43579099999943,114.48730499999965,114.48730499999965,111.6665039999998,124.48730499999965,103.7177729999994,103.46142599999985,0.38476599999921746,77.94873000000007,-1007.820557,23.717772999999397
204,19.871581999999762,-561.794922,19.358886999999413,-93.46142599999985,117.17968800000017,115.38476599999922,113.0771479999994,126.2822270000006,107.30761700000039,102.17968800000017,6.410155999999915,82.94873000000007,-1010.2563479999999,24.358886999999413
205,16.666503999999804,-559.615479,20.769043000000238,-88.97436500000003,116.79492200000004,116.0258789999998,114.10253900000043,127.94873000000007,112.56396500000028,101.53857400000015,11.025878999999804,85.64111300000059,-1012.6923829999996,24.102539000000434
206,13.589844000000085,-560.897461,22.05126999999993,-86.41015600000037,115.25634799999989,116.0258789999998,113.9741210000002,129.23095699999976,116.9228520000006,104.10253900000043,13.974121000000196,85.64111300000059,-1015.5129390000002,22.69238299999961
207,11.666503999999804,-566.794922,22.30761700000039,-87.05127000000039,113.7177729999994,115.12841800000024,112.94873000000007,130.12841800000024,118.3334960000002,110.25634799999989,15.512695000000349,84.48730499999965,-1020.0,20.769043000000238
208,12.051269999999931,-573.974365,22.05126999999993,-89.10253899999998,112.82031300000017,113.7177729999994,112.56396500000028,131.15380900000036,117.82031300000017,117.94873000000007,17.30761700000039,83.84619099999964,-1025.769287,20.51269500000035
209,15.512695000000349,-576.1538090000004,23.589844000000085,-88.20507799999996,113.20507799999996,112.56396500000028,114.23095699999976,132.43603499999972,118.20507799999996,125.0,21.282227000000603,84.35888699999941,-1029.871826,24.102539000000434
210,21.794922000000042,-569.615479,28.717772999999397,-81.92309599999999,115.12841800000024,112.43603499999972,118.20507799999996,133.9741210000002,122.17968800000017,129.7436520000001,28.205077999999958,85.51269500000035,-1029.743652,31.025878999999804
211,28.717772999999397,-557.9487299999996,35.897460999999566,-72.17944299999999,118.84619099999964,113.3334960000002,122.43603499999972,135.76904300000024,128.3334960000002,131.41015599999992,35.897460999999566,87.05126999999993,-1026.666748,37.82031300000017
212,31.922852000000603,-549.102539,42.05126999999993,-64.61547900000005,123.9741210000002,114.87158199999976,124.61523400000078,136.6665039999998,132.94873000000007,130.0,40.12841800000024,88.46142599999985,-1026.025635,39.87158199999976
213,28.333496000000196,-549.615479,43.589844000000085,-64.23071300000038,129.3588869999994,116.53857400000015,123.58984400000008,136.0258789999998,133.3334960000002,126.15380900000036,38.0771479999994,89.23095699999976,-1032.94873,35.38476599999922
214,19.358886999999413,-558.974365,40.12841800000024,-70.51293900000019,133.20507799999996,117.82031300000017,120.51269500000035,134.48730499999965,130.0,122.17968800000017,30.641113000000587,88.84619099999964,-1047.820557,27.43603499999972
215,9.871581999999762,-570.897461,35.0,-78.58984399999963,134.10253900000043,118.58984400000008,117.69238299999961,133.46142599999985,126.15380900000036,120.12841800000024,22.94873000000007,87.17968800000017,-1064.743652,21.282227000000603
216,4.871581999999762,-578.4614259999998,31.666503999999804,-83.07690400000001,131.15380900000036,118.3334960000002,116.2822270000006,133.0771479999994,124.10253900000043,120.64111300000059,20.51269500000035,85.25634799999989,-1075.384521,21.025878999999804
217,6.538574000000153,-579.2307130000004,31.794922000000042,-81.53857400000015,125.38476599999922,117.56396500000028,116.79492200000004,132.43603499999972,124.74365200000011,123.0771479999994,25.897460999999566,84.87158199999976,-1074.615479,26.666503999999804
218,13.589844000000085,-576.025635,35.12841800000024,-75.89746100000002,119.10253900000043,116.79492200000004,119.23095699999976,131.15380900000036,127.82031300000017,127.05126999999993,37.17968800000017,87.30761700000039,-1063.846191,35.12841800000024
219,22.43603499999972,-574.4870609999998,39.35888699999941,-70.38452099999995,115.0,116.79492200000004,122.94873000000007,130.38476599999922,132.05126999999993,132.3076170000004,49.61523400000078,91.53857400000015,-1050.0,41.79492200000004
220,28.974121000000196,-579.102539,42.30761700000039,-68.07690400000001,114.61523400000078,117.94873000000007,127.17968800000017,131.79492200000004,136.0258789999998,137.43603499999972,58.333496000000196,95.25634799999989,-1041.281982,43.7177729999994
221,30.0,-589.8718259999996,42.43603499999972,-69.61547900000005,116.6665039999998,119.10253900000043,129.7436520000001,135.0,137.43603499999972,139.87158199999976,60.25634799999989,96.15380900000036,-1041.5385739999997,41.2822270000006
222,25.128418000000238,-601.794922,39.61523400000078,-73.46142599999985,118.58984400000008,119.48730499999965,129.23095699999976,137.05126999999993,135.0,137.94873000000007,56.2822270000006,93.3334960000002,-1049.4870609999998,36.79492200000004
223,16.538574000000153,-609.4870609999998,35.12841800000024,-77.69238299999961,117.94873000000007,118.84619099999964,125.25634799999989,135.12841800000024,129.10253900000043,131.2822270000006,48.7177729999994,87.94873000000007,-1060.128174,33.333496000000196
224,7.56396500000028,-610.2563479999999,30.0,-81.53857400000015,115.38476599999922,117.56396500000028,119.23095699999976,129.3588869999994,121.9228520000006,122.56396500000028,40.897460999999566,82.43603499999972,-1068.718018,31.922852000000603
225,2.4360349999997197,-605.6411130000001,25.897460999999566,-84.23071300000038,113.0771479999994,117.05126999999993,113.84619099999964,122.69238299999961,117.05126999999993,115.38476599999922,35.76904300000024,79.61523400000078,-1072.820557,32.43603499999972
226,3.846190999999635,-598.718018,24.871581999999762,-84.61547900000005,114.23095699999976,117.56396500000028,111.2822270000006,119.48730499999965,117.69238299999961,113.46142599999985,36.2822270000006,81.53857400000015,-1072.5642090000001,34.61523400000078
227,12.307617000000391,-592.4357909999994,28.589844000000085,-80.89746100000002,119.87158199999976,118.9741210000002,112.56396500000028,122.05126999999993,123.9741210000002,118.58984400000008,43.333496000000196,87.43603499999972,-1069.102539,38.20507799999996
228,24.871581999999762,-587.6923829999996,36.53857400000015,-73.20507799999996,128.58984400000008,120.25634799999989,116.79492200000004,128.84619099999964,132.56396500000028,128.3334960000002,54.35888699999941,94.35888699999941,-1063.4614260000003,42.43603499999972
229,35.76904300000024,-584.8718259999996,45.38476599999922,-64.10253899999998,135.89746099999957,120.76904300000024,121.2822270000006,135.38476599999922,138.58984400000008,137.6923829999996,64.10253900000043,99.23095699999976,-1057.3076170000004,45.64111300000059
230,39.74365200000011,-584.102539,50.76904300000024,-57.564209000000574,137.56396500000028,120.25634799999989,122.94873000000007,136.9228520000006,139.10253900000043,141.53857400000015,67.56396500000028,100.25634799999989,-1053.718018,46.025878999999804
231,35.12841800000024,-585.2563479999999,50.38476599999922,-56.025634999999966,133.0771479999994,119.61523400000078,121.15380900000036,132.94873000000007,134.7436520000001,138.58984400000008,64.23095699999976,97.82031300000017,-1054.871826,43.46142599999985
232,25.897460999999566,-587.179443,45.64111300000059,-57.564209000000574,126.2822270000006,119.23095699999976,117.94873000000007,127.17968800000017,129.87158199999976,132.3076170000004,57.30761700000039,94.74365200000011,-1060.128174,39.35888699999941
233,19.230956999999762,-588.076904,41.025878999999804,-58.20507799999996,122.17968800000017,119.48730499999965,116.0258789999998,124.61523400000078,128.3334960000002,128.3334960000002,51.9228520000006,93.46142599999985,-1065.769287,36.79492200000004
234,19.871581999999762,-586.6667479999996,40.25634799999989,-55.25634799999989,123.0771479999994,119.48730499999965,116.41015599999992,126.79492200000004,130.76904300000024,129.23095699999976,50.38476599999922,95.25634799999989,-1067.94873,37.17968800000017
235,26.153809000000365,-584.4870609999998,43.0771479999994,-50.0,126.53857400000015,118.3334960000002,117.30761700000039,130.6411130000006,133.84619099999964,132.82031300000017,51.53857400000015,98.84619099999964,-1066.666748,39.48730499999965
236,32.43603499999972,-583.974365,46.153809000000365,-45.76928699999962,127.69238299999961,116.41015599999992,116.15380900000036,131.9228520000006,134.10253900000043,135.0,52.30761700000039,101.53857400000015,-1064.4870609999998,41.025878999999804
237,33.589844000000085,-586.025635,46.2822270000006,-44.48706099999981,124.74365200000011,115.51269500000035,112.82031300000017,129.3588869999994,131.15380900000036,133.20507799999996,50.897460999999566,101.2822270000006,-1063.333252,40.76904300000024
238,29.102539000000434,-589.2307130000004,42.94873000000007,-45.89746100000002,119.35888699999941,116.2822270000006,109.48730499999965,125.0,127.56396500000028,129.23095699999976,47.56396500000028,97.94873000000007,-1063.718018,38.333496000000196
239,20.897460999999566,-592.5642090000006,37.43603499999972,-48.71801800000003,114.87158199999976,117.69238299999961,107.56396500000028,121.41015599999992,124.61523400000078,125.25634799999989,42.56396500000028,93.20507799999996,-1066.025635,33.7177729999994
240,11.538574000000153,-596.025635,31.666503999999804,-52.051270000000386,112.69238299999961,117.30761700000039,107.30761700000039,119.35888699999941,122.05126999999993,121.6665039999998,35.76904300000024,89.10253900000043,-1070.5129390000002,27.43603499999972
241,3.3334960000001956,-600.1281740000004,27.05126999999993,-55.38452099999995,111.9228520000006,114.23095699999976,107.69238299999961,118.0771479999994,118.84619099999964,117.69238299999961,28.333496000000196,86.6665039999998,-1076.923096,21.282227000000603
242,-1.6665039999998044,-603.974365,25.128418000000238,-57.435790999999426,112.05126999999993,110.0,108.7177729999994,117.69238299999961,116.53857400000015,113.84619099999964,22.69238299999961,85.38476599999922,-1083.205078,18.717772999999397
243,-1.5385740000001533,-605.384521,26.410155999999915,-56.41015600000037,113.46142599999985,107.17968800000017,110.64111300000059,119.61523400000078,118.0771479999994,112.17968800000017,21.922852000000603,85.0,-1085.769287,21.410155999999915
244,2.9487300000000687,-603.3332520000004,29.102539000000434,-51.79492200000004,116.41015599999992,107.43603499999972,113.58984400000008,124.61523400000078,124.10253900000043,114.87158199999976,26.282227000000603,85.51269500000035,-1082.820557,27.30761700000039
245,8.461425999999847,-599.3588869999999,31.282227000000603,-45.51293900000019,118.7177729999994,110.64111300000059,116.41015599999992,130.76904300000024,131.0258789999998,120.51269500000035,32.30761700000039,86.79492200000004,-1076.410156,32.82031300000017
246,10.256347999999889,-596.794922,30.897460999999566,-40.64111300000013,117.94873000000007,114.87158199999976,117.30761700000039,133.7177729999994,133.20507799999996,125.0,35.64111300000059,87.82031300000017,-1071.025635,34.61523400000078
247,5.897460999999566,-597.5642090000006,28.077147999999397,-39.48706099999981,113.46142599999985,117.43603499999972,114.87158199999976,130.6411130000006,127.82031300000017,124.61523400000078,33.846190999999635,87.17968800000017,-1070.128174,32.30761700000039
248,-3.717772999999397,-601.4101560000004,24.48730499999965,-41.92309599999999,107.05126999999993,116.6665039999998,109.48730499999965,121.79492200000004,116.6665039999998,118.58984400000008,28.205077999999958,85.12841800000024,-1073.718018,27.69238299999961
249,-14.358886999999868,-606.5385740000002,21.794922000000042,-45.38452099999995,100.89746099999957,113.20507799999996,103.20507799999996,110.76904300000024,105.25634799999989,109.61523400000078,22.43603499999972,83.58984400000008,-1078.974365,22.94873000000007
250,-21.28198199999997,-611.025635,20.51269500000035,-47.82055700000001,96.53857400000015,109.35888699999941,98.9741210000002,102.05126999999993,98.7177729999994,102.43603499999972,19.230956999999762,83.7177729999994,-1082.94873,20.0
251,-22.435790999999426,-613.718018,20.51269500000035,-48.20507799999996,94.35888699999941,107.30761700000039,99.48730499999965,99.10253900000043,98.58984400000008,100.25634799999989,19.102539000000434,84.61523400000078,-1083.718018,19.871581999999762
252,-18.333252000000357,-613.4614259999998,21.410155999999915,-46.79492200000004,94.61523400000078,107.69238299999961,104.74365200000011,102.43603499999972,103.0771479999994,103.46142599999985,21.153809000000365,85.25634799999989,-1080.256348,22.69238299999961
253,-11.025634999999966,-609.7436520000001,23.077147999999397,-44.10253899999998,97.43603499999972,109.74365200000011,111.6665039999998,109.74365200000011,108.9741210000002,109.61523400000078,24.615234000000783,85.51269500000035,-1073.076904,27.69238299999961
254,-3.717772999999397,-603.974365,26.025878999999804,-40.64111300000013,102.30761700000039,112.17968800000017,115.89746099999957,116.79492200000004,113.46142599999985,114.61523400000078,28.717772999999397,86.53857400000015,-1064.230713,33.20507799999996
255,1.5385740000001533,-598.8461909999996,30.25634799999989,-36.92309599999999,108.0771479999994,113.7177729999994,114.87158199999976,120.25634799999989,115.25634799999989,115.89746099999957,33.0771479999994,88.46142599999985,-1056.666748,37.82031300000017
256,4.230956999999762,-595.5129390000002,34.48730499999965,-33.71801800000003,113.3334960000002,114.23095699999976,110.12841800000024,119.61523400000078,115.25634799999989,114.48730499999965,36.79492200000004,90.76904300000024,-1051.410156,40.25634799999989
257,5.769043000000238,-592.9487299999996,37.69238299999961,-30.38452099999995,117.56396500000028,114.61523400000078,106.53857400000015,117.82031300000017,115.38476599999922,113.7177729999994,39.61523400000078,93.0771479999994,-1047.179443,40.51269500000035
258,7.56396500000028,-588.974365,39.87158199999976,-26.28198199999997,120.64111300000059,115.38476599999922,107.43603499999972,117.82031300000017,116.79492200000004,116.2822270000006,41.025878999999804,95.0,-1042.5642090000001,39.61523400000078
259,9.871581999999762,-583.4614259999998,41.410155999999915,-21.28198199999997,122.30761700000039,116.15380900000036,111.9228520000006,119.74365200000011,118.84619099999964,121.0258789999998,41.153809000000365,96.79492200000004,-1038.076904,38.589844000000085
260,11.538574000000153,-578.205078,42.43603499999972,-16.794922000000042,121.53857400000015,116.15380900000036,115.76904300000024,122.05126999999993,119.74365200000011,123.3334960000002,39.87158199999976,98.20507799999996,-1035.5129390000002,38.589844000000085
261,11.410155999999915,-575.1281740000004,42.82031300000017,-14.230713000000378,118.0771479999994,115.12841800000024,115.38476599999922,122.56396500000028,118.3334960000002,119.87158199999976,37.69238299999961,98.7177729999994,-1035.256348,39.48730499999965
262,8.589844000000085,-575.6411130000001,41.666503999999804,-14.8718259999996,112.56396500000028,113.3334960000002,110.12841800000024,120.25634799999989,114.35888699999941,111.41015599999992,34.74365200000011,97.56396500000028,-1036.410156,40.12841800000024
263,3.4614259999998467,-580.6411130000001,38.46142599999985,-18.846190999999635,106.41015599999992,112.05126999999993,103.20507799999996,115.51269500000035,108.46142599999985,102.43603499999972,30.897460999999566,94.23095699999976,-1037.6923829999996,38.46142599999985
264,-2.3076170000003913,-588.718018,34.61523400000078,-24.230713000000378,102.05126999999993,111.9228520000006,98.7177729999994,110.76904300000024,102.56396500000028,97.82031300000017,26.922852000000603,89.10253900000043,-1037.5642090000001,34.61523400000078
265,-6.794922000000042,-595.6411130000001,32.05126999999993,-27.69238299999961,101.9228520000006,113.7177729999994,99.74365200000011,109.35888699999941,98.9741210000002,99.10253900000043,24.358886999999413,84.10253900000043,-1034.743652,31.282227000000603
266,-8.333252000000357,-596.794922,31.922852000000603,-26.666747999999643,106.53857400000015,116.0258789999998,105.0,111.9228520000006,99.10253900000043,104.61523400000078,23.974121000000196,81.15380900000036,-1029.102539,30.897460999999566
267,-7.435790999999426,-591.025635,33.20507799999996,-22.179442999999992,113.7177729999994,117.17968800000017,109.61523400000078,116.41015599999992,102.05126999999993,110.38476599999922,24.74365200000011,81.15380900000036,-1022.0512699999999,33.46142599999985
268,-5.769286999999622,-582.0512700000004,33.333496000000196,-17.948729999999614,119.10253900000043,116.15380900000036,109.48730499999965,119.48730499999965,105.89746099999957,113.46142599999985,25.51269500000035,82.82031300000017,-1016.6667480000001,36.79492200000004
269,-3.9741210000001956,-574.7436520000001,31.410155999999915,-15.641113000000132,120.0,113.7177729999994,104.87158199999976,119.48730499999965,108.84619099999964,113.20507799999996,26.410155999999915,84.35888699999941,-1013.4614260000003,38.46142599999985
270,-1.4101559999999154,-571.6667479999996,28.589844000000085,-13.846190999999635,117.43603499999972,112.17968800000017,100.64111300000059,117.30761700000039,111.2822270000006,112.17968800000017,28.846190999999635,84.74365200000011,-1010.6411129999997,38.7177729999994
271,2.3076170000003913,-571.794922,27.82031300000017,-10.256347999999889,115.51269500000035,112.43603499999972,101.6665039999998,115.89746099999957,113.7177729999994,112.56396500000028,33.20507799999996,84.48730499999965,-1006.025635,38.589844000000085
272,6.153809000000365,-573.4614259999998,30.769043000000238,-4.102538999999979,116.53857400000015,114.23095699999976,107.69238299999961,116.79492200000004,115.51269500000035,114.10253900000043,36.9228520000006,84.74365200000011,-999.4870609999998,38.846190999999635
273,8.077147999999397,-575.6411130000001,35.51269500000035,1.9228520000006029,118.46142599999985,116.2822270000006,114.10253900000043,118.46142599999985,115.89746099999957,114.48730499999965,36.9228520000006,85.89746099999957,-993.8461910000001,38.7177729999994
274,6.538574000000153,-577.0512700000004,38.46142599999985,4.487304999999651,118.3334960000002,117.56396500000028,115.76904300000024,118.7177729999994,114.23095699999976,112.43603499999972,32.43603499999972,86.9228520000006,-991.025635,37.43603499999972
275,3.3334960000001956,-575.7692869999996,38.589844000000085,2.9487300000000687,115.64111300000059,117.82031300000017,112.43603499999972,116.9228520000006,111.9228520000006,109.48730499999965,26.922852000000603,86.2822270000006,-990.0,36.153809000000365
276,1.4101559999999154,-570.2563479999999,37.43603499999972,0.256347999999889,114.23095699999976,117.69238299999961,107.82031300000017,115.0,110.89746099999957,109.23095699999976,25.384765999999217,84.23095699999976,-987.4357909999999,36.025878999999804
277,2.1796880000001693,-561.923096,37.43603499999972,0.0,117.30761700000039,117.43603499999972,105.76904300000024,114.74365200000011,111.9228520000006,112.69238299999961,30.0,82.43603499999972,-981.1538089999999,37.82031300000017
278,4.102539000000434,-556.281982,39.23095699999976,1.9228520000006029,122.82031300000017,117.43603499999972,107.43603499999972,115.64111300000059,113.3334960000002,116.79492200000004,37.56396500000028,82.69238299999961,-973.4614260000003,40.25634799999989
279,3.2050779999999577,-557.9487299999996,40.25634799999989,1.5385740000001533,124.87158199999976,117.30761700000039,110.0,115.76904300000024,112.05126999999993,116.53857400000015,41.9228520000006,85.12841800000024,-968.3332519999999,41.025878999999804
280,-1.9228520000006029,-567.0512700000004,37.56396500000028,-4.871825999999601,119.48730499999965,116.79492200000004,109.87158199999976,114.10253900000043,107.17968800000017,110.0,39.23095699999976,87.69238299999961,-968.205078,38.974121000000196
281,-8.974365000000034,-577.179443,30.769043000000238,-16.153809000000365,109.10253900000043,116.0258789999998,106.15380900000036,111.6665039999998,101.0258789999998,100.64111300000059,30.897460999999566,87.69238299999961,-970.897461,35.0
282,-13.974365000000034,-580.2563479999999,23.077147999999397,-26.28198199999997,100.38476599999922,115.76904300000024,101.53857400000015,110.25634799999989,97.56396500000028,94.61523400000078,22.69238299999961,83.9741210000002,-972.0512699999999,32.05126999999993
283,-14.358886999999868,-572.9487299999996,19.102539000000434,-29.74365200000011,98.84619099999964,116.15380900000036,99.74365200000011,111.0258789999998,98.3334960000002,95.0,20.128418000000238,77.94873000000007,-969.102539,32.30761700000039
284,-11.41015600000037,-558.3332520000004,20.897460999999566,-25.0,104.74365200000011,116.79492200000004,102.05126999999993,113.46142599999985,101.6665039999998,100.0,23.846190999999635,72.43603499999972,-962.6923829999996,35.76904300000024
285,-8.205077999999958,-544.102539,26.922852000000603,-15.641113000000132,112.82031300000017,117.17968800000017,106.79492200000004,115.64111300000059,104.35888699999941,104.87158199999976,30.51269500000035,70.64111300000059,-955.0,39.61523400000078
286,-7.179442999999992,-537.0512700000004,33.7177729999994,-8.076904000000013,117.05126999999993,116.6665039999998,110.12841800000024,115.64111300000059,104.61523400000078,106.2822270000006,35.25634799999989,73.0771479999994,-948.718018,41.025878999999804
287,-7.307617000000391,-538.974365,37.82031300000017,-6.538574000000153,115.12841800000024,115.89746099999957,110.12841800000024,113.3334960000002,103.0771479999994,104.23095699999976,36.025878999999804,78.46142599999985,-944.7436520000001,39.35888699999941
288,-5.512939000000188,-544.2307130000004,38.46142599999985,-9.8718259999996,110.25634799999989,115.25634799999989,107.94873000000007,111.2822270000006,102.56396500000028,102.17968800000017,34.74365200000011,83.84619099999964,-941.025635,36.9228520000006
289,0.6411130000005869,-545.0,37.82031300000017,-13.076904000000013,108.3334960000002,115.25634799999989,106.79492200000004,113.3334960000002,106.15380900000036,104.48730499999965,35.25634799999989,86.9228520000006,-934.615479,37.30761700000039
290,9.743652000000111,-537.179443,38.974121000000196,-12.307617000000391,112.17968800000017,115.89746099999957,109.74365200000011,120.12841800000024,114.10253900000043,111.79492200000004,39.35888699999941,87.30761700000039,-924.615479,41.2822270000006
291,16.410155999999915,-525.0,42.17968800000017,-8.076904000000013,118.58984400000008,116.41015599999992,115.64111300000059,128.46142599999985,122.94873000000007,121.0258789999998,44.61523400000078,86.2822270000006,-914.102539,46.153809000000365
292,16.025878999999804,-516.923096,45.25634799999989,-4.358886999999868,120.38476599999922,116.41015599999992,120.89746099999957,133.3334960000002,127.82031300000017,126.2822270000006,46.79492200000004,84.74365200000011,-908.076904,47.56396500000028
293,8.461425999999847,-518.718018,44.61523400000078,-5.0,112.82031300000017,115.89746099999957,121.2822270000006,131.41015599999992,125.12841800000024,123.7177729999994,43.7177729999994,83.46142599999985,-908.5898440000001,43.846190999999635
294,-1.9228520000006029,-528.4614259999998,38.974121000000196,-11.28198199999997,98.0771479999994,115.38476599999922,115.89746099999957,123.7177729999994,115.38476599999922,113.9741210000002,36.666503999999804,82.30761700000039,-914.102539,36.79492200000004
295,-8.974365000000034,-538.5898439999996,31.153809000000365,-20.25634799999989,84.87158199999976,115.51269500000035,107.05126999999993,114.61523400000078,103.3334960000002,101.9228520000006,29.871581999999762,81.2822270000006,-919.871826,30.769043000000238
296,-8.846190999999635,-541.4101560000004,25.769043000000238,-25.769286999999622,81.53857400000015,116.41015599999992,99.74365200000011,109.35888699999941,95.89746099999957,94.48730499999965,27.05126999999993,81.0258789999998,-921.025635,29.74365200000011
297,-2.4360349999997197,-534.3588869999999,26.025878999999804,-23.205077999999958,90.25634799999989,118.20507799999996,97.82031300000017,110.12841800000024,97.30761700000039,95.38476599999922,30.128418000000238,81.9228520000006,-915.0,34.102539000000434
298,6.025878999999804,-521.025635,31.794922000000042,-12.820557000000008,105.38476599999922,120.25634799999989,101.41015599999992,115.64111300000059,106.41015599999992,102.94873000000007,37.43603499999972,83.58984400000008,-902.820557,40.897460999999566
299,11.282227000000603,-508.71801800000003,39.35888699999941,0.12841800000023795,118.0771479999994,121.41015599999992,107.30761700000039,121.6665039999998,116.6665039999998,111.79492200000004,45.64111300000059,85.76904300000024,-888.718018,45.76904300000024
300,10.256347999999889,-503.58984399999963,44.102539000000434,8.717772999999397,121.41015599999992,121.2822270000006,111.0258789999998,124.10253900000043,121.15380900000036,116.2822270000006,50.64111300000059,87.56396500000028,-877.820557,46.2822270000006
301,3.2050779999999577,-506.53857400000015,43.333496000000196,9.358886999999413,114.35888699999941,120.51269500000035,110.12841800000024,121.15380900000036,116.9228520000006,113.84619099999964,49.87158199999976,87.56396500000028,-874.102539,42.56396500000028
302,-5.769286999999622,-513.718018,38.20507799999996,3.4614259999998467,102.30761700000039,119.61523400000078,105.76904300000024,115.12841800000024,106.9228520000006,106.41015599999992,43.20507799999996,85.38476599999922,-877.3076170000004,37.43603499999972
303,-11.794922000000042,-519.3588869999999,32.82031300000017,-3.2050779999999577,93.46142599999985,119.23095699999976,101.53857400000015,110.38476599999922,97.94873000000007,98.58984400000008,33.974121000000196,81.41015599999992,-883.3332519999999,33.974121000000196
304,-11.794922000000042,-520.5129390000002,30.897460999999566,-4.487060999999812,92.94873000000007,119.48730499999965,100.38476599999922,109.74365200000011,95.25634799999989,94.74365200000011,26.666503999999804,77.82031300000017,-887.3076170000004,33.589844000000085
305,-6.41015600000037,-517.179443,33.333496000000196,1.153809000000365,100.38476599999922,119.74365200000011,102.30761700000039,112.69238299999961,99.74365200000011,96.15380900000036,24.615234000000783,76.53857400000015,-885.6411129999997,35.897460999999566
306,0.6411130000005869,-511.79492200000004,37.17968800000017,10.641113000000587,110.0,119.35888699999941,105.12841800000024,116.15380900000036,107.30761700000039,100.51269500000035,28.077147999999397,78.0771479999994,-878.205078,38.46142599999985
307,5.3847659999992175,-507.3076170000004,39.23095699999976,18.461425999999847,115.51269500000035,118.20507799999996,106.79492200000004,116.79492200000004,111.79492200000004,103.7177729999994,33.974121000000196,80.76904300000024,-867.820557,39.87158199999976
308,5.641113000000587,-505.7692869999996,37.43603499999972,20.769043000000238,113.58984400000008,116.79492200000004,106.15380900000036,113.0771479999994,109.35888699999941,102.82031300000017,37.82031300000017,82.05126999999993,-858.974365,39.61523400000078
309,1.5385740000001533,-507.6923829999996,32.17968800000017,17.05126999999993,105.38476599999922,115.38476599999922,103.0771479999994,105.12841800000024,100.25634799999989,97.30761700000039,36.153809000000365,80.0,-856.1538089999999,38.0771479999994
310,-6.025634999999966,-511.923096,25.51269500000035,9.871581999999762,94.87158199999976,114.23095699999976,98.20507799999996,95.12841800000024,88.3334960000002,89.23095699999976,28.717772999999397,75.0,-860.6411129999997,35.76904300000024
311,-13.71801800000003,-515.6411130000001,20.384765999999217,3.077147999999397,86.79492200000004,113.3334960000002,93.46142599999985,87.56396500000028,78.58984400000008,82.05126999999993,19.615234000000783,70.38476599999922,-868.5898440000001,33.333496000000196
312,-17.051270000000386,-515.6411130000001,19.871581999999762,1.153809000000365,85.25634799999989,113.20507799999996,92.43603499999972,87.30761700000039,75.89746099999957,78.9741210000002,15.897460999999566,70.0,-872.179443,32.56396500000028
313,-13.205077999999958,-510.1281740000004,25.384765999999217,5.641113000000587,91.2822270000006,113.7177729999994,97.43603499999972,96.53857400000015,82.17968800000017,82.43603499999972,21.922852000000603,75.51269500000035,-865.5129390000002,35.12841800000024
314,-4.487060999999812,-500.64111300000013,34.102539000000434,14.230956999999762,100.89746099999957,114.87158199999976,106.9228520000006,110.51269500000035,94.61523400000078,91.79492200000004,34.23095699999976,83.7177729999994,-850.0,39.61523400000078
315,2.6923829999996087,-492.820557,40.64111300000059,21.922852000000603,108.0771479999994,116.0258789999998,115.51269500000035,120.76904300000024,106.53857400000015,102.05126999999993,43.46142599999985,88.58984400000008,-834.2307129999999,42.56396500000028
316,2.8203130000001693,-491.02563499999997,40.38476599999922,24.871581999999762,108.3334960000002,116.41015599999992,117.43603499999972,120.89746099999957,111.0258789999998,107.17968800000017,42.56396500000028,85.64111300000059,-826.5385739999997,41.410155999999915
317,-3.846190999999635,-495.2563479999999,34.48730499999965,22.94873000000007,102.82031300000017,116.15380900000036,112.05126999999993,111.79492200000004,106.53857400000015,104.74365200000011,33.20507799999996,77.30761700000039,-827.9487300000001,37.30761700000039
318,-10.897461000000021,-499.7436520000001,28.589844000000085,20.384765999999217,97.69238299999961,115.51269500000035,104.10253900000043,101.6665039999998,98.7177729999994,98.58984400000008,24.358886999999413,70.25634799999989,-832.179443,34.48730499999965
319,-11.41015600000037,-497.9487299999996,28.846190999999635,21.922852000000603,97.94873000000007,115.38476599999922,100.38476599999922,98.58984400000008,95.0,95.38476599999922,24.615234000000783,70.38476599999922,-831.281982,36.2822270000006
320,-4.102538999999979,-488.20507799999996,36.2822270000006,28.717772999999397,104.23095699999976,116.2822270000006,103.9741210000002,104.10253900000043,99.10253900000043,98.7177729999994,34.61523400000078,76.9228520000006,-821.923096,41.79492200000004
321,6.410155999999915,-474.2307130000004,46.79492200000004,36.666503999999804,112.30761700000039,118.0771479999994,112.30761700000039,113.84619099999964,108.20507799999996,105.51269500000035,46.9228520000006,84.10253900000043,-808.3332519999999,47.69238299999961
322,13.589844000000085,-462.9487299999996,54.35888699999941,41.2822270000006,117.17968800000017,119.74365200000011,119.61523400000078,121.2822270000006,116.15380900000036,110.12841800000024,53.0771479999994,85.89746099999957,-797.179443,50.12841800000024
323,14.487304999999651,-458.71801800000003,55.76904300000024,41.410155999999915,116.79492200000004,120.25634799999989,121.53857400000015,123.20507799999996,118.58984400000008,110.0,50.64111300000059,81.79492200000004,-792.5642090000001,48.589844000000085
324,10.897460999999566,-461.02563499999997,52.82031300000017,39.74365200000011,113.20507799999996,119.48730499999965,118.46142599999985,121.41015599999992,116.41015599999992,106.79492200000004,43.974121000000196,76.6665039999998,-793.205078,45.38476599999922
325,7.179688000000169,-465.0,50.12841800000024,40.0,110.64111300000059,117.94873000000007,114.35888699999941,120.0,113.46142599999985,104.10253900000043,40.12841800000024,76.0258789999998,-794.2307129999999,44.35888699999941
326,7.051269999999931,-466.15380900000036,51.025878999999804,43.46142599999985,111.79492200000004,116.6665039999998,113.0771479999994,121.2822270000006,112.94873000000007,104.10253900000043,43.0771479999994,80.76904300000024,-791.5385739999997,47.17968800000017
327,9.743652000000111,-463.58984399999963,54.102539000000434,48.46142599999985,114.87158199999976,116.2822270000006,114.87158199999976,123.46142599999985,114.61523400000078,105.51269500000035,50.25634799999989,87.30761700000039,-784.615479,51.53857400000015
328,12.82031300000017,-459.61547900000005,56.025878999999804,52.17968800000017,116.15380900000036,116.6665039999998,117.17968800000017,123.58984400000008,116.15380900000036,106.0258789999998,55.64111300000059,90.76904300000024,-776.6667480000001,54.35888699999941
329,14.358886999999413,-456.15380900000036,55.25634799999989,53.7177729999994,114.61523400000078,117.56396500000028,117.30761700000039,120.89746099999957,115.76904300000024,104.74365200000011,55.64111300000059,90.0,-770.2563479999999,53.7177729999994
330,15.512695000000349,-452.820557,54.23095699999976,55.76904300000024,113.0771479999994,118.20507799999996,115.38476599999922,118.0771479999994,114.10253900000043,103.84619099999964,52.94873000000007,87.30761700000039,-764.4870609999998,51.79492200000004
331,18.974121000000196,-448.46142599999985,56.410155999999915,61.410155999999915,114.48730499999965,118.46142599999985,113.9741210000002,118.58984400000008,113.46142599999985,106.15380900000036,53.20507799999996,86.9228520000006,-757.179443,51.53857400000015
332,25.384765999999217,-443.076904,62.30761700000039,69.87158199999976,117.94873000000007,118.3334960000002,115.25634799999989,122.43603499999972,115.38476599999922,111.79492200000004,59.102539000000434,90.38476599999922,-747.9487300000001,54.102539000000434
333,31.410155999999915,-438.97436500000003,68.0771479999994,76.53857400000015,119.10253900000043,118.20507799999996,118.3334960000002,126.53857400000015,118.46142599999985,117.82031300000017,67.43603499999972,95.38476599999922,-739.8718259999996,57.05126999999993
334,32.30761700000039,-438.97436500000003,69.23095699999976,76.2822270000006,114.61523400000078,117.94873000000007,120.12841800000024,126.79492200000004,120.64111300000059,120.76904300000024,71.41015599999992,97.56396500000028,-735.897461,56.9228520000006
335,26.538574000000153,-442.9487299999996,63.974121000000196,68.46142599999985,106.0258789999998,117.82031300000017,118.46142599999985,122.82031300000017,120.38476599999922,119.35888699999941,68.0771479999994,94.61523400000078,-736.1538090000004,52.82031300000017
336,17.69238299999961,-447.9487299999996,55.51269500000035,57.94873000000007,98.9741210000002,117.30761700000039,113.84619099999964,117.56396500000028,118.20507799999996,115.76904300000024,60.0,88.46142599999985,-737.4357909999994,46.666503999999804
337,10.256347999999889,-449.8718259999996,48.589844000000085,51.025878999999804,97.94873000000007,116.53857400000015,108.3334960000002,114.23095699999976,115.25634799999989,112.94873000000007,52.69238299999961,83.3334960000002,-736.5385740000002,42.17968800000017
338,6.538574000000153,-447.6923829999996,45.38476599999922,50.38476599999922,102.05126999999993,115.64111300000059,103.46142599999985,112.69238299999961,112.17968800000017,111.53857400000015,49.61523400000078,81.6665039999998,-733.205078,40.38476599999922
339,5.769043000000238,-442.5642090000006,45.12841800000024,55.0,106.6665039999998,115.12841800000024,100.0,110.76904300000024,109.10253900000043,109.74365200000011,50.12841800000024,82.30761700000039,-728.974365,40.64111300000059
340,6.282227000000603,-436.79492200000004,45.25634799999989,61.410155999999915,108.46142599999985,115.12841800000024,98.7177729999994,107.82031300000017,106.53857400000015,106.2822270000006,52.05126999999993,83.20507799999996,-724.615479,41.410155999999915
341,7.051269999999931,-431.79492200000004,44.23095699999976,66.6665039999998,107.56396500000028,115.51269500000035,99.74365200000011,105.64111300000059,105.89746099999957,102.43603499999972,54.35888699999941,83.20507799999996,-719.7436520000001,41.666503999999804
342,7.179688000000169,-429.35888699999987,41.53857400000015,69.87158199999976,105.0,115.89746099999957,102.17968800000017,105.38476599999922,107.43603499999972,100.76904300000024,56.2822270000006,82.43603499999972,-714.8718259999996,41.153809000000365
343,5.512695000000349,-430.1281740000004,37.82031300000017,70.64111300000059,101.6665039999998,116.0258789999998,103.58984400000008,105.51269500000035,108.9741210000002,101.41015599999992,56.410155999999915,81.6665039999998,-711.794922,39.87158199999976
344,2.3076170000003913,-433.58984399999963,35.51269500000035,69.61523400000078,97.94873000000007,115.51269500000035,103.20507799999996,103.9741210000002,108.84619099999964,102.56396500000028,54.48730499999965,81.2822270000006,-711.5385740000002,38.846190999999635
345,-0.12841800000023795,-436.28198199999997,36.410155999999915,68.3334960000002,94.87158199999976,114.87158199999976,102.05126999999993,101.15380900000036,107.56396500000028,102.82031300000017,52.05126999999993,81.79492200000004,-712.4357909999994,39.87158199999976
346,1.153809000000365,-435.0,41.2822270000006,69.61523400000078,94.48730499999965,114.87158199999976,102.69238299999961,100.12841800000024,108.0771479999994,103.46142599999985,51.9228520000006,82.94873000000007,-710.2563479999999,43.846190999999635
347,6.282227000000603,-428.84619099999964,48.20507799999996,75.25634799999989,98.20507799999996,116.15380900000036,105.64111300000059,103.20507799999996,112.30761700000039,106.79492200000004,56.025878999999804,84.61523400000078,-702.4357909999994,49.35888699999941
348,11.410155999999915,-420.2563479999999,53.974121000000196,83.20507799999996,104.74365200000011,118.20507799999996,109.23095699999976,109.48730499999965,118.20507799999996,112.69238299999961,62.69238299999961,86.2822270000006,-690.897461,53.20507799999996
349,11.794922000000042,-413.71801800000003,55.0,88.84619099999964,110.25634799999989,119.87158199999976,110.64111300000059,114.74365200000011,121.15380900000036,116.9228520000006,67.56396500000028,87.43603499999972,-681.025635,52.30761700000039
350,5.769043000000238,-413.076904,50.0,88.46142599999985,110.38476599999922,120.0,107.82031300000017,114.35888699999941,117.17968800000017,113.9741210000002,66.0258789999998,87.17968800000017,-677.4357909999994,46.79492200000004
351,-2.8203119999998307,-418.71801800000003,41.410155999999915,82.43603499999972,102.69238299999961,118.3334960000002,102.05126999999993,107.69238299999961,106.53857400000015,102.94873000000007,57.43603499999972,85.12841800000024,-681.1538090000004,39.61523400000078
352,-8.076904000000013,-426.66674799999964,34.61523400000078,75.25634799999989,89.87158199999976,116.15380900000036,96.79492200000004,98.20507799999996,94.10253900000043,89.35888699999941,45.897460999999566,81.9228520000006,-688.205078,35.0
353,-6.41015600000037,-431.15380900000036,34.74365200000011,72.56396500000028,78.9741210000002,114.87158199999976,94.48730499999965,91.6665039999998,86.0258789999998,81.41015599999992,38.46142599999985,79.74365200000011,-692.0512700000004,35.897460999999566
354,1.153809000000365,-428.33325200000036,41.79492200000004,76.2822270000006,76.6665039999998,115.38476599999922,95.89746099999957,91.6665039999998,85.64111300000059,83.3334960000002,39.23095699999976,80.25634799999989,-688.3332520000004,42.05126999999993
355,9.358886999999413,-419.2307130000004,51.153809000000365,83.20507799999996,82.94873000000007,117.56396500000028,99.10253900000043,96.9228520000006,90.76904300000024,92.30761700000039,46.79492200000004,82.82031300000017,-677.5642090000006,49.74365200000011
356,13.589844000000085,-408.84619099999964,57.17968800000017,87.82031300000017,91.9228520000006,120.38476599999922,101.41015599999992,102.56396500000028,95.89746099999957,100.38476599999922,55.76904300000024,86.15380900000036,-665.0,54.74365200000011
357,12.948730000000069,-401.28198199999997,57.30761700000039,87.43603499999972,96.2822270000006,122.30761700000039,101.41015599999992,104.48730499999965,97.30761700000039,102.30761700000039,61.53857400000015,88.0771479999994,-655.2563479999999,55.0
358,11.153809000000365,-397.179443,53.7177729999994,84.23095699999976,93.9741210000002,122.17968800000017,100.38476599999922,102.56396500000028,95.89746099999957,99.35888699999941,63.589844000000085,88.3334960000002,-649.4870609999998,52.43603499999972
359,12.692382999999609,-394.102539,51.53857400000015,82.56396500000028,89.23095699999976,120.25634799999989,100.38476599999922,100.38476599999922,95.76904300000024,97.69238299999961,64.23095699999976,87.43603499999972,-644.4870609999998,51.025878999999804
360,18.974121000000196,-390.7692869999996,53.333496000000196,84.61523400000078,87.56396500000028,117.94873000000007,102.69238299999961,100.89746099999957,99.23095699999976,102.05126999999993,66.0258789999998,86.79492200000004,-637.6923829999996,53.0771479999994
361,26.538574000000153,-387.820557,57.43603499999972,88.58984400000008,91.53857400000015,117.43603499999972,106.0258789999998,104.10253900000043,105.0,110.89746099999957,68.20507799999996,87.05126999999993,-629.3588869999999,57.05126999999993
362,29.358886999999413,-386.66674799999964,59.48730499999965,90.64111300000059,98.7177729999994,119.48730499999965,108.3334960000002,107.43603499999972,109.10253900000043,118.0771479999994,68.0771479999994,87.82031300000017,-622.820557,59.23095699999976
363,24.48730499999965,-387.3076170000004,57.17968800000017,89.48730499999965,105.0,122.94873000000007,108.9741210000002,108.58984400000008,108.9741210000002,117.82031300000017,64.61523400000078,88.20507799999996,-620.2563479999999,57.30761700000039
364,15.0,-387.5642090000006,51.9228520000006,87.17968800000017,107.69238299999961,125.89746099999957,108.3334960000002,107.43603499999972,105.38476599999922,110.38476599999922,59.23095699999976,87.94873000000007,-620.2563479999999,51.9228520000006
365,6.794922000000042,-385.64111300000013,47.43603499999972,86.6665039999998,105.89746099999957,126.2822270000006,106.9228520000006,105.12841800000024,101.53857400000015,101.2822270000006,55.0,86.9228520000006,-620.0,46.410155999999915
366,3.9741210000001956,-382.0512700000004,46.025878999999804,89.35888699999941,100.51269500000035,123.58984400000008,104.74365200000011,102.43603499999972,99.74365200000011,96.0258789999998,53.589844000000085,85.64111300000059,-617.4357909999994,43.7177729999994
367,6.025878999999804,-378.97436500000003,47.69238299999961,93.20507799999996,94.87158199999976,119.35888699999941,102.17968800000017,99.61523400000078,99.87158199999976,96.41015599999992,54.48730499999965,84.61523400000078,-613.3332520000004,44.61523400000078
368,10.897460999999566,-377.179443,50.25634799999989,96.6665039999998,93.0771479999994,116.41015599999992,101.41015599999992,98.20507799999996,101.41015599999992,101.0258789999998,56.9228520000006,84.61523400000078,-608.718018,48.20507799999996
369,17.17968800000017,-375.897461,52.30761700000039,100.0,97.43603499999972,116.53857400000015,103.9741210000002,100.38476599999922,104.74365200000011,107.56396500000028,60.38476599999922,85.51269500000035,-603.076904,52.43603499999972
370,23.589844000000085,-374.102539,53.7177729999994,104.23095699999976,106.15380900000036,119.23095699999976,109.35888699999941,107.05126999999993,110.25634799999989,114.35888699999941,65.0,87.30761700000039,-596.1538090000004,55.76904300000024
371,28.589844000000085,-371.28198199999997,55.12841800000024,109.87158199999976,113.9741210000002,122.43603499999972,114.10253900000043,115.0,116.0258789999998,120.0,69.87158199999976,88.7177729999994,-588.5898439999996,57.56396500000028
372,30.0,-368.33325200000036,56.53857400000015,115.51269500000035,115.89746099999957,124.87158199999976,115.38476599999922,119.35888699999941,118.9741210000002,121.6665039999998,72.30761700000039,88.9741210000002,-583.205078,57.43603499999972
373,26.410155999999915,-367.0512700000004,56.53857400000015,118.46142599999985,110.25634799999989,126.2822270000006,112.05126999999993,115.89746099999957,116.15380900000036,116.79492200000004,69.87158199999976,87.82031300000017,-582.4357909999994,55.12841800000024
374,18.461425999999847,-369.35888699999987,53.46142599999985,116.9228520000006,99.23095699999976,127.05126999999993,105.12841800000024,105.25634799999989,107.05126999999993,105.64111300000059,62.56396500000028,85.38476599999922,-586.4101560000004,50.12841800000024
375,8.589844000000085,-374.8718259999996,47.56396500000028,111.9228520000006,87.82031300000017,127.56396500000028,97.82031300000017,93.20507799999996,95.0,92.69238299999961,53.46142599999985,82.56396500000028,-591.923096,43.846190999999635
376,0.0,-379.8718259999996,41.2822270000006,107.69238299999961,81.6665039999998,128.7177729999994,93.7177729999994,87.05126999999993,87.05126999999993,85.12841800000024,47.56396500000028,80.64111300000059,-594.102539,38.7177729999994
377,-3.2050779999999577,-379.61547900000005,38.20507799999996,108.7177729999994,84.23095699999976,130.6411130000006,95.25634799999989,91.9228520000006,89.23095699999976,88.46142599999985,49.23095699999976,80.64111300000059,-588.718018,38.20507799999996
378,1.0258789999998044,-372.5642090000006,40.64111300000059,115.64111300000059,94.23095699999976,132.43603499999972,101.79492200000004,106.0258789999998,101.9228520000006,101.79492200000004,57.56396500000028,82.56396500000028,-576.281982,42.69238299999961
379,10.897460999999566,-362.0512700000004,47.17968800000017,124.23095699999976,105.64111300000059,132.82031300000017,109.74365200000011,120.76904300000024,117.56396500000028,117.43603499999972,67.30761700000039,85.0,-562.179443,49.61523400000078
380,20.897460999999566,-354.2307130000004,53.333496000000196,128.9741210000002,112.30761700000039,131.15380900000036,114.48730499999965,127.17968800000017,126.2822270000006,125.89746099999957,71.79492200000004,86.2822270000006,-553.076904,54.35888699999941
381,25.51269500000035,-352.5642090000006,55.25634799999989,127.56396500000028,111.41015599999992,128.20507799999996,114.23095699999976,121.9228520000006,122.69238299999961,122.17968800000017,68.84619099999964,85.64111300000059,-552.0512700000004,54.102539000000434
382,23.461425999999847,-355.7692869999996,53.0771479999994,122.69238299999961,105.0,125.0,111.15380900000036,110.0,110.25634799999989,110.0,61.9228520000006,84.23095699999976,-555.897461,49.61523400000078
383,18.461425999999847,-358.97436500000003,49.87158199999976,119.61523400000078,98.20507799999996,122.17968800000017,108.84619099999964,100.64111300000059,98.58984400000008,98.58984400000008,56.9228520000006,83.58984400000008,-558.5898439999996,45.38476599999922
