,EEG.AF3,EEG.F7,EEG.F3,EEG.FC5,EEG.T7,EEG.P7,EEG.O1,EEG.O2,EEG.P8,EEG.T8,EEG.FC6,EEG.F4,EEG.F8,EEG.AF4
0,104.87158199999976,79.23095699999976,101.53857400000015,118.3334960000002,104.35888699999941,99.87158199999976,94.10253900000043,99.87158199999976,97.05126999999993,103.84619099999964,112.69238299999961,102.05126999999993,93.0771479999994,99.87158199999976
1,102.05126999999993,79.35888699999941,100.51269500000035,121.0258789999998,106.9228520000006,99.23095699999976,93.84619099999964,97.82031300000017,92.43603499999972,101.15380900000036,112.82031300000017,102.30761700000039,93.7177729999994,97.69238299999961
2,98.58984400000008,80.38476599999922,98.7177729999994,120.64111300000059,106.0258789999998,102.05126999999993,93.7177729999994,95.51269500000035,90.76904300000024,98.46142599999985,109.35888699999941,101.6665039999998,91.41015599999992,95.76904300000024
3,97.43603499999972,82.17968800000017,97.56396500000028,117.43603499999972,103.20507799999996,106.2822270000006,94.23095699999976,94.10253900000043,91.41015599999992,96.53857400000015,104.35888699999941,100.0,86.6665039999998,96.2822270000006
4,100.12841800000024,84.61523400000078,98.7177729999994,113.9741210000002,101.6665039999998,109.87158199999976,95.0,94.48730499999965,92.94873000000007,96.9228520000006,101.6665039999998,98.7177729999994,83.20507799999996,99.74365200000011
5,105.64111300000059,87.94873000000007,102.69238299999961,113.58984400000008,104.23095699999976,111.15380900000036,96.2822270000006,96.6665039999998,95.0,101.41015599999992,105.12841800000024,100.25634799999989,85.64111300000059,104.61523400000078
6,111.15380900000036,92.82031300000017,108.7177729999994,117.30761700000039,111.41015599999992,110.89746099999957,98.0771479999994,100.25634799999989,98.58984400000008,109.48730499999965,114.74365200000011,105.64111300000059,95.12841800000024,107.30761700000039
7,113.9741210000002,98.58984400000008,114.61523400000078,122.82031300000017,120.25634799999989,110.64111300000059,100.25634799999989,104.10253900000043,103.7177729999994,117.94873000000007,126.2822270000006,112.82031300000017,107.30761700000039,105.89746099999957
8,113.9741210000002,102.82031300000017,117.69238299999961,126.15380900000036,125.12841800000024,111.41015599999992,101.53857400000015,106.53857400000015,108.46142599999985,122.17968800000017,133.46142599999985,117.05126999999993,115.38476599999922,101.9228520000006
9,113.0771479999994,102.82031300000017,116.79492200000004,124.87158199999976,121.9228520000006,113.3334960000002,100.64111300000059,106.2822270000006,109.74365200000011,119.35888699999941,132.82031300000017,115.12841800000024,115.76904300000024,99.23095699999976
10,113.7177729999994,99.23095699999976,112.94873000000007,120.89746099999957,111.41015599999992,115.38476599999922,97.69238299999961,103.7177729999994,106.9228520000006,110.89746099999957,126.41015599999992,108.3334960000002,111.41015599999992,100.89746099999957
11,116.6665039999998,95.64111300000059,109.48730499999965,118.7177729999994,100.0,116.6665039999998,94.61523400000078,100.38476599999922,102.30761700000039,102.30761700000039,120.12841800000024,102.17968800000017,109.10253900000043,106.41015599999992
12,121.41015599999992,95.51269500000035,109.10253900000043,122.30761700000039,96.0258789999998,116.79492200000004,94.10253900000043,98.58984400000008,99.23095699999976,99.35888699999941,119.61523400000078,101.53857400000015,113.58984400000008,112.30761700000039
13,125.89746099999957,99.74365200000011,112.30761700000039,131.0258789999998,102.43603499999972,116.41015599999992,97.05126999999993,99.10253900000043,99.23095699999976,104.23095699999976,124.74365200000011,106.6665039999998,122.69238299999961,114.61523400000078
14,129.10253900000043,107.30761700000039,117.17968800000017,140.51269500000035,114.23095699999976,115.76904300000024,101.2822270000006,101.15380900000036,101.2822270000006,113.46142599999985,130.51269500000035,113.84619099999964,129.61523400000078,112.17968800000017
15,131.6665039999998,117.05126999999993,121.2822270000006,146.2822270000006,122.56396500000028,115.0,103.9741210000002,103.58984400000008,103.46142599999985,120.64111300000059,132.17968800000017,118.46142599999985,129.87158199999976,107.56396500000028
16,137.43603499999972,127.56396500000028,124.35888699999941,147.05126999999993,122.05126999999993,114.35888699999941,103.9741210000002,105.0,104.87158199999976,121.6665039999998,130.0,118.84619099999964,125.89746099999957,107.05126999999993
17,148.7177729999994,136.6665039999998,127.43603499999972,145.38476599999922,113.84619099999964,114.35888699999941,102.17968800000017,104.48730499999965,105.0,117.17968800000017,128.58984400000008,117.05126999999993,125.38476599999922,114.35888699999941
18,162.82031300000017,141.6665039999998,130.51269500000035,143.84619099999964,102.94873000000007,114.87158199999976,99.48730499999965,101.15380900000036,102.94873000000007,110.38476599999922,131.53857400000015,115.38476599999922,134.87158199999976,126.0258789999998
19,173.3334960000002,140.89746099999957,132.43603499999972,143.7177729999994,94.61523400000078,115.89746099999957,96.41015599999992,95.12841800000024,98.0771479999994,104.10253900000043,137.94873000000007,114.48730499999965,154.23095699999976,134.87158199999976
20,177.43603499999972,136.15380900000036,132.3076170000004,144.7436520000001,91.15380900000036,116.15380900000036,93.7177729999994,88.3334960000002,91.2822270000006,99.48730499999965,144.7436520000001,113.84619099999964,177.17968800000017,137.17968800000017
21,181.2822270000006,133.20507799999996,132.05126999999993,147.82031300000017,93.3334960000002,115.0,92.30761700000039,84.10253900000043,85.76904300000024,97.05126999999993,149.61523400000078,113.7177729999994,195.38476599999922,138.0771479999994
22,194.3588869999994,137.43603499999972,135.51269500000035,154.61523400000078,99.48730499999965,111.79492200000004,92.69238299999961,84.61523400000078,84.48730499999965,97.43603499999972,153.84619099999964,115.0,205.2563479999999,146.0258789999998
23,220.51269500000035,149.48730499999965,144.61523400000078,165.6411130000006,106.2822270000006,107.43603499999972,94.61523400000078,89.61523400000078,88.46142599999985,100.76904300000024,160.0,118.84619099999964,211.15380900000036,164.23095699999976
24,254.10253900000043,165.51269500000035,157.6923829999996,179.23095699999976,110.25634799999989,103.84619099999964,97.05126999999993,96.53857400000015,95.64111300000059,105.38476599999922,169.7436520000001,124.87158199999976,222.6923829999996,188.58984400000008
25,284.23095699999976,182.43603499999972,171.2822270000006,192.43603499999972,109.74365200000011,102.30761700000039,99.10253900000043,101.6665039999998,102.94873000000007,109.61523400000078,183.20507799999996,131.2822270000006,247.05126999999993,212.6923829999996
26,302.94873000000007,200.12841800000024,182.05126999999993,204.10253900000043,106.0258789999998,102.69238299999961,99.74365200000011,102.82031300000017,106.6665039999998,112.30761700000039,198.0771479999994,135.89746099999957,283.0771479999994,233.9741210000002
27,311.53857400000015,219.10253900000043,189.10253900000043,215.2563479999999,101.79492200000004,103.58984400000008,98.84619099999964,99.74365200000011,105.12841800000024,112.94873000000007,210.89746099999957,137.82031300000017,319.6152340000008,255.76904300000024
28,319.23095699999976,236.79492200000004,194.10253900000043,227.82031300000017,98.9741210000002,103.58984400000008,96.15380900000036,93.9741210000002,98.9741210000002,111.79492200000004,218.58984400000008,138.58984400000008,343.9741210000002,282.6923829999996
29,336.0258789999998,248.58984400000008,199.61523400000078,242.56396500000028,98.46142599999985,102.94873000000007,92.82031300000017,88.20507799999996,91.15380900000036,109.74365200000011,221.0258789999998,140.51269500000035,351.15380900000036,315.89746099999957
30,362.82031300000017,251.6665039999998,206.6665039999998,257.6923829999996,99.61523400000078,102.17968800000017,90.0,84.61523400000078,85.12841800000024,107.43603499999972,220.89746099999957,144.7436520000001,347.17968800000017,348.46142599999985
31,390.3847659999992,248.9741210000002,213.9741210000002,270.6411130000006,101.15380900000036,101.79492200000004,88.9741210000002,84.48730499999965,83.46142599999985,105.89746099999957,221.0258789999998,149.48730499999965,343.3334960000002,369.10253900000043
32,406.79492200000004,248.20507799999996,219.61523400000078,279.87158199999976,102.43603499999972,102.05126999999993,90.51269500000035,87.69238299999961,86.41015599999992,106.41015599999992,222.82031300000017,152.6923829999996,348.20507799999996,370.89746099999957
33,406.53857400000015,258.3334960000002,223.3334960000002,285.89746099999957,103.0771479999994,102.43603499999972,94.10253900000043,93.0771479999994,92.17968800000017,109.23095699999976,226.6665039999998,153.20507799999996,363.84619099999964,357.3076170000004
34,392.17968800000017,281.79492200000004,225.89746099999957,290.89746099999957,104.10253900000043,102.82031300000017,98.20507799999996,98.20507799999996,98.3334960000002,113.20507799999996,232.17968800000017,151.9228520000006,386.4101559999999,339.10253900000043
35,372.94873000000007,309.48730499999965,228.46142599999985,296.53857400000015,106.2822270000006,103.20507799999996,100.89746099999957,101.2822270000006,102.43603499999972,116.2822270000006,238.20507799999996,150.76904300000024,408.46142599999985,327.17968800000017
36,359.3588869999994,325.12841800000024,231.15380900000036,304.48730499999965,109.74365200000011,104.35888699999941,101.41015599999992,101.79492200000004,103.7177729999994,116.6665039999998,241.9228520000006,150.38476599999922,421.4101559999999,326.6665039999998
37,358.20507799999996,317.94873000000007,234.48730499999965,314.87158199999976,113.20507799999996,107.17968800000017,100.12841800000024,101.53857400000015,103.20507799999996,114.74365200000011,240.76904300000024,150.89746099999957,420.2563479999999,335.76904300000024
38,368.84619099999964,293.5898440000001,238.84619099999964,327.4360349999997,115.38476599999922,111.53857400000015,98.46142599999985,102.05126999999993,102.30761700000039,111.41015599999992,234.48730499999965,151.2822270000006,408.20507799999996,348.3334960000002
39,383.5898440000001,271.9228520000006,244.3588869999994,341.15380900000036,116.15380900000036,115.12841800000024,97.69238299999961,103.20507799999996,102.05126999999993,108.3334960000002,225.38476599999922,151.2822270000006,397.5639650000003,358.0771479999994
40,393.20507799999996,272.17968800000017,250.0,354.23095699999976,116.2822270000006,116.0258789999998,97.94873000000007,103.20507799999996,101.6665039999998,106.0258789999998,217.05126999999993,150.76904300000024,401.6665039999998,361.2822270000006
41,393.0771479999994,298.0771479999994,253.84619099999964,365.51269500000035,115.89746099999957,113.46142599999985,98.0771479999994,100.12841800000024,99.74365200000011,104.10253900000043,211.2822270000006,149.61523400000078,427.94873000000007,358.0771479999994
42,386.2822270000006,334.3588869999994,254.10253900000043,373.9741210000002,113.9741210000002,108.84619099999964,96.15380900000036,93.84619099999964,96.0258789999998,101.41015599999992,207.56396500000028,147.43603499999972,476.2822270000006,350.89746099999957
43,382.4360349999997,360.6411130000006,251.2822270000006,381.0258789999998,110.38476599999922,103.9741210000002,92.30761700000039,87.05126999999993,91.9228520000006,98.58984400000008,205.2563479999999,145.51269500000035,545.5126950000003,344.10253900000043
44,393.0771479999994,369.6152340000008,248.9741210000002,389.7436520000001,107.56396500000028,100.51269500000035,89.48730499999965,83.9741210000002,90.64111300000059,97.69238299999961,205.89746099999957,146.0258789999998,640.3847659999992,343.3334960000002
45,424.10253900000043,373.5898440000001,251.2822270000006,403.46142599999985,108.20507799999996,99.10253900000043,90.89746099999957,87.30761700000039,93.3334960000002,101.2822270000006,211.53857400000015,149.7436520000001,771.6665039999998,352.05126999999993
46,470.89746099999957,394.87158199999976,259.10253900000043,422.17968800000017,112.56396500000028,99.61523400000078,96.53857400000015,95.25634799999989,98.7177729999994,108.46142599999985,221.9228520000006,155.0,948.5898440000001,368.3334960000002
47,520.0,448.7177729999994,269.6152340000008,442.3076170000004,117.05126999999993,100.89746099999957,102.17968800000017,102.05126999999993,102.82031300000017,114.35888699999941,232.56396500000028,157.94873000000007,1170.256348,385.6411130000006
48,557.9487300000001,535.2563479999999,277.94873000000007,460.12841800000024,117.82031300000017,101.79492200000004,103.20507799999996,102.82031300000017,103.0771479999994,114.48730499999965,238.20507799999996,156.79492200000004,1425.8974609999996,397.94873000000007
49,580.2563479999999,643.205078,282.5639650000003,475.76904300000024,114.35888699999941,101.41015599999992,98.7177729999994,97.94873000000007,100.38476599999922,109.61523400000078,238.3334960000002,153.20507799999996,1702.3076170000004,403.9741210000002
50,591.6665039999998,760.1284180000002,286.0258789999998,493.20507799999996,111.2822270000006,100.76904300000024,92.82031300000017,92.82031300000017,98.84619099999964,105.0,237.6923829999996,151.41015599999992,1991.794922,406.0258789999998
51,600.0,879.3588869999994,292.94873000000007,517.1796880000002,114.87158199999976,101.15380900000036,90.76904300000024,93.3334960000002,102.05126999999993,105.89746099999957,242.82031300000017,153.7177729999994,2291.9228520000006,406.79492200000004
52,610.3847659999992,998.7177729999994,305.12841800000024,548.205078,126.15380900000036,103.3334960000002,94.35888699999941,100.0,109.74365200000011,112.82031300000017,256.0258789999998,159.48730499999965,2598.0771479999994,407.94873000000007
53,621.6665039999998,1116.9228520000006,320.0,581.9228520000006,139.3588869999994,106.79492200000004,100.76904300000024,107.69238299999961,117.82031300000017,120.51269500000035,273.9741210000002,164.7436520000001,2895.384765999999,409.6152340000008
54,629.1025390000004,1231.0258789999998,332.17968800000017,612.0512699999999,146.6665039999998,110.64111300000059,104.74365200000011,110.64111300000059,122.05126999999993,123.58984400000008,290.2563479999999,166.2822270000006,3157.8203129999993,410.12841800000024
55,630.0,1338.4614259999998,339.23095699999976,636.0258789999998,145.6411130000006,113.9741210000002,104.35888699999941,107.30761700000039,122.05126999999993,121.2822270000006,299.87158199999976,163.46142599999985,3358.205078,408.20507799999996
56,627.3076170000004,1440.6411130000006,343.5898440000001,656.794922,141.0258789999998,116.53857400000015,102.17968800000017,102.30761700000039,121.2822270000006,118.7177729999994,304.23095699999976,159.48730499999965,3483.205078,405.0
57,626.1538090000004,1543.7177729999994,350.2563479999999,679.7436520000001,140.89746099999957,117.82031300000017,102.94873000000007,102.05126999999993,124.10253900000043,120.51269500000035,308.20507799999996,158.20507799999996,3541.0258790000007,402.6923829999996
58,627.0512699999999,1652.3076170000004,361.15380900000036,706.5385740000002,148.58984400000008,117.30761700000039,108.7177729999994,108.3334960000002,130.2563479999999,127.69238299999961,316.15380900000036,161.15380900000036,3557.3076170000004,401.2822270000006
59,625.7690430000002,1762.8203130000002,372.82031300000017,732.8203130000002,159.61523400000078,114.61523400000078,116.41015599999992,117.30761700000039,136.0258789999998,135.76904300000024,326.0258789999998,166.2822270000006,3557.5639650000003,398.0771479999994
60,619.1025390000004,1864.8715819999998,380.12841800000024,752.5639650000003,166.15380900000036,110.64111300000059,120.76904300000024,122.69238299999961,137.3076170000004,139.23095699999976,333.0771479999994,169.61523400000078,3555.256348000001,391.79492200000004
61,608.9741210000002,1951.0258789999998,380.89746099999957,763.3334960000002,163.84619099999964,106.2822270000006,118.46142599999985,121.15380900000036,133.84619099999964,136.41015599999992,334.3588869999994,168.7177729999994,3551.5385739999992,384.87158199999976
62,598.9741210000002,2025.3847659999992,378.20507799999996,768.3334960000002,155.38476599999922,102.94873000000007,110.64111300000059,115.38476599999922,128.9741210000002,130.6411130000006,333.0771479999994,164.61523400000078,3543.8461909999996,380.51269500000035
63,588.7177729999994,2101.794922,376.4101559999999,773.7177729999994,147.6923829999996,101.2822270000006,102.17968800000017,110.51269500000035,126.6665039999998,127.43603499999972,333.9741210000002,160.2563479999999,3532.94873,377.82031300000017
64,575.7690430000002,2190.5126950000003,377.4360349999997,783.7177729999994,146.2822270000006,101.6665039999998,98.0771479999994,110.51269500000035,128.3334960000002,129.3588869999994,338.5898440000001,157.94873000000007,3522.3076170000004,373.7177729999994
65,561.6665039999998,2287.820313,381.0258789999998,798.0771479999994,151.6665039999998,102.94873000000007,99.87158199999976,115.0,132.05126999999993,133.58984400000008,343.84619099999964,157.3076170000004,3514.3588870000003,367.4360349999997
66,553.205078,2378.589844,386.79492200000004,813.205078,159.3588869999994,103.3334960000002,105.0,119.87158199999976,134.3588869999994,135.38476599999922,346.53857400000015,157.43603499999972,3508.8461909999996,363.46142599999985
67,557.4360349999997,2447.820313,395.12841800000024,826.4101559999999,164.87158199999976,102.17968800000017,110.25634799999989,121.79492200000004,134.23095699999976,133.7177729999994,347.6923829999996,158.7177729999994,3504.3588870000003,366.79492200000004
68,573.7177729999994,2492.5639650000003,405.89746099999957,836.9228520000006,166.9228520000006,100.76904300000024,114.23095699999976,120.64111300000059,133.58984400000008,131.6665039999998,351.53857400000015,161.79492200000004,3501.0258790000007,377.6923829999996
69,592.1796880000002,2522.5639650000003,417.05126999999993,845.2563479999999,168.0771479999994,101.0258789999998,117.05126999999993,118.7177729999994,134.48730499999965,133.46142599999985,360.76904300000024,166.2822270000006,3499.615234000001,388.9741210000002
70,598.8461909999996,2550.8974609999996,424.3588869999994,851.9228520000006,171.41015599999992,104.23095699999976,118.7177729999994,117.69238299999961,136.41015599999992,139.10253900000043,372.94873000000007,169.3588869999994,3500.256348000001,391.6665039999998
71,587.5639650000003,2581.666504,425.2563479999999,855.7690430000002,177.3076170000004,109.35888699999941,118.9741210000002,117.17968800000017,136.9228520000006,143.7177729999994,381.6665039999998,169.48730499999965,3501.5385739999992,382.5639650000003
72,564.8715819999998,2606.666504,420.3847659999992,856.0258789999998,182.17968800000017,114.61523400000078,117.94873000000007,116.15380900000036,134.48730499999965,143.20507799999996,382.3076170000004,167.43603499999972,3501.6665040000007,366.79492200000004
73,545.3847659999992,2614.743651999999,414.7436520000001,853.8461909999996,182.56396500000028,117.82031300000017,116.41015599999992,115.0,130.76904300000024,138.0771479999994,377.4360349999997,166.15380900000036,3500.8974609999996,354.6152340000008
74,539.4873049999997,2605.7690430000002,413.46142599999985,852.0512699999999,178.58984400000008,118.3334960000002,115.38476599999922,115.0,130.2563479999999,133.9741210000002,374.10253900000043,167.3076170000004,3499.871581999999,353.7177729999994
75,545.6411130000006,2592.6923829999996,418.5898440000001,853.3334960000002,174.87158199999976,116.79492200000004,115.38476599999922,117.05126999999993,136.15380900000036,136.9228520000006,378.20507799999996,170.6411130000006,3499.615234000001,363.9741210000002
76,552.9487300000001,2590.1284180000002,426.6665039999998,856.794922,174.87158199999976,114.23095699999976,115.64111300000059,119.87158199999976,146.6665039999998,146.79492200000004,388.9741210000002,173.7177729999994,3500.0,378.20507799999996
77,551.794922,2599.4873049999997,432.17968800000017,858.0771479999994,177.94873000000007,111.53857400000015,113.9741210000002,121.15380900000036,154.61523400000078,157.6923829999996,398.84619099999964,173.9741210000002,3500.256348000001,387.17968800000017
78,540.5126950000003,2606.794922,430.76904300000024,852.8203130000002,180.0,109.61523400000078,109.10253900000043,119.48730499999965,154.3588869999994,162.05126999999993,400.89746099999957,171.15380900000036,3500.384765999999,385.76904300000024
79,525.5126950000003,2595.384765999999,423.20507799999996,840.1284180000002,178.0771479999994,108.9741210000002,102.30761700000039,115.76904300000024,146.2822270000006,157.05126999999993,394.23095699999976,166.79492200000004,3500.256348000001,376.2822270000006
80,513.4614259999998,2562.4360349999997,414.23095699999976,823.9741210000002,173.7177729999994,109.87158199999976,97.94873000000007,113.20507799999996,136.9228520000006,146.0258789999998,384.6152340000008,163.46142599999985,3500.128418000001,365.76904300000024
81,504.10253900000043,2522.179688,408.3334960000002,809.8715819999998,170.38476599999922,111.79492200000004,99.23095699999976,113.3334960000002,133.46142599999985,136.15380900000036,378.20507799999996,162.94873000000007,3500.0,359.3588869999994
82,491.4101559999999,2493.589844,406.15380900000036,800.5126950000003,170.12841800000024,113.84619099999964,105.51269500000035,115.38476599999922,136.9228520000006,132.3076170000004,376.79492200000004,163.9741210000002,3500.128418000001,356.53857400000015
83,472.82031300000017,2483.7177729999994,405.3847659999992,795.2563479999999,171.79492200000004,115.64111300000059,112.17968800000017,116.79492200000004,142.6923829999996,133.84619099999964,376.9228520000006,164.7436520000001,3500.5126950000003,355.12841800000024
84,455.3847659999992,2483.974121,404.6152340000008,792.1796880000002,173.0771479999994,116.79492200000004,114.87158199999976,116.41015599999992,145.0,136.41015599999992,375.6411130000006,164.61523400000078,3501.1538090000004,355.0
85,449.10253900000043,2479.4873049999997,404.48730499999965,789.2309569999998,173.3334960000002,117.30761700000039,112.82031300000017,115.12841800000024,141.9228520000006,136.15380900000036,373.46142599999985,164.23095699999976,3501.9228519999997,357.94873000000007
86,455.12841800000024,2461.1538090000004,405.3847659999992,784.3588869999994,173.46142599999985,117.69238299999961,108.58984400000008,114.48730499999965,135.6411130000006,132.94873000000007,372.82031300000017,164.48730499999965,3502.1796879999993,362.4360349999997
87,461.79492200000004,2431.9228520000006,405.3847659999992,775.2563479999999,174.48730499999965,118.0771479999994,106.6665039999998,114.35888699999941,130.38476599999922,130.38476599999922,373.9741210000002,164.61523400000078,3502.4360349999997,362.17968800000017
88,454.7436520000001,2402.05127,401.15380900000036,761.5385740000002,176.41015599999992,118.58984400000008,108.84619099999964,113.46142599999985,128.84619099999964,130.51269500000035,373.9741210000002,163.7177729999994,3503.205078,352.94873000000007
89,431.4101559999999,2381.025879,391.79492200000004,745.8974609999996,177.43603499999972,118.84619099999964,113.20507799999996,110.89746099999957,130.12841800000024,132.43603499999972,369.23095699999976,160.89746099999957,3504.4873049999997,337.94873000000007
90,403.5898440000001,2369.743652,380.76904300000024,732.4360349999997,175.38476599999922,118.7177729999994,115.76904300000024,107.17968800000017,131.9228520000006,133.20507799999996,360.51269500000035,157.3076170000004,3505.769043000001,326.6665039999998
91,387.5639650000003,2361.9228520000006,373.20507799999996,724.3588869999994,169.7436520000001,118.3334960000002,114.48730499999965,105.12841800000024,132.6923829999996,131.9228520000006,353.46142599999985,155.38476599999922,3506.1538090000004,326.9228520000006
92,390.3847659999992,2348.974121,371.9228520000006,722.0512699999999,163.3334960000002,118.3334960000002,111.53857400000015,106.79492200000004,132.6923829999996,131.2822270000006,354.23095699999976,157.17968800000017,3504.615234000001,337.3076170000004
93,403.7177729999994,2327.6923829999996,375.12841800000024,722.5639650000003,160.12841800000024,118.9741210000002,110.12841800000024,111.6665039999998,132.94873000000007,133.46142599999985,363.46142599999985,161.9228520000006,3500.769043000001,348.84619099999964
94,412.05126999999993,2302.05127,378.5898440000001,722.1796880000002,161.2822270000006,119.74365200000011,111.41015599999992,115.76904300000024,133.20507799999996,137.82031300000017,374.7436520000001,166.2822270000006,3494.1025390000004,351.6665039999998
95,405.51269500000035,2277.94873,379.48730499999965,718.8461909999996,164.48730499999965,120.0,113.20507799999996,115.76904300000024,132.82031300000017,141.2822270000006,379.87158199999976,167.17968800000017,3483.9741209999993,343.46142599999985
96,388.0771479999994,2257.6923829999996,378.46142599999985,713.5898440000001,166.41015599999992,120.12841800000024,113.58984400000008,111.0258789999998,132.05126999999993,142.05126999999993,375.0,164.23095699999976,3470.384765999999,330.76904300000024
97,370.76904300000024,2238.589844,377.94873000000007,708.7177729999994,165.89746099999957,120.89746099999957,112.43603499999972,105.25634799999989,132.05126999999993,140.2563479999999,363.5898440000001,160.0,3453.4614260000008,322.6923829999996
98,361.79492200000004,2217.179688,378.7177729999994,704.3588869999994,163.84619099999964,122.30761700000039,110.64111300000059,101.79492200000004,133.0771479999994,136.6665039999998,351.79492200000004,157.43603499999972,3433.4614260000008,323.20507799999996
99,360.2563479999999,2192.179688,377.5639650000003,698.0771479999994,161.15380900000036,123.7177729999994,109.23095699999976,100.64111300000059,132.94873000000007,131.79492200000004,343.5898440000001,157.17968800000017,3410.256348000001,327.94873000000007
100,359.3588869999994,2164.743652,371.6665039999998,687.5639650000003,158.58984400000008,123.7177729999994,108.7177729999994,100.12841800000024,129.3588869999994,126.9228520000006,339.87158199999976,157.94873000000007,3385.0,329.48730499999965
101,353.84619099999964,2137.94873,362.17968800000017,675.7690430000002,158.7177729999994,122.43603499999972,109.48730499999965,100.76904300000024,124.61523400000078,125.38476599999922,339.87158199999976,158.46142599999985,3360.769043000001,324.87158199999976
102,345.12841800000024,2114.8715819999998,356.0258789999998,668.9741210000002,165.76904300000024,121.0258789999998,112.94873000000007,106.53857400000015,126.0258789999998,131.9228520000006,344.7436520000001,159.48730499999965,3341.6665040000007,318.9741210000002
103,338.20507799999996,2096.1538090000004,360.76904300000024,672.4360349999997,181.79492200000004,120.89746099999957,121.15380900000036,121.41015599999992,140.51269500000035,148.84619099999964,355.76904300000024,162.82031300000017,3328.8461909999996,319.23095699999976
104,334.7436520000001,2076.025879,375.51269500000035,681.6665039999998,201.41015599999992,121.53857400000015,132.56396500000028,142.6923829999996,165.51269500000035,170.89746099999957,370.51269500000035,168.0771479999994,3316.410156,326.53857400000015
105,329.23095699999976,2041.410156,387.82031300000017,682.8203130000002,212.05126999999993,121.15380900000036,141.0258789999998,158.58984400000008,186.53857400000015,185.76904300000024,380.0,172.17968800000017,3291.6665040000007,331.9228520000006
106,313.9741210000002,1978.4614259999998,382.5639650000003,661.6665039999998,202.6923829999996,118.3334960000002,138.7177729999994,156.0258789999998,186.53857400000015,180.6411130000006,374.7436520000001,170.89746099999957,3241.6665040000007,324.3588869999994
107,290.3847659999992,1884.3588869999994,355.51269500000035,616.794922,175.2563479999999,114.61523400000078,124.23095699999976,132.82031300000017,161.15380900000036,155.0,354.10253900000043,162.43603499999972,3163.0771480000003,303.5898440000001
108,269.7436520000001,1773.3334960000002,319.87158199999976,564.2309569999998,146.6665039999998,113.20507799999996,106.6665039999998,103.20507799999996,125.76904300000024,123.9741210000002,330.0,150.38476599999922,3062.8203129999993,282.05126999999993
109,263.3334960000002,1667.94873,297.4360349999997,525.8974609999996,137.56396500000028,116.6665039999998,99.23095699999976,88.3334960000002,104.74365200000011,108.9741210000002,319.10253900000043,141.53857400000015,2950.6411129999997,274.10253900000043
110,270.89746099999957,1581.410156,300.12841800000024,510.76904300000024,154.61523400000078,124.48730499999965,108.46142599999985,98.9741210000002,112.82031300000017,120.51269500000035,328.46142599999985,140.89746099999957,2828.205078,281.2822270000006
111,280.12841800000024,1508.4614259999998,319.6152340000008,507.6923829999996,184.10253900000043,131.6665039999998,127.30761700000039,126.41015599999992,142.43603499999972,149.23095699999976,349.48730499999965,147.56396500000028,2689.4873049999997,289.6152340000008
112,278.0771479999994,1431.9228520000006,332.94873000000007,493.0771479999994,201.0258789999998,133.0771479999994,140.76904300000024,148.20507799999996,169.61523400000078,171.9228520000006,364.7436520000001,155.12841800000024,2529.743652,281.53857400000015
113,263.46142599999985,1340.3847659999992,321.79492200000004,450.76904300000024,189.10253900000043,127.30761700000039,136.79492200000004,146.0258789999998,171.79492200000004,169.3588869999994,361.2822270000006,156.41015599999992,2357.179688,251.79492200000004
114,249.87158199999976,1239.6152340000008,286.15380900000036,383.5898440000001,153.20507799999996,118.46142599999985,116.53857400000015,118.84619099999964,145.2563479999999,140.6411130000006,340.0,148.9741210000002,2191.538574,212.3076170000004
115,257.05126999999993,1148.4614259999998,243.84619099999964,311.6665039999998,115.38476599999922,112.94873000000007,93.20507799999996,83.7177729999994,106.79492200000004,103.46142599999985,313.46142599999985,137.3076170000004,2051.794922,184.3588869999994
116,296.0258789999998,1085.7690430000002,215.51269500000035,256.53857400000015,97.05126999999993,114.74365200000011,81.53857400000015,61.53857400000015,79.87158199999976,79.87158199999976,294.6152340000008,128.84619099999964,1941.410156,182.3076170000004
117,359.7436520000001,1056.794922,209.10253900000043,226.9228520000006,102.94873000000007,122.05126999999993,86.41015599999992,61.9228520000006,76.6665039999998,79.61523400000078,287.5639650000003,127.69238299999961,1846.6665039999998,203.20507799999996
118,426.53857400000015,1050.7690430000002,215.89746099999957,213.84619099999964,119.87158199999976,129.3588869999994,99.87158199999976,77.17968800000017,90.89746099999957,95.0,284.87158199999976,131.15380900000036,1749.8715819999998,230.6411130000006
119,475.12841800000024,1048.589844,220.12841800000024,201.9228520000006,129.7436520000001,130.89746099999957,109.35888699999941,91.15380900000036,106.2822270000006,109.35888699999941,276.79492200000004,133.46142599999985,1643.589844,247.82031300000017
120,498.5898440000001,1035.6411130000006,213.3334960000002,182.6923829999996,125.51269500000035,126.0258789999998,108.58984400000008,93.0771479999994,111.0258789999998,111.9228520000006,259.6152340000008,130.2563479999999,1536.0258789999998,249.87158199999976
121,505.2563479999999,1009.7436520000001,198.84619099999964,158.46142599999985,112.94873000000007,118.84619099999964,100.76904300000024,84.74365200000011,105.12841800000024,104.35888699999941,238.3334960000002,122.94873000000007,1442.1796880000002,243.84619099999964
122,509.23095699999976,979.2309569999998,185.6411130000006,137.05126999999993,103.3334960000002,114.74365200000011,94.35888699999941,75.76904300000024,96.79492200000004,96.53857400000015,220.6411130000006,115.76904300000024,1369.6152340000008,239.48730499999965
123,517.9487300000001,953.7177729999994,178.58984400000008,120.89746099999957,102.30761700000039,116.0258789999998,95.12841800000024,74.61523400000078,92.82031300000017,96.79492200000004,209.48730499999965,112.30761700000039,1310.8974609999996,240.38476599999922
124,527.6923829999996,936.9228520000006,175.0,105.12841800000024,107.56396500000028,120.0,102.05126999999993,82.56396500000028,94.48730499999965,104.61523400000078,201.53857400000015,112.69238299999961,1250.7690430000002,242.56396500000028
125,530.1284180000002,925.1284180000002,169.48730499999965,83.84619099999964,113.20507799999996,122.43603499999972,110.0,94.74365200000011,99.61523400000078,113.3334960000002,192.43603499999972,114.23095699999976,1178.7177729999994,239.48730499999965
126,522.1796880000002,912.4360349999997,160.12841800000024,57.30761700000039,115.89746099999957,121.15380900000036,115.0,106.0258789999998,105.64111300000059,117.05126999999993,181.2822270000006,114.48730499999965,1097.5639650000003,229.48730499999965
127,508.5898440000001,894.8715819999998,150.6411130000006,32.69238299999961,116.41015599999992,118.0771479999994,117.05126999999993,114.48730499999965,111.53857400000015,116.53857400000015,171.41015599999992,112.82031300000017,1019.6152340000008,215.89746099999957
128,496.4101559999999,871.6665039999998,145.12841800000024,16.922852000000603,117.30761700000039,116.41015599999992,118.20507799999996,120.38476599999922,116.79492200000004,116.15380900000036,165.76904300000024,109.87158199999976,954.4873049999997,202.82031300000017
129,488.20507799999996,841.794922,143.20507799999996,9.358886999999413,118.7177729999994,118.20507799999996,119.10253900000043,123.20507799999996,119.35888699999941,118.20507799999996,162.17968800000017,107.17968800000017,902.4360349999997,190.89746099999957
130,480.76904300000024,804.4873049999997,140.12841800000024,3.846190999999635,119.48730499999965,122.56396500000028,118.3334960000002,121.79492200000004,116.9228520000006,120.89746099999957,155.6411130000006,105.25634799999989,857.3076170000004,178.20507799999996
131,469.23095699999976,760.0,132.43603499999972,-5.641113000000132,118.58984400000008,126.41015599999992,114.74365200000011,116.79492200000004,109.48730499999965,121.2822270000006,143.0771479999994,103.58984400000008,813.3334960000002,163.58984400000008
132,451.15380900000036,711.4101559999999,120.64111300000059,-19.61547900000005,116.41015599999992,126.9228520000006,109.48730499999965,111.0258789999998,100.51269500000035,117.69238299999961,126.6665039999998,101.9228520000006,767.9487300000001,149.10253900000043
133,428.3334960000002,662.5639650000003,109.10253900000043,-34.74365200000011,113.9741210000002,123.46142599999985,104.23095699999976,107.17968800000017,93.7177729999994,110.89746099999957,111.6665039999998,100.12841800000024,719.2309569999998,137.43603499999972
134,404.48730499999965,616.1538090000004,100.89746099999957,-47.564209000000574,110.76904300000024,117.94873000000007,100.89746099999957,105.51269500000035,90.38476599999922,103.20507799999996,102.05126999999993,98.3334960000002,664.4873049999997,129.87158199999976
135,383.5898440000001,573.0771479999994,96.0258789999998,-57.30761700000039,106.15380900000036,113.46142599999985,100.25634799999989,103.84619099999964,89.23095699999976,98.0771479999994,98.7177729999994,96.9228520000006,602.6923829999996,125.38476599999922
136,367.5639650000003,532.8203130000002,92.94873000000007,-64.8718259999996,101.79492200000004,111.79492200000004,101.9228520000006,100.12841800000024,88.3334960000002,98.3334960000002,99.74365200000011,96.15380900000036,538.3334960000002,122.05126999999993
137,355.76904300000024,494.87158199999976,90.64111300000059,-71.02563499999997,101.2822270000006,112.69238299999961,103.84619099999964,95.0,87.30761700000039,104.35888699999941,102.30761700000039,96.41015599999992,479.23095699999976,119.35888699999941
138,345.12841800000024,457.94873000000007,88.46142599999985,-76.66674799999964,105.89746099999957,114.87158199999976,103.58984400000008,90.0,86.2822270000006,112.05126999999993,103.0771479999994,97.69238299999961,429.7436520000001,116.53857400000015
139,332.05126999999993,419.6152340000008,85.76904300000024,-82.69238299999961,113.20507799999996,116.53857400000015,99.35888699999941,86.2822270000006,85.12841800000024,116.0258789999998,98.84619099999964,99.10253900000043,386.53857400000015,112.69238299999961
140,315.2563479999999,378.5898440000001,81.79492200000004,-90.25634799999989,117.69238299999961,117.05126999999993,92.30761700000039,83.7177729999994,83.20507799999996,112.69238299999961,89.87158199999976,99.23095699999976,342.5639650000003,107.05126999999993
141,295.6411130000006,336.4101559999999,77.17968800000017,-98.84619099999964,116.2822270000006,117.05126999999993,86.15380900000036,82.43603499999972,81.41015599999992,104.35888699999941,78.58984400000008,97.56396500000028,293.0771479999994,99.74365200000011
142,276.2822270000006,295.76904300000024,73.3334960000002,-106.41015600000037,110.51269500000035,117.56396500000028,84.87158199999976,82.30761700000039,81.41015599999992,97.30761700000039,69.10253900000043,94.35888699999941,239.87158199999976,92.69238299999961
143,259.3588869999994,257.94873000000007,70.76904300000024,-111.28198199999997,105.25634799999989,118.84619099999964,89.61523400000078,83.7177729999994,84.10253900000043,96.53857400000015,62.82031300000017,91.0258789999998,188.20507799999996,87.94873000000007
144,245.51269500000035,221.53857400000015,68.84619099999964,-113.07690400000001,105.12841800000024,120.51269500000035,97.82031300000017,86.53857400000015,88.3334960000002,102.56396500000028,58.846190999999635,88.58984400000008,140.6411130000006,86.53857400000015
145,232.94873000000007,184.87158199999976,66.41015599999992,-112.94872999999961,110.89746099999957,121.15380900000036,104.61523400000078,90.51269500000035,91.6665039999998,111.0258789999998,54.87158199999976,87.17968800000017,95.25634799999989,86.79492200000004
146,219.3588869999994,147.94873000000007,62.43603499999972,-113.20507799999996,119.10253900000043,120.25634799999989,106.53857400000015,94.74365200000011,92.43603499999972,116.2822270000006,50.0,86.6665039999998,47.56396500000028,85.64111300000059
147,203.46142599999985,112.56396500000028,57.56396500000028,-116.02563499999997,124.10253900000043,118.84619099999964,103.7177729999994,98.3334960000002,90.89746099999957,115.0,44.35888699999941,86.41015599999992,-5.256347999999889,81.41015599999992
148,186.0258789999998,79.74365200000011,53.0771479999994,-121.53857400000015,122.17968800000017,118.3334960000002,100.12841800000024,100.25634799999989,89.35888699999941,108.20507799999996,39.102539000000434,86.0258789999998,-62.435790999999426,75.0
149,169.87158199999976,48.7177729999994,50.25634799999989,-127.69238299999961,114.48730499999965,119.48730499999965,100.0,100.64111300000059,89.48730499999965,100.12841800000024,35.64111300000059,85.38476599999922,-120.1281740000004,69.35888699999941
150,157.43603499999972,18.589844000000085,48.7177729999994,-132.179443,106.0258789999998,121.9228520000006,104.48730499999965,100.89746099999957,90.89746099999957,95.25634799999989,33.974121000000196,84.48730499999965,-173.71801800000003,67.05126999999993
151,148.9741210000002,-11.153809000000365,47.43603499999972,-134.8718259999996,101.6665039999998,124.23095699999976,111.41015599999992,102.05126999999993,91.53857400000015,95.38476599999922,32.94873000000007,83.46142599999985,-220.38452099999995,67.43603499999972
152,141.79492200000004,-39.8718259999996,45.12841800000024,-137.820557,102.43603499999972,124.61523400000078,116.2822270000006,105.0,90.0,98.46142599999985,30.897460999999566,82.94873000000007,-259.7436520000001,67.69238299999961
153,132.94873000000007,-66.79492200000004,41.79492200000004,-142.820557,106.79492200000004,122.94873000000007,117.05126999999993,110.12841800000024,87.17968800000017,100.89746099999957,26.922852000000603,83.46142599999985,-292.3076170000004,65.89746099999957
154,121.2822270000006,-91.41015600000037,38.7177729999994,-149.8718259999996,110.89746099999957,119.74365200000011,113.84619099999964,116.2822270000006,85.51269500000035,100.38476599999922,21.666503999999804,84.74365200000011,-319.8718259999996,61.666503999999804
155,108.20507799999996,-114.74365200000011,36.9228520000006,-157.43579099999943,111.0258789999998,116.9228520000006,109.35888699999941,120.76904300000024,86.2822270000006,97.30761700000039,15.512695000000349,85.64111300000059,-344.7436520000001,56.79492200000004
156,95.89746099999957,-137.56420900000057,36.153809000000365,-163.20507799999996,106.41015599999992,115.51269500000035,105.51269500000035,120.89746099999957,88.0771479999994,92.94873000000007,9.615234000000783,85.25634799999989,-370.64111300000013,53.0771479999994
157,86.53857400000015,-159.8718259999996,35.76904300000024,-165.76928699999962,99.74365200000011,115.64111300000059,103.46142599999985,116.41015599999992,88.9741210000002,88.7177729999994,5.3847659999992175,83.9741210000002,-400.5129390000002,51.9228520000006
158,81.15380900000036,-180.2563479999999,35.64111300000059,-164.8718259999996,95.38476599999922,116.2822270000006,103.20507799999996,110.25634799999989,88.0771479999994,86.53857400000015,4.871581999999762,83.20507799999996,-433.58984399999963,53.846190999999635
159,79.74365200000011,-196.79492200000004,36.410155999999915,-160.89746100000002,96.79492200000004,116.41015599999992,104.74365200000011,106.41015599999992,86.79492200000004,88.46142599999985,9.230956999999762,85.12841800000024,-466.79492200000004,57.43603499999972
160,80.25634799999989,-209.7436520000001,38.589844000000085,-155.76928699999962,103.58984400000008,115.64111300000059,107.05126999999993,107.30761700000039,86.9228520000006,95.0,17.43603499999972,89.74365200000011,-497.179443,60.25634799999989
161,78.9741210000002,-221.15380900000036,41.53857400000015,-151.66674799999964,111.2822270000006,114.23095699999976,108.46142599999985,111.0258789999998,88.9741210000002,103.46142599999985,25.384765999999217,94.87158199999976,-526.281982,60.76904300000024
162,73.20507799999996,-234.61547900000005,43.20507799999996,-151.15380900000036,114.35888699999941,112.94873000000007,107.69238299999961,113.0771479999994,91.15380900000036,108.9741210000002,28.333496000000196,96.9228520000006,-557.9487299999996,58.974121000000196
163,62.82031300000017,-252.0512700000004,41.9228520000006,-154.61547900000005,110.38476599999922,112.69238299999961,104.61523400000078,110.0,90.38476599999922,107.43603499999972,23.846190999999635,94.10253900000043,-594.4870609999998,56.153809000000365
164,51.153809000000365,-272.4357909999994,38.20507799999996,-159.8718259999996,102.82031300000017,113.84619099999964,101.2822270000006,102.94873000000007,86.2822270000006,99.87158199999976,14.230956999999762,88.58984400000008,-632.6923829999996,53.7177729999994
165,42.56396500000028,-291.79492200000004,34.87158199999976,-162.820557,97.05126999999993,116.15380900000036,99.74365200000011,97.30761700000039,81.2822270000006,91.79492200000004,5.512695000000349,84.35888699999941,-665.897461,51.9228520000006
166,38.589844000000085,-307.4357909999994,33.589844000000085,-161.66674799999964,96.41015599999992,118.20507799999996,100.76904300000024,97.43603499999972,78.9741210000002,88.7177729999994,2.6923829999996087,84.35888699999941,-689.4870609999998,50.51269500000035
167,36.79492200000004,-320.5129390000002,33.20507799999996,-158.20507799999996,99.35888699999941,118.9741210000002,102.69238299999961,103.3334960000002,81.15380900000036,91.2822270000006,5.512695000000349,87.30761700000039,-704.4870609999998,48.589844000000085
168,33.0771479999994,-333.71801800000003,30.897460999999566,-156.53857400000015,102.05126999999993,117.82031300000017,103.0771479999994,110.38476599999922,86.15380900000036,96.53857400000015,9.487304999999651,89.35888699999941,-715.384521,46.153809000000365
169,26.410155999999915,-347.3076170000004,26.025878999999804,-158.20507799999996,102.82031300000017,116.15380900000036,101.6665039999998,114.74365200000011,91.9228520000006,101.0258789999998,10.256347999999889,88.0771479999994,-726.281982,43.974121000000196
170,19.871581999999762,-358.33325200000036,21.282227000000603,-160.89746100000002,103.20507799999996,116.53857400000015,101.0258789999998,115.89746099999957,97.17968800000017,103.9741210000002,8.077147999999397,84.48730499999965,-736.794922,43.846190999999635
171,17.30761700000039,-363.46142599999985,20.128418000000238,-160.76928699999962,106.9228520000006,120.89746099999957,104.23095699999976,116.41015599999992,102.17968800000017,107.30761700000039,6.666503999999804,82.30761700000039,-744.615479,47.30761700000039
172,19.615234000000783,-363.58984399999963,23.077147999999397,-156.15380900000036,115.25634799999989,128.7177729999994,111.6665039999998,118.46142599999985,106.53857400000015,111.6665039999998,8.333496000000196,84.23095699999976,-749.102539,53.46142599999985
173,22.82031300000017,-364.61547900000005,27.30761700000039,-150.0,124.48730499999965,136.6665039999998,119.48730499999965,120.51269500000035,108.3334960000002,115.76904300000024,11.922852000000603,88.84619099999964,-753.076904,58.333496000000196
174,21.282227000000603,-372.0512700000004,28.846190999999635,-147.6923829999996,128.0771479999994,140.51269500000035,122.30761700000039,118.9741210000002,105.51269500000035,116.41015599999992,13.333496000000196,92.56396500000028,-761.281982,58.46142599999985
175,12.82031300000017,-387.3076170000004,25.0,-151.41015600000037,122.43603499999972,138.7177729999994,118.58984400000008,111.6665039999998,97.82031300000017,112.17968800000017,9.487304999999651,92.43603499999972,-775.897461,52.82031300000017
176,0.38476599999921746,-405.5129390000002,17.43603499999972,-158.20507799999996,110.89746099999957,133.58984400000008,111.6665039999998,101.79492200000004,88.7177729999994,104.35888699999941,1.2822270000006029,88.58984400000008,-794.871826,45.51269500000035
177,-10.641113000000132,-419.8718259999996,10.128418000000238,-161.66674799999964,101.41015599999992,129.3588869999994,107.30761700000039,95.76904300000024,83.20507799999996,97.30761700000039,-7.179442999999992,83.46142599999985,-813.205078,41.153809000000365
178,-16.666747999999643,-427.6923829999996,6.538574000000153,-157.9487299999996,99.87158199999976,128.7177729999994,108.3334960000002,97.56396500000028,84.48730499999965,94.74365200000011,-11.794922000000042,79.87158199999976,-827.179443,41.53857400000015
179,-19.10253899999998,-431.53857400000015,6.922852000000603,-148.97436500000003,105.0,130.89746099999957,113.3334960000002,105.89746099999957,91.2822270000006,97.30761700000039,-11.794922000000042,78.7177729999994,-836.794922,44.23095699999976
180,-21.28198199999997,-436.53857400000015,8.974121000000196,-141.15380900000036,111.15380900000036,132.82031300000017,117.94873000000007,115.76904300000024,99.74365200000011,102.43603499999972,-9.102538999999979,79.10253900000043,-845.2563479999999,45.38476599999922
181,-25.1281740000004,-444.8718259999996,10.128418000000238,-138.97436500000003,112.82031300000017,132.3076170000004,119.35888699999941,122.05126999999993,105.38476599999922,106.41015599999992,-6.538574000000153,79.10253900000043,-856.1538089999999,43.7177729999994
182,-29.230713000000378,-454.8718259999996,9.743652000000111,-141.79492200000004,109.87158199999976,130.2563479999999,117.43603499999972,123.3334960000002,106.79492200000004,106.9228520000006,-5.769286999999622,78.0771479999994,-869.4870609999998,40.76904300000024
183,-30.89746100000002,-462.179443,8.205077999999958,-144.8718259999996,106.2822270000006,128.7177729999994,114.61523400000078,121.15380900000036,105.0,104.74365200000011,-7.179442999999992,76.41015599999992,-883.205078,38.7177729999994
184,-29.487060999999812,-464.61547900000005,6.794922000000042,-143.20507799999996,106.41015599999992,129.10253900000043,113.46142599999985,118.84619099999964,102.43603499999972,102.17968800000017,-9.743652000000111,75.76904300000024,-895.2563479999999,38.846190999999635
185,-26.923095999999987,-463.46142599999985,6.666503999999804,-135.5129390000002,111.41015599999992,130.12841800000024,114.23095699999976,118.7177729999994,101.2822270000006,101.2822270000006,-11.538574000000153,76.9228520000006,-905.2563479999999,40.51269500000035
186,-26.28198199999997,-463.076904,8.205077999999958,-125.89746100000002,117.30761700000039,130.51269500000035,115.76904300000024,120.12841800000024,101.53857400000015,102.17968800000017,-11.666747999999643,79.61523400000078,-915.384521,42.17968800000017
187,-30.1281740000004,-468.076904,10.128418000000238,-120.51293900000019,118.3334960000002,129.10253900000043,116.0258789999998,120.76904300000024,101.79492200000004,102.17968800000017,-11.666747999999643,82.05126999999993,-928.718018,42.17968800000017
188,-38.46142599999985,-480.2563479999999,10.0,-122.56420900000057,111.9228520000006,126.79492200000004,114.74365200000011,119.23095699999976,100.38476599999922,99.48730499999965,-13.461425999999847,82.82031300000017,-946.281982,39.61523400000078
189,-48.20507799999996,-495.897461,7.051269999999931,-129.23071300000038,101.79492200000004,124.87158199999976,112.82031300000017,116.41015599999992,97.69238299999961,95.12841800000024,-17.30761700000039,82.43603499999972,-965.897461,35.64111300000059
190,-54.8718259999996,-507.6923829999996,3.717772999999397,-133.58984399999963,94.74365200000011,124.10253900000043,111.9228520000006,115.38476599999922,96.15380900000036,91.9228520000006,-20.769286999999622,82.17968800000017,-983.5898440000001,33.20507799999996
191,-55.25634799999989,-510.2563479999999,3.2050779999999577,-130.5129390000002,95.12841800000024,123.58984400000008,112.94873000000007,118.46142599999985,97.17968800000017,92.05126999999993,-21.153809000000365,83.20507799999996,-995.7692870000001,34.61523400000078
192,-49.74365200000011,-504.2307130000004,6.922852000000603,-119.8718259999996,100.89746099999957,122.43603499999972,115.38476599999922,124.74365200000011,99.74365200000011,94.23095699999976,-16.794922000000042,85.25634799999989,-1001.794922,39.23095699999976
193,-42.564209000000574,-496.02563499999997,13.333496000000196,-107.82055700000001,106.41015599999992,120.25634799999989,117.94873000000007,131.41015599999992,101.41015599999992,95.76904300000024,-9.743652000000111,87.56396500000028,-1005.0,43.7177729999994
194,-38.58984399999963,-493.076904,18.333496000000196,-101.02563499999997,107.17968800000017,117.94873000000007,119.61523400000078,135.0,100.89746099999957,94.23095699999976,-4.230713000000378,88.7177729999994,-1010.0,45.12841800000024
195,-40.25634799999989,-497.9487299999996,19.102539000000434,-102.30761700000039,104.10253900000043,116.6665039999998,119.61523400000078,133.9741210000002,99.61523400000078,90.12841800000024,-3.4614259999998467,88.46142599999985,-1019.2307129999999,42.94873000000007
196,-45.51293900000019,-507.4357909999994,15.512695000000349,-108.46142599999985,102.05126999999993,116.79492200000004,118.0771479999994,130.12841800000024,100.12841800000024,86.9228520000006,-7.051270000000386,87.05126999999993,-1031.025635,39.35888699999941
197,-49.74365200000011,-514.8718259999996,11.282227000000603,-112.69238299999961,105.0,117.82031300000017,116.2822270000006,127.43603499999972,104.23095699999976,88.7177729999994,-11.28198199999997,85.76904300000024,-1040.384521,37.82031300000017
198,-49.48706099999981,-515.5129390000002,10.384765999999217,-109.48706099999981,112.43603499999972,118.58984400000008,115.76904300000024,128.84619099999964,111.15380900000036,96.53857400000015,-11.28198199999997,86.15380900000036,-1043.974365,40.51269500000035
199,-45.0,-509.7436520000001,14.230956999999762,-99.8718259999996,120.0,118.9741210000002,116.79492200000004,133.9741210000002,117.69238299999961,106.6665039999998,-5.38452099999995,88.20507799999996,-1042.05127,46.666503999999804
200,-39.8718259999996,-502.820557,20.769043000000238,-90.0,122.43603499999972,118.9741210000002,118.20507799999996,138.7177729999994,120.12841800000024,113.0771479999994,3.5898440000000846,90.51269500000035,-1039.102539,52.94873000000007
201,-37.82055700000001,-500.38452099999995,25.384765999999217,-86.41015600000037,118.0771479999994,118.84619099999964,118.0771479999994,138.58984400000008,116.79492200000004,111.53857400000015,10.897460999999566,90.89746099999957,-1039.871826,55.38476599999922
202,-39.8718259999996,-505.0,24.74365200000011,-91.53857400000015,109.23095699999976,118.20507799999996,116.0258789999998,132.3076170000004,109.74365200000011,103.84619099999964,12.82031300000017,89.35888699999941,-1045.769287,52.56396500000028
203,-43.71801800000003,-514.4870609999998,19.102539000000434,-101.28198199999997,101.41015599999992,116.79492200000004,112.94873000000007,123.3334960000002,102.69238299999961,96.15380900000036,8.974121000000196,87.30761700000039,-1054.3588870000003,46.666503999999804
204,-46.153809000000365,-523.3332520000004,12.051269999999931,-108.20507799999996,98.58984400000008,115.0,110.76904300000024,116.53857400000015,99.35888699999941,94.10253900000043,2.5639650000002803,86.15380900000036,-1061.923096,41.410155999999915
205,-46.53857400000015,-527.3076170000004,7.820313000000169,-107.30761700000039,101.0258789999998,113.46142599999985,109.74365200000011,114.35888699999941,100.38476599999922,98.3334960000002,-2.5639650000002803,86.15380900000036,-1066.153809,39.35888699999941
206,-47.051270000000386,-526.4101560000004,7.179688000000169,-99.61547900000005,104.87158199999976,113.0771479999994,108.7177729999994,115.12841800000024,102.69238299999961,103.20507799999996,-4.61547900000005,86.6665039999998,-1067.820557,39.87158199999976
207,-51.153809000000365,-523.4614259999998,7.820313000000169,-91.66674799999964,105.76904300000024,113.7177729999994,106.41015599999992,114.48730499999965,102.69238299999961,102.82031300000017,-5.0,86.6665039999998,-1070.256348,40.38476599999922
208,-58.58984399999963,-521.5385740000002,7.692382999999609,-89.23071300000038,102.94873000000007,114.61523400000078,102.94873000000007,110.38476599999922,98.9741210000002,97.05126999999993,-5.769286999999622,85.12841800000024,-1075.256348,39.23095699999976
209,-64.61547900000005,-520.6411130000001,6.922852000000603,-92.69238299999961,99.74365200000011,115.0,100.51269500000035,105.12841800000024,94.10253900000043,91.53857400000015,-6.923095999999987,82.56396500000028,-1081.153809,37.69238299999961
210,-63.58984399999963,-519.2307130000004,8.205077999999958,-96.92309599999999,99.87158199999976,115.64111300000059,101.79492200000004,103.46142599999985,93.0771479999994,92.82031300000017,-6.281981999999971,80.76904300000024,-1084.102539,38.20507799999996
211,-54.61547900000005,-516.5385740000002,12.692382999999609,-96.28198199999997,105.0,116.6665039999998,107.30761700000039,108.46142599999985,98.58984400000008,102.17968800000017,-1.4101559999999154,82.30761700000039,-1081.794922,42.56396500000028
212,-42.69238299999961,-513.3332520000004,19.102539000000434,-89.48706099999981,112.69238299999961,118.20507799999996,114.74365200000011,118.7177729999994,108.84619099999964,114.74365200000011,7.179688000000169,87.94873000000007,-1075.5129390000002,49.35888699999941
213,-34.61547900000005,-511.41015600000037,24.74365200000011,-80.25634799999989,119.61523400000078,119.48730499999965,120.76904300000024,129.10253900000043,118.46142599999985,123.3334960000002,16.282227000000603,95.12841800000024,-1069.102539,55.12841800000024
214,-33.58984399999963,-511.41015600000037,27.17968800000017,-73.97436500000003,122.56396500000028,119.48730499999965,122.69238299999961,133.9741210000002,121.9228520000006,123.0771479999994,21.282227000000603,99.87158199999976,-1066.153809,56.79492200000004
215,-38.33325200000036,-512.3076170000004,26.282227000000603,-73.84619099999964,120.12841800000024,118.20507799999996,120.89746099999957,131.2822270000006,117.17968800000017,114.48730499999965,19.871581999999762,99.48730499999965,-1067.6923829999996,53.333496000000196
216,-44.61547900000005,-513.5898439999996,23.333496000000196,-78.71801800000003,114.61523400000078,116.0258789999998,116.9228520000006,123.7177729999994,107.69238299999961,102.69238299999961,13.974121000000196,94.61523400000078,-1072.05127,47.17968800000017
217,-48.846190999999635,-514.615479,20.769043000000238,-84.61547900000005,109.87158199999976,114.10253900000043,113.58984400000008,116.53857400000015,99.87158199999976,94.35888699999941,8.077147999999397,89.23095699999976,-1077.05127,41.79492200000004
218,-49.8718259999996,-515.384521,19.871581999999762,-87.30761700000039,108.7177729999994,113.58984400000008,112.43603499999972,114.35888699999941,98.58984400000008,93.3334960000002,6.282227000000603,87.17968800000017,-1080.384521,40.25634799999989
219,-48.846190999999635,-515.6411130000001,20.769043000000238,-86.02563499999997,110.64111300000059,114.10253900000043,113.84619099999964,118.7177729999994,103.9741210000002,99.35888699999941,9.871581999999762,90.0,-1081.153809,42.56396500000028
220,-46.79492200000004,-514.8718259999996,22.30761700000039,-83.46142599999985,113.3334960000002,115.0,116.9228520000006,127.17968800000017,111.79492200000004,107.69238299999961,16.153809000000365,95.64111300000059,-1078.974365,46.79492200000004
221,-43.846190999999635,-512.820557,23.589844000000085,-82.05127000000039,115.0,115.51269500000035,120.12841800000024,135.51269500000035,117.56396500000028,113.7177729999994,21.538574000000153,100.64111300000059,-1074.871826,50.51269500000035
222,-39.35888699999987,-508.58984399999963,24.358886999999413,-81.66674799999964,116.53857400000015,115.51269500000035,122.69238299999961,140.6411130000006,120.12841800000024,116.0258789999998,24.102539000000434,102.56396500000028,-1069.615479,53.0771479999994
223,-33.07690400000001,-502.9487299999996,25.897460999999566,-80.76928699999962,119.87158199999976,115.76904300000024,124.48730499999965,141.6665039999998,121.2822270000006,116.6665039999998,25.0,101.53857400000015,-1063.589844,55.12841800000024
224,-26.923095999999987,-497.5642090000006,28.205077999999958,-78.58984399999963,124.74365200000011,116.53857400000015,125.38476599999922,139.87158199999976,122.82031300000017,117.82031300000017,25.897460999999566,99.61523400000078,-1057.94873,56.9228520000006
225,-24.358886999999868,-495.1281740000004,30.0,-76.02563499999997,128.20507799999996,117.43603499999972,125.0,137.17968800000017,123.9741210000002,119.23095699999976,27.05126999999993,98.7177729999994,-1055.0,56.666503999999804
226,-28.205077999999958,-496.28198199999997,29.230956999999762,-74.8718259999996,127.82031300000017,117.43603499999972,122.94873000000007,135.12841800000024,122.82031300000017,119.61523400000078,26.410155999999915,98.84619099999964,-1056.410156,52.82031300000017
227,-36.66674799999964,-498.97436500000003,25.769043000000238,-75.64111300000013,124.10253900000043,116.79492200000004,120.0,134.10253900000043,118.58984400000008,117.94873000000007,22.82031300000017,98.9741210000002,-1061.5385739999997,46.2822270000006
228,-44.61547900000005,-500.0,22.43603499999972,-76.41015600000037,120.51269500000035,116.41015599999992,117.56396500000028,134.23095699999976,114.10253900000043,115.38476599999922,17.94873000000007,98.20507799999996,-1067.179443,40.76904300000024
229,-46.79492200000004,-498.46142599999985,22.30761700000039,-75.25634799999989,119.61523400000078,117.05126999999993,116.9228520000006,134.61523400000078,111.79492200000004,113.0771479999994,15.641113000000587,97.43603499999972,-1069.3588870000003,40.38476599999922
230,-42.82055700000001,-496.41015600000037,25.51269500000035,-72.56420900000057,120.76904300000024,117.43603499999972,117.69238299999961,133.84619099999964,112.43603499999972,111.53857400000015,18.077147999999397,97.69238299999961,-1066.923096,45.51269500000035
231,-37.051270000000386,-497.6923829999996,28.974121000000196,-71.15380900000036,120.25634799999989,116.0258789999998,118.58984400000008,130.6411130000006,113.7177729999994,109.87158199999976,23.205077999999958,99.35888699999941,-1062.179443,52.69238299999961
232,-35.51293900000019,-503.33325200000036,29.102539000000434,-73.33325200000036,115.76904300000024,112.30761700000039,118.20507799999996,125.0,112.43603499999972,106.79492200000004,26.282227000000603,101.41015599999992,-1058.718018,56.2822270000006
233,-40.64111300000013,-510.5129390000002,25.0,-78.84619099999964,108.7177729999994,108.0771479999994,116.41015599999992,118.7177729999994,107.56396500000028,102.69238299999961,24.48730499999965,102.05126999999993,-1058.076904,52.82031300000017
234,-49.48706099999981,-514.3588869999999,18.717772999999397,-84.74365200000011,101.9228520000006,105.51269500000035,113.7177729999994,114.23095699999976,100.64111300000059,99.10253900000043,18.717772999999397,100.76904300000024,-1058.4614260000003,43.974121000000196
235,-56.53857400000015,-511.15380900000036,14.487304999999651,-87.69238299999961,98.20507799999996,105.89746099999957,111.6665039999998,112.82031300000017,95.25634799999989,97.30761700000039,13.974121000000196,98.84619099999964,-1056.153809,36.2822270000006
236,-57.17944299999999,-502.179443,15.0,-86.28198199999997,98.20507799999996,109.10253900000043,111.15380900000036,113.3334960000002,94.48730499999965,97.17968800000017,14.102539000000434,97.69238299999961,-1049.102539,35.76904300000024
237,-51.153809000000365,-492.5642090000006,19.74365200000011,-81.41015600000037,100.89746099999957,113.58984400000008,112.30761700000039,114.35888699999941,98.20507799999996,97.94873000000007,19.102539000000434,97.94873000000007,-1038.589844,43.0771479999994
238,-42.564209000000574,-487.6923829999996,25.384765999999217,-76.41015600000037,104.35888699999941,117.17968800000017,114.48730499999965,115.25634799999989,104.10253900000043,98.84619099999964,24.615234000000783,99.23095699999976,-1029.230713,53.46142599999985
239,-37.051270000000386,-488.97436500000003,28.461425999999847,-74.8718259999996,106.2822270000006,117.43603499999972,116.6665039999998,116.6665039999998,109.48730499999965,100.12841800000024,26.282227000000603,100.64111300000059,-1025.6411129999997,60.38476599999922
240,-36.92309599999999,-493.46142599999985,27.69238299999961,-77.69238299999961,105.76904300000024,114.61523400000078,117.56396500000028,118.7177729999994,113.0771479999994,102.94873000000007,23.461425999999847,101.41015599999992,-1027.94873,60.64111300000059
241,-40.25634799999989,-496.41015600000037,24.48730499999965,-82.82055700000001,103.58984400000008,110.51269500000035,117.17968800000017,121.15380900000036,115.64111300000059,107.56396500000028,20.128418000000238,101.53857400000015,-1031.410156,56.153809000000365
242,-43.20507799999996,-494.4870609999998,21.922852000000603,-86.15380900000036,102.17968800000017,107.82031300000017,116.41015599999992,122.94873000000007,117.94873000000007,113.3334960000002,20.51269500000035,101.2822270000006,-1029.3588870000003,51.53857400000015
243,-43.07690400000001,-487.4357909999994,21.794922000000042,-85.51293900000019,103.0771479999994,107.82031300000017,115.89746099999957,123.20507799999996,119.61523400000078,117.94873000000007,25.769043000000238,100.51269500000035,-1018.974365,50.51269500000035
244,-40.64111300000013,-478.58984399999963,24.102539000000434,-81.41015600000037,106.15380900000036,110.0,116.2822270000006,121.9228520000006,120.0,119.35888699999941,33.0771479999994,99.23095699999976,-1003.076904,52.82031300000017
245,-37.564209000000574,-472.4357909999994,27.30761700000039,-77.05127000000039,109.87158199999976,112.94873000000007,117.56396500000028,119.87158199999976,119.48730499999965,117.69238299999961,39.102539000000434,97.94873000000007,-987.9487300000001,56.153809000000365
246,-35.64111300000013,-472.179443,29.358886999999413,-75.64111300000013,111.79492200000004,115.76904300000024,119.61523400000078,118.7177729999994,119.23095699999976,114.48730499999965,41.53857400000015,97.56396500000028,-979.4870609999998,58.46142599999985
247,-35.1281740000004,-478.20507799999996,28.461425999999847,-79.10253899999998,110.51269500000035,117.56396500000028,121.53857400000015,118.9741210000002,119.10253900000043,111.53857400000015,40.897460999999566,98.20507799999996,-979.3588870000003,58.589844000000085
248,-36.66674799999964,-487.9487299999996,24.358886999999413,-86.53857400000015,106.15380900000036,117.94873000000007,121.6665039999998,119.23095699999976,117.43603499999972,108.58984400000008,38.46142599999985,99.23095699999976,-984.871826,56.666503999999804
249,-39.8718259999996,-496.79492200000004,18.846190999999635,-94.35888699999987,100.38476599999922,117.05126999999993,119.10253900000043,118.0771479999994,113.0771479999994,105.0,35.64111300000059,99.74365200000011,-991.1538089999999,53.333496000000196
250,-43.33325200000036,-500.0,14.358886999999413,-98.07690400000001,96.0258789999998,115.76904300000024,115.25634799999989,115.64111300000059,107.69238299999961,101.15380900000036,33.46142599999985,99.61523400000078,-993.205078,50.12841800000024
251,-44.48706099999981,-495.2563479999999,13.589844000000085,-94.8718259999996,95.51269500000035,114.74365200000011,112.82031300000017,114.10253900000043,105.0,98.58984400000008,32.94873000000007,99.61523400000078,-989.102539,47.94873000000007
252,-41.28198199999997,-484.35888699999987,17.43603499999972,-86.28198199999997,98.9741210000002,114.35888699999941,113.58984400000008,115.25634799999989,107.05126999999993,99.10253900000043,34.61523400000078,100.38476599999922,-980.128174,47.94873000000007
253,-34.74365200000011,-472.9487299999996,23.974121000000196,-77.30761700000039,103.9741210000002,113.84619099999964,117.05126999999993,118.58984400000008,112.43603499999972,102.30761700000039,37.05126999999993,101.41015599999992,-970.897461,49.61523400000078
254,-28.205077999999958,-466.28198199999997,29.358886999999413,-73.20507799999996,107.94873000000007,112.82031300000017,120.12841800000024,121.2822270000006,116.53857400000015,105.25634799999989,38.7177729999994,101.2822270000006,-965.384521,51.2822270000006
255,-24.358886999999868,-465.7692869999996,31.153809000000365,-75.64111300000013,109.48730499999965,111.6665039999998,120.89746099999957,121.2822270000006,116.0258789999998,105.38476599999922,38.46142599999985,100.51269500000035,-964.615479,51.2822270000006
256,-22.564209000000574,-468.33325200000036,30.25634799999989,-81.15380900000036,110.38476599999922,111.2822270000006,119.74365200000011,120.0,112.05126999999993,103.7177729999994,37.94873000000007,100.64111300000059,-964.3588870000003,49.87158199999976
257,-19.487060999999812,-468.33325200000036,30.25634799999989,-83.84619099999964,113.3334960000002,112.43603499999972,119.87158199999976,121.15380900000036,109.74365200000011,105.12841800000024,40.25634799999989,103.20507799999996,-959.2307129999999,48.846190999999635
258,-12.307617000000391,-462.5642090000006,33.589844000000085,-80.38452099999995,118.7177729999994,114.23095699999976,123.46142599999985,126.79492200000004,113.84619099999964,113.58984400000008,47.56396500000028,107.94873000000007,-946.4101559999999,50.76904300000024
259,-2.8203119999998307,-452.820557,39.23095699999976,-73.20507799999996,123.20507799999996,115.51269500000035,129.61523400000078,134.48730499999965,124.23095699999976,127.30761700000039,58.46142599999985,112.30761700000039,-929.2307129999999,55.64111300000059
260,3.077147999999397,-444.35888699999987,43.20507799999996,-68.58984399999963,122.56396500000028,115.64111300000059,134.23095699999976,138.7177729999994,135.12841800000024,138.46142599999985,66.9228520000006,113.84619099999964,-914.7436520000001,60.25634799999989
261,0.38476599999921746,-442.4357909999994,41.9228520000006,-71.41015600000037,116.2822270000006,114.87158199999976,133.46142599999985,135.76904300000024,138.58984400000008,139.23095699999976,67.17968800000017,111.15380900000036,-909.615479,60.38476599999922
262,-10.1281740000004,-447.3076170000004,35.0,-81.41015600000037,107.94873000000007,113.46142599999985,127.05126999999993,126.53857400000015,131.0258789999998,127.69238299999961,57.56396500000028,105.25634799999989,-915.384521,54.74365200000011
263,-22.051270000000386,-454.8718259999996,25.897460999999566,-92.82055700000001,102.30761700000039,112.05126999999993,119.23095699999976,116.2822270000006,116.0258789999998,110.64111300000059,43.7177729999994,98.9741210000002,-926.281982,46.666503999999804
264,-27.69238299999961,-459.102539,19.102539000000434,-99.35888699999987,101.41015599999992,111.41015599999992,114.74365200000011,110.38476599999922,101.9228520000006,97.43603499999972,33.7177729999994,95.12841800000024,-933.4614260000003,41.2822270000006
265,-24.358886999999868,-457.5642090000006,17.17968800000017,-98.46142599999985,103.84619099999964,111.53857400000015,114.61523400000078,110.25634799999989,96.0258789999998,94.10253900000043,33.0771479999994,95.12841800000024,-930.6411129999997,41.2822270000006
266,-16.28198199999997,-451.66674799999964,19.230956999999762,-92.94872999999961,107.05126999999993,112.17968800000017,116.6665039999998,113.58984400000008,99.48730499999965,99.23095699999976,40.25634799999989,97.82031300000017,-918.8461910000001,45.51269500000035
267,-9.61547900000005,-444.7436520000001,23.077147999999397,-87.94872999999961,108.84619099999964,113.3334960000002,118.0771479999994,117.05126999999993,108.46142599999985,107.43603499999972,49.74365200000011,100.64111300000059,-903.718018,49.87158199999976
268,-8.076904000000013,-439.102539,27.05126999999993,-86.15380900000036,109.61523400000078,115.25634799999989,118.46142599999985,119.10253900000043,117.82031300000017,113.46142599999985,56.410155999999915,102.17968800000017,-891.025635,51.53857400000015
269,-10.38452099999995,-435.1281740000004,30.0,-87.43579099999943,111.41015599999992,117.17968800000017,118.9741210000002,120.51269500000035,124.23095699999976,115.64111300000059,58.589844000000085,102.69238299999961,-883.076904,50.51269500000035
270,-12.948729999999614,-431.923096,31.025878999999804,-88.97436500000003,115.0,117.69238299999961,120.76904300000024,122.56396500000028,126.15380900000036,115.0,57.30761700000039,102.17968800000017,-879.102539,49.23095699999976
271,-13.846190999999635,-428.71801800000003,29.615234000000783,-88.58984399999963,119.23095699999976,115.76904300000024,122.94873000000007,125.12841800000024,123.9741210000002,113.7177729999994,54.87158199999976,100.76904300000024,-876.5385739999997,49.87158199999976
272,-13.461425999999847,-425.1281740000004,26.666503999999804,-85.89746100000002,121.15380900000036,111.6665039999998,123.7177729999994,127.43603499999972,119.48730499999965,113.84619099999964,53.20507799999996,98.84619099999964,-873.3332519999999,52.43603499999972
273,-11.923095999999987,-420.7692869999996,25.769043000000238,-82.30761700000039,119.61523400000078,107.82031300000017,122.69238299999961,129.3588869999994,116.53857400000015,116.6665039999998,53.333496000000196,97.82031300000017,-867.9487300000001,55.897460999999566
274,-8.71801800000003,-415.0,29.48730499999965,-78.58984399999963,116.53857400000015,106.9228520000006,121.41015599999992,131.79492200000004,118.9741210000002,122.30761700000039,55.897460999999566,99.74365200000011,-860.0,58.846190999999635
275,-3.077147999999397,-408.076904,37.69238299999961,-74.8718259999996,115.76904300000024,109.48730499999965,122.30761700000039,135.51269500000035,127.30761700000039,128.84619099999964,61.025878999999804,104.87158199999976,-849.871826,60.38476599999922
276,4.102539000000434,-401.41015600000037,47.17968800000017,-71.15380900000036,119.35888699999941,113.7177729999994,126.6665039999998,139.87158199999976,138.3334960000002,133.9741210000002,67.82031300000017,110.64111300000059,-838.974365,60.64111300000059
277,9.615234000000783,-397.4357909999994,53.20507799999996,-68.97436500000003,124.74365200000011,116.2822270000006,132.17968800000017,142.94873000000007,146.0258789999998,135.12841800000024,73.7177729999994,113.46142599999985,-830.384521,59.74365200000011
278,10.128418000000238,-397.179443,52.69238299999961,-70.64111300000013,126.79492200000004,116.15380900000036,135.12841800000024,142.3076170000004,145.2563479999999,131.2822270000006,75.89746099999957,111.53857400000015,-826.6667480000001,58.0771479999994
279,4.871581999999762,-399.102539,46.2822270000006,-76.53857400000015,122.82031300000017,115.0,132.6923829999996,137.17968800000017,136.15380900000036,123.7177729999994,72.69238299999961,106.41015599999992,-827.6923829999996,55.897460999999566
280,-3.4614259999998467,-400.64111300000013,38.0771479999994,-84.23071300000038,115.12841800000024,114.87158199999976,126.2822270000006,130.12841800000024,123.20507799999996,116.2822270000006,65.64111300000059,101.6665039999998,-830.7692870000001,53.974121000000196
281,-10.769286999999622,-400.0,32.17968800000017,-90.76928699999962,108.0771479999994,116.53857400000015,119.35888699999941,124.61523400000078,112.82031300000017,112.56396500000028,58.846190999999635,99.35888699999941,-832.179443,52.69238299999961
282,-15.1281740000004,-398.84619099999964,29.230956999999762,-94.8718259999996,103.58984400000008,117.94873000000007,115.12841800000024,122.17968800000017,107.69238299999961,112.17968800000017,55.38476599999922,99.48730499999965,-830.6411129999997,52.69238299999961
283,-18.076904000000013,-400.897461,27.05126999999993,-97.82055700000001,99.48730499999965,116.6665039999998,114.23095699999976,121.15380900000036,106.2822270000006,111.41015599999992,55.0,100.25634799999989,-828.718018,53.20507799999996
284,-21.923095999999987,-407.820557,23.461425999999847,-101.41015600000037,93.20507799999996,112.30761700000039,114.74365200000011,118.46142599999985,104.61523400000078,106.9228520000006,54.35888699999941,100.0,-829.102539,52.82031300000017
285,-26.28198199999997,-416.66674799999964,18.974121000000196,-105.1281740000004,86.15380900000036,106.79492200000004,114.74365200000011,113.3334960000002,101.0258789999998,98.9741210000002,51.53857400000015,98.58984400000008,-831.794922,51.666503999999804
286,-27.69238299999961,-420.897461,17.56396500000028,-105.38452099999995,83.84619099999964,103.46142599999985,114.23095699999976,109.35888699999941,97.56396500000028,92.82031300000017,48.333496000000196,97.82031300000017,-832.820557,50.76904300000024
287,-22.435790999999426,-415.5129390000002,22.05126999999993,-98.20507799999996,90.12841800000024,105.51269500000035,114.87158199999976,111.15380900000036,98.3334960000002,93.7177729999994,48.846190999999635,99.23095699999976,-827.5642090000001,52.17968800000017
288,-11.41015600000037,-401.28198199999997,31.410155999999915,-83.71801800000003,103.84619099999964,112.05126999999993,117.43603499999972,118.7177729999994,104.61523400000078,102.56396500000028,54.87158199999976,102.43603499999972,-814.7436520000001,56.025878999999804
289,0.12841800000023795,-384.8718259999996,40.64111300000059,-67.30761700000039,117.69238299999961,118.84619099999964,119.74365200000011,127.56396500000028,113.20507799999996,114.35888699999941,63.46142599999985,105.51269500000035,-798.974365,60.12841800000024
290,6.538574000000153,-374.102539,44.87158199999976,-55.76928699999962,123.84619099999964,121.15380900000036,120.0,131.79492200000004,119.10253900000043,122.05126999999993,69.74365200000011,106.2822270000006,-786.923096,62.05126999999993
291,6.666503999999804,-372.0512700000004,43.20507799999996,-52.564209000000574,119.48730499999965,117.94873000000007,118.20507799999996,129.7436520000001,120.12841800000024,122.69238299999961,71.2822270000006,104.48730499999965,-781.5385739999997,60.897460999999566
292,4.102539000000434,-375.7692869999996,38.974121000000196,-55.51293900000019,108.7177729999994,112.05126999999993,116.2822270000006,124.74365200000011,118.20507799999996,118.9741210000002,69.48730499999965,102.30761700000039,-780.7692870000001,58.20507799999996
293,3.3334960000001956,-379.2307130000004,36.025878999999804,-59.35888699999987,98.9741210000002,107.30761700000039,115.89746099999957,121.53857400000015,116.6665039999998,116.53857400000015,67.69238299999961,101.6665039999998,-780.2563479999999,56.2822270000006
294,4.487304999999651,-379.102539,35.897460999999566,-60.76928699999962,94.74365200000011,104.48730499999965,116.53857400000015,122.43603499999972,116.79492200000004,117.30761700000039,67.43603499999972,102.56396500000028,-777.6923829999996,55.76904300000024
295,4.6152340000007825,-376.28198199999997,36.9228520000006,-59.35888699999987,95.89746099999957,102.94873000000007,116.9228520000006,125.51269500000035,117.43603499999972,118.9741210000002,67.30761700000039,103.3334960000002,-774.2307129999999,55.64111300000059
296,1.5385740000001533,-372.9487299999996,37.56396500000028,-57.051270000000386,99.10253900000043,101.9228520000006,116.79492200000004,126.6665039999998,116.79492200000004,117.56396500000028,65.51269500000035,102.82031300000017,-771.923096,55.12841800000024
297,-2.8203119999998307,-370.5129390000002,37.43603499999972,-54.8718259999996,102.05126999999993,102.05126999999993,116.79492200000004,123.7177729999994,115.76904300000024,112.17968800000017,62.05126999999993,101.53857400000015,-770.5129390000002,54.48730499999965
298,-5.128174000000399,-368.58984399999963,36.9228520000006,-53.20507799999996,104.10253900000043,104.10253900000043,117.82031300000017,118.3334960000002,115.12841800000024,106.41015599999992,58.589844000000085,100.38476599999922,-767.9487300000001,54.48730499999965
299,-3.5898440000000846,-366.79492200000004,36.2822270000006,-51.66674799999964,105.89746099999957,107.30761700000039,118.84619099999964,114.23095699999976,115.0,104.74365200000011,56.9228520000006,100.12841800000024,-762.9487300000001,55.0
300,0.12841800000023795,-365.0,35.897460999999566,-49.8718259999996,108.0771479999994,109.87158199999976,118.7177729999994,114.61523400000078,114.87158199999976,108.9741210000002,58.20507799999996,100.51269500000035,-755.897461,55.64111300000059
301,4.230956999999762,-362.820557,36.53857400000015,-46.92309599999999,110.89746099999957,111.15380900000036,117.69238299999961,119.87158199999976,115.38476599999922,117.56396500000028,62.82031300000017,101.15380900000036,-747.9487300000001,56.9228520000006
302,7.948730000000069,-358.46142599999985,39.61523400000078,-41.28198199999997,115.12841800000024,111.79492200000004,117.94873000000007,127.82031300000017,117.94873000000007,127.17968800000017,70.38476599999922,102.05126999999993,-739.615479,59.87158199999976
303,11.410155999999915,-351.53857400000015,45.0,-32.948729999999614,120.0,113.0771479999994,121.2822270000006,134.87158199999976,123.46142599999985,134.3588869999994,78.7177729999994,103.7177729999994,-730.1281740000004,64.35888699999941
304,13.461425999999847,-344.102539,50.897460999999566,-24.61547900000005,123.3334960000002,115.0,126.79492200000004,138.46142599999985,130.2563479999999,136.9228520000006,84.23095699999976,105.64111300000059,-720.0,68.46142599999985
305,12.43603499999972,-339.8718259999996,53.589844000000085,-20.89746100000002,122.30761700000039,116.53857400000015,131.2822270000006,137.6923829999996,134.61523400000078,134.61523400000078,84.74365200000011,107.30761700000039,-711.025635,69.48730499999965
306,7.948730000000069,-340.5129390000002,51.025878999999804,-23.71801800000003,117.17968800000017,115.76904300000024,131.53857400000015,133.9741210000002,133.9741210000002,129.87158199999976,80.25634799999989,107.56396500000028,-705.7692869999996,66.9228520000006
307,1.7949220000000423,-344.61547900000005,44.61523400000078,-31.025634999999966,110.51269500000035,111.9228520000006,127.17968800000017,129.3588869999994,128.46142599999985,126.0258789999998,73.84619099999964,105.25634799999989,-705.0,62.69238299999961
308,-3.077147999999397,-348.58984399999963,38.333496000000196,-38.20507799999996,105.25634799999989,106.79492200000004,120.38476599999922,125.64111300000059,120.76904300000024,124.61523400000078,69.23095699999976,101.6665039999998,-706.4101560000004,59.74365200000011
309,-4.358886999999868,-349.35888699999987,35.897460999999566,-41.153809000000365,102.30761700000039,103.58984400000008,114.61523400000078,123.9741210000002,114.74365200000011,124.74365200000011,69.61523400000078,99.61523400000078,-705.2563479999999,60.25634799999989
310,-0.8974609999995664,-345.7692869999996,38.7177729999994,-38.58984399999963,100.89746099999957,105.0,112.05126999999993,125.12841800000024,113.0771479999994,125.0,75.25634799999989,101.41015599999992,-698.3332520000004,64.10253900000043
311,6.025878999999804,-338.46142599999985,45.25634799999989,-31.794922000000042,100.12841800000024,110.38476599999922,113.46142599999985,128.58984400000008,117.05126999999993,125.51269500000035,83.58984400000008,106.6665039999998,-686.025635,69.10253900000043
312,13.589844000000085,-330.2563479999999,52.30761700000039,-24.10253899999998,101.0258789999998,116.41015599999992,117.82031300000017,132.43603499999972,123.9741210000002,127.30761700000039,90.0,112.56396500000028,-673.076904,72.56396500000028
313,17.82031300000017,-324.35888699999987,56.53857400000015,-18.71801800000003,103.84619099999964,118.3334960000002,122.56396500000028,134.23095699999976,129.7436520000001,130.0,90.38476599999922,115.51269500000035,-664.7436520000001,72.82031300000017
314,17.30761700000039,-321.923096,56.153809000000365,-16.923095999999987,108.0771479999994,114.61523400000078,125.12841800000024,133.0771479999994,131.0258789999998,131.6665039999998,84.10253900000043,113.84619099999964,-663.076904,70.0
315,13.846190999999635,-320.38452099999995,52.43603499999972,-16.41015600000037,112.43603499999972,108.20507799999996,125.25634799999989,130.12841800000024,127.82031300000017,130.89746099999957,75.25634799999989,108.84619099999964,-664.2307130000004,66.41015599999992
316,11.153809000000365,-316.15380900000036,48.589844000000085,-14.358886999999868,115.64111300000059,104.10253900000043,124.10253900000043,127.94873000000007,123.20507799999996,127.56396500000028,69.23095699999976,103.9741210000002,-662.6923829999996,64.87158199999976
317,10.897460999999566,-308.84619099999964,47.56396500000028,-9.61547900000005,117.56396500000028,105.51269500000035,122.69238299999961,128.0771479999994,119.87158199999976,122.82031300000017,69.10253900000043,102.43603499999972,-655.6411130000001,66.6665039999998
318,11.922852000000603,-302.0512700000004,49.23095699999976,-4.871825999999601,117.69238299999961,110.51269500000035,121.41015599999992,129.61523400000078,118.20507799999996,118.3334960000002,72.94873000000007,103.84619099999964,-645.6411130000001,69.61523400000078
319,12.17968800000017,-300.2563479999999,51.666503999999804,-3.2050779999999577,116.41015599999992,115.51269500000035,120.12841800000024,129.7436520000001,117.30761700000039,115.12841800000024,76.41015599999992,105.89746099999957,-637.6923829999996,71.0258789999998
320,11.538574000000153,-303.71801800000003,53.0771479999994,-5.641113000000132,114.35888699999941,117.94873000000007,119.10253900000043,126.6665039999998,116.79492200000004,114.10253900000043,77.56396500000028,106.53857400000015,-634.615479,68.9741210000002
321,10.641113000000587,-309.4870609999998,52.94873000000007,-10.897461000000021,111.9228520000006,117.82031300000017,118.9741210000002,121.2822270000006,116.79492200000004,115.38476599999922,76.9228520000006,105.64111300000059,-634.7436520000001,64.35888699999941
322,9.743652000000111,-313.33325200000036,50.64111300000059,-16.794922000000042,108.9741210000002,116.79492200000004,119.23095699999976,116.6665039999998,116.79492200000004,117.69238299999961,75.38476599999922,104.23095699999976,-634.615479,59.48730499999965
323,7.820313000000169,-313.58984399999963,46.2822270000006,-21.28198199999997,105.12841800000024,115.64111300000059,118.9741210000002,115.51269500000035,116.0258789999998,118.58984400000008,72.82031300000017,103.46142599999985,-632.9487299999996,55.897460999999566
324,5.641113000000587,-310.1281740000004,40.897460999999566,-22.69238299999961,101.79492200000004,114.74365200000011,117.82031300000017,118.20507799999996,115.0,117.17968800000017,69.35888699999941,103.0771479999994,-630.0,55.0
325,4.743652000000111,-303.97436500000003,37.05126999999993,-20.38452099999995,100.38476599999922,114.74365200000011,116.9228520000006,123.20507799999996,115.25634799999989,115.25634799999989,66.2822270000006,102.82031300000017,-626.794922,57.30761700000039
326,6.538574000000153,-297.0512700000004,37.05126999999993,-15.641113000000132,101.0258789999998,115.76904300000024,117.56396500000028,128.0771479999994,117.94873000000007,115.38476599999922,65.25634799999989,101.6665039999998,-623.718018,62.05126999999993
327,10.256347999999889,-292.0512700000004,40.897460999999566,-11.666747999999643,101.9228520000006,117.30761700000039,119.48730499999965,131.15380900000036,122.17968800000017,118.46142599999985,67.43603499999972,100.25634799999989,-620.1281740000004,67.17968800000017
328,14.743652000000111,-290.38452099999995,47.17968800000017,-10.512939000000188,101.0258789999998,118.0771479999994,121.79492200000004,132.3076170000004,126.53857400000015,123.20507799999996,72.56396500000028,99.87158199999976,-614.615479,70.25634799999989
329,19.615234000000783,-291.02563499999997,53.333496000000196,-11.28198199999997,98.84619099999964,117.05126999999993,123.84619099999964,131.9228520000006,130.2563479999999,127.94873000000007,79.23095699999976,102.17968800000017,-606.025635,70.76904300000024
330,25.384765999999217,-290.0,58.0771479999994,-10.1281740000004,99.10253900000043,114.10253900000043,125.64111300000059,131.41015599999992,132.94873000000007,131.53857400000015,85.51269500000035,106.9228520000006,-594.7436520000001,70.51269500000035
331,31.666503999999804,-284.61547900000005,60.38476599999922,-4.102538999999979,104.61523400000078,110.25634799999989,127.82031300000017,132.05126999999993,133.9741210000002,133.20507799999996,89.35888699999941,112.30761700000039,-583.4614259999998,71.15380900000036
332,36.2822270000006,-275.5129390000002,60.25634799999989,5.3847659999992175,113.84619099999964,107.30761700000039,129.23095699999976,134.10253900000043,132.82031300000017,132.17968800000017,89.23095699999976,115.38476599999922,-575.384521,72.17968800000017
333,36.2822270000006,-267.179443,58.0771479999994,12.948730000000069,121.2822270000006,107.05126999999993,128.58984400000008,135.89746099999957,128.84619099999964,127.82031300000017,84.48730499999965,114.61523400000078,-573.718018,71.9228520000006
334,30.897460999999566,-263.71801800000003,55.25634799999989,12.82031300000017,121.79492200000004,110.12841800000024,124.74365200000011,135.38476599999922,122.82031300000017,120.38476599999922,76.41015599999992,109.87158199999976,-578.5898439999996,68.84619099999964
335,22.05126999999993,-266.923096,53.20507799999996,4.230956999999762,114.74365200000011,114.61523400000078,119.23095699999976,131.2822270000006,116.41015599999992,112.69238299999961,67.82031300000017,102.94873000000007,-586.1538090000004,63.974121000000196
336,14.615234000000783,-274.7436520000001,51.79492200000004,-7.435790999999426,104.48730499999965,117.30761700000039,114.48730499999965,124.48730499999965,111.9228520000006,107.94873000000007,61.53857400000015,96.9228520000006,-590.384521,60.25634799999989
337,12.43603499999972,-282.4357909999994,51.025878999999804,-14.8718259999996,97.69238299999961,116.41015599999992,113.58984400000008,118.58984400000008,111.41015599999992,108.46142599999985,60.25634799999989,94.74365200000011,-586.923096,59.74365200000011
338,17.17968800000017,-284.35888699999987,51.025878999999804,-13.461425999999847,98.7177729999994,112.94873000000007,117.43603499999972,117.82031300000017,115.51269500000035,113.9741210000002,65.12841800000024,97.94873000000007,-575.384521,62.82031300000017
339,26.153809000000365,-278.076904,52.82031300000017,-4.358886999999868,106.53857400000015,110.0,123.9741210000002,123.9741210000002,122.94873000000007,121.6665039999998,75.25634799999989,105.51269500000035,-559.8718259999996,67.43603499999972
340,34.102539000000434,-266.41015600000037,56.410155999999915,6.153809000000365,115.76904300000024,109.10253900000043,129.3588869999994,134.10253900000043,130.38476599999922,128.3334960000002,86.6665039999998,113.20507799999996,-546.1538090000004,71.0258789999998
341,36.9228520000006,-255.76928699999962,60.76904300000024,11.666503999999804,120.12841800000024,110.0,130.6411130000006,142.82031300000017,134.3588869999994,132.05126999999993,94.23095699999976,116.9228520000006,-538.205078,71.9228520000006
342,35.25634799999989,-251.02563499999997,64.35888699999941,10.384765999999217,118.0771479999994,110.76904300000024,128.20507799999996,145.76904300000024,134.10253900000043,133.0771479999994,95.51269500000035,115.51269500000035,-535.7692869999996,70.76904300000024
343,33.7177729999994,-251.923096,66.6665039999998,5.641113000000587,112.94873000000007,110.51269500000035,124.61523400000078,142.56396500000028,132.43603499999972,132.82031300000017,92.43603499999972,111.41015599999992,-534.8718259999996,69.87158199999976
344,35.76904300000024,-254.35888699999987,68.0771479999994,2.5639650000002803,109.61523400000078,109.48730499999965,123.3334960000002,136.79492200000004,131.79492200000004,132.6923829999996,89.61523400000078,108.9741210000002,-531.794922,70.89746099999957
345,40.0,-255.2563479999999,68.20507799999996,2.6923829999996087,109.23095699999976,109.35888699999941,124.87158199999976,132.6923829999996,132.43603499999972,132.6923829999996,88.84619099999964,109.61523400000078,-526.923096,72.82031300000017
346,41.410155999999915,-255.2563479999999,65.76904300000024,3.717772999999397,108.7177729999994,110.64111300000059,126.0258789999998,131.6665039999998,131.2822270000006,130.6411130000006,87.94873000000007,111.6665039999998,-524.8718259999996,73.0771479999994
347,36.9228520000006,-256.53857400000015,60.51269500000035,3.077147999999397,104.74365200000011,113.20507799999996,123.7177729999994,132.43603499999972,126.41015599999992,125.0,83.20507799999996,111.2822270000006,-528.718018,70.25634799999989
348,28.846190999999635,-258.97436500000003,54.61523400000078,0.512695000000349,98.46142599999985,115.25634799999989,118.46142599999985,132.6923829999996,119.48730499999965,117.17968800000017,75.12841800000024,107.05126999999993,-535.7692869999996,66.0258789999998
349,23.077147999999397,-260.1281740000004,51.53857400000015,-1.5385740000001533,94.23095699999976,116.41015599999992,113.9741210000002,131.41015599999992,114.74365200000011,111.15380900000036,68.9741210000002,101.2822270000006,-538.8461909999996,64.10253900000043
350,23.974121000000196,-257.5642090000006,53.0771479999994,-1.4101559999999154,95.64111300000059,117.05126999999993,113.7177729999994,129.3588869999994,115.12841800000024,110.76904300000024,70.25634799999989,98.0771479999994,-532.179443,66.6665039999998
351,31.794922000000042,-251.15380900000036,58.333496000000196,1.153809000000365,102.05126999999993,117.69238299999961,118.20507799999996,128.3334960000002,120.25634799999989,116.41015599999992,80.12841800000024,100.76904300000024,-516.794922,72.56396500000028
352,41.79492200000004,-243.46142599999985,64.74365200000011,4.743652000000111,109.35888699999941,118.58984400000008,124.10253900000043,129.23095699999976,127.17968800000017,125.12841800000024,93.58984400000008,108.46142599999985,-499.4870609999998,77.69238299999961
353,48.20507799999996,-237.43579099999943,69.23095699999976,7.43603499999972,113.20507799999996,118.46142599999985,127.30761700000039,131.79492200000004,132.43603499999972,132.6923829999996,103.0771479999994,116.53857400000015,-488.20507799999996,78.7177729999994
354,47.82031300000017,-234.7436520000001,70.64111300000059,8.846190999999635,113.0771479999994,116.9228520000006,125.89746099999957,134.61523400000078,134.23095699999976,136.41015599999992,103.7177729999994,120.0,-486.02563499999997,75.64111300000059
355,41.9228520000006,-234.4870609999998,69.48730499999965,9.358886999999413,110.89746099999957,113.84619099999964,121.79492200000004,136.2822270000006,133.7177729999994,136.15380900000036,96.9228520000006,117.30761700000039,-490.2563479999999,71.15380900000036
356,35.51269500000035,-234.61547900000005,67.05126999999993,8.974121000000196,108.46142599999985,109.35888699999941,118.20507799999996,136.0258789999998,132.56396500000028,133.3334960000002,88.46142599999985,110.76904300000024,-494.8718259999996,68.3334960000002
357,32.56396500000028,-234.7436520000001,64.23095699999976,7.179688000000169,105.12841800000024,104.35888699999941,116.41015599999992,133.3334960000002,131.15380900000036,129.48730499999965,83.58984400000008,104.61523400000078,-496.15380900000036,68.0771479999994
358,33.46142599999985,-235.2563479999999,61.2822270000006,3.3334960000001956,99.23095699999976,100.51269500000035,116.0258789999998,127.82031300000017,128.20507799999996,125.12841800000024,83.7177729999994,101.6665039999998,-494.102539,69.35888699999941
359,35.64111300000059,-236.923096,58.333496000000196,-1.4101559999999154,91.41015599999992,98.58984400000008,115.0,120.89746099999957,122.94873000000007,120.51269500000035,85.64111300000059,101.6665039999998,-491.66674799999964,70.25634799999989
360,36.9228520000006,-238.84619099999964,55.897460999999566,-3.9741210000001956,85.64111300000059,99.23095699999976,113.0771479999994,115.0,116.6665039999998,116.53857400000015,85.89746099999957,102.43603499999972,-490.64111300000013,70.0
361,36.9228520000006,-238.58984399999963,55.64111300000059,-2.1796869999998307,86.41015599999992,101.9228520000006,111.53857400000015,113.0771479999994,112.56396500000028,114.23095699999976,84.10253900000043,102.82031300000017,-490.1281740000004,68.84619099999964
362,37.05126999999993,-234.23071300000038,58.0771479999994,3.846190999999635,94.48730499999965,106.41015599999992,112.05126999999993,115.38476599999922,112.56396500000028,113.9741210000002,82.17968800000017,102.94873000000007,-487.820557,67.94873000000007
363,37.69238299999961,-226.79492200000004,61.79492200000004,10.897460999999566,105.38476599999922,111.53857400000015,114.35888699999941,119.23095699999976,115.51269500000035,114.74365200000011,81.79492200000004,103.3334960000002,-482.4357909999994,67.69238299999961
364,37.94873000000007,-220.38452099999995,64.10253900000043,14.230956999999762,111.53857400000015,115.64111300000059,116.9228520000006,120.89746099999957,117.82031300000017,115.12841800000024,82.30761700000039,103.7177729999994,-476.15380900000036,67.56396500000028
365,37.17968800000017,-218.46142599999985,63.589844000000085,12.307617000000391,109.23095699999976,117.69238299999961,117.94873000000007,119.87158199999976,117.30761700000039,114.61523400000078,81.79492200000004,103.58984400000008,-471.79492200000004,67.30761700000039
366,36.153809000000365,-220.5129390000002,61.9228520000006,7.43603499999972,101.9228520000006,117.17968800000017,117.94873000000007,118.7177729999994,115.0,113.58984400000008,80.25634799999989,102.94873000000007,-470.0,67.05126999999993
367,36.2822270000006,-223.076904,62.17968800000017,4.358886999999413,96.15380900000036,115.51269500000035,117.69238299999961,120.38476599999922,114.35888699999941,113.46142599999985,79.48730499999965,102.82031300000017,-468.33325200000036,67.94873000000007
368,37.82031300000017,-222.179443,65.0,5.769043000000238,96.2822270000006,114.87158199999976,118.20507799999996,124.87158199999976,116.79492200000004,115.12841800000024,81.2822270000006,103.58984400000008,-463.84619099999964,69.87158199999976
369,39.48730499999965,-216.923096,68.58984400000008,11.410155999999915,100.89746099999957,116.0258789999998,119.10253900000043,128.84619099999964,120.38476599999922,118.0771479999994,84.61523400000078,104.87158199999976,-456.66674799999964,71.9228520000006
370,39.87158199999976,-209.7436520000001,70.12841800000024,18.333496000000196,105.38476599999922,118.0771479999994,119.10253900000043,128.46142599999985,121.41015599999992,120.51269500000035,87.05126999999993,105.64111300000059,-449.102539,72.69238299999961
371,38.333496000000196,-204.23071300000038,69.10253900000043,23.333496000000196,106.9228520000006,118.84619099999964,118.20507799999996,123.46142599999985,118.3334960000002,120.38476599999922,87.17968800000017,105.64111300000059,-443.33325200000036,71.79492200000004
372,36.2822270000006,-202.820557,67.56396500000028,24.74365200000011,106.79492200000004,117.05126999999993,117.43603499999972,117.56396500000028,113.3334960000002,118.0771479999994,86.2822270000006,105.25634799999989,-439.7436520000001,70.51269500000035
373,35.12841800000024,-204.7436520000001,66.79492200000004,22.30761700000039,107.30761700000039,113.3334960000002,117.30761700000039,114.35888699999941,110.0,116.0258789999998,86.15380900000036,104.87158199999976,-437.0512700000004,69.61523400000078
374,35.12841800000024,-207.179443,67.05126999999993,17.56396500000028,109.74365200000011,110.12841800000024,117.05126999999993,114.35888699999941,110.25634799999989,116.41015599999992,87.43603499999972,104.10253900000043,-434.2307130000004,69.23095699999976
375,35.25634799999989,-207.3076170000004,67.30761700000039,12.692382999999609,112.69238299999961,109.10253900000043,116.41015599999992,115.38476599999922,112.69238299999961,118.84619099999964,88.84619099999964,103.3334960000002,-430.38452099999995,68.7177729999994
376,35.12841800000024,-203.97436500000003,67.56396500000028,10.769043000000238,114.87158199999976,110.64111300000059,116.0258789999998,116.2822270000006,115.0,121.2822270000006,88.84619099999964,103.0771479999994,-425.5129390000002,68.58984400000008
377,35.64111300000059,-197.820557,68.58984400000008,13.717772999999397,116.79492200000004,113.84619099999964,117.17968800000017,117.94873000000007,115.76904300000024,122.56396500000028,88.58984400000008,104.10253900000043,-419.35888699999987,70.38476599999922
378,38.333496000000196,-190.5129390000002,71.2822270000006,20.897460999999566,119.35888699999941,117.17968800000017,120.12841800000024,121.6665039999998,116.0258789999998,123.0771479999994,89.35888699999941,106.15380900000036,-412.179443,75.0
379,43.333496000000196,-184.4870609999998,75.38476599999922,28.205077999999958,121.6665039999998,118.84619099999964,123.46142599999985,126.79492200000004,117.17968800000017,123.58984400000008,92.05126999999993,107.94873000000007,-405.1281740000004,81.2822270000006
380,48.846190999999635,-182.179443,78.3334960000002,30.641113000000587,120.89746099999957,117.17968800000017,124.87158199999976,131.0258789999998,119.35888699999941,124.48730499999965,95.12841800000024,108.46142599999985,-400.5129390000002,85.89746099999957
381,51.53857400000015,-184.10253899999998,77.69238299999961,26.538574000000153,115.76904300000024,112.56396500000028,122.56396500000028,131.0258789999998,120.89746099999957,125.0,96.15380900000036,106.9228520000006,-399.4870609999998,86.0258789999998
382,49.48730499999965,-188.58984399999963,73.58984400000008,19.230956999999762,107.82031300000017,107.56396500000028,117.69238299999961,125.76904300000024,120.12841800000024,124.10253900000043,93.84619099999964,104.10253900000043,-401.15380900000036,81.6665039999998
383,43.7177729999994,-192.0512700000004,68.20507799999996,13.974121000000196,101.15380900000036,104.74365200000011,112.82031300000017,117.69238299999961,116.79492200000004,121.2822270000006,89.35888699999941,101.15380900000036,-402.9487299999996,75.51269500000035
