,EEG.AF3,EEG.F7,EEG.F3,EEG.FC5,EEG.T7,EEG.P7,EEG.O1,EEG.O2,EEG.P8,EEG.T8,EEG.FC6,EEG.F4,EEG.F8,EEG.AF4
0,76.0258789999998,149.3588869999994,101.53857400000015,53.20507799999996,111.15380900000036,115.64111300000059,98.9741210000002,79.48730499999965,85.38476599999922,77.17968800000017,68.7177729999994,83.20507799999996,-55.89746100000002,53.589844000000085
1,73.58984400000008,144.10253900000043,100.51269500000035,50.64111300000059,107.69238299999961,112.69238299999961,100.12841800000024,79.35888699999941,84.23095699999976,77.05126999999993,68.84619099999964,84.23095699999976,-56.28198199999997,48.589844000000085
2,64.35888699999941,143.3334960000002,97.94873000000007,51.9228520000006,108.3334960000002,109.35888699999941,102.30761700000039,83.0771479999994,83.58984400000008,76.53857400000015,67.82031300000017,84.61523400000078,-57.948729999999614,38.7177729999994
3,53.7177729999994,145.38476599999922,95.38476599999922,55.38476599999922,111.9228520000006,107.94873000000007,104.74365200000011,88.9741210000002,83.46142599999985,74.35888699999941,64.87158199999976,83.9741210000002,-59.74365200000011,30.0
4,51.025878999999804,149.23095699999976,95.89746099999957,60.25634799999989,116.41015599999992,109.61523400000078,107.82031300000017,95.76904300000024,84.87158199999976,71.9228520000006,61.79492200000004,83.0771479999994,-58.846190999999635,29.871581999999762
5,61.153809000000365,154.48730499999965,101.2822270000006,65.76904300000024,119.48730499999965,112.56396500000028,112.30761700000039,101.41015599999992,88.84619099999964,71.41015599999992,61.53857400000015,83.0771479999994,-53.58984399999963,39.87158199999976
6,78.46142599999985,160.2563479999999,109.10253900000043,70.12841800000024,119.87158199999976,114.23095699999976,117.05126999999993,103.9741210000002,94.10253900000043,74.35888699999941,65.64111300000059,84.10253900000043,-45.1281740000004,53.589844000000085
7,90.38476599999922,163.84619099999964,114.10253900000043,71.15380900000036,117.43603499999972,112.69238299999961,119.23095699999976,102.05126999999993,97.69238299999961,80.0,72.05126999999993,85.38476599999922,-37.564209000000574,60.12841800000024
8,87.17968800000017,162.6923829999996,112.69238299999961,67.43603499999972,113.58984400000008,109.23095699999976,117.05126999999993,96.79492200000004,97.56396500000028,86.0258789999998,76.41015599999992,85.89746099999957,-34.74365200000011,53.846190999999635
9,70.64111300000059,156.9228520000006,105.51269500000035,60.38476599999922,110.76904300000024,106.2822270000006,111.0258789999998,90.76904300000024,93.58984400000008,89.23095699999976,75.25634799999989,84.87158199999976,-38.46142599999985,39.48730499999965
10,54.35888699999941,151.15380900000036,97.82031300000017,54.74365200000011,111.41015599999992,106.53857400000015,104.48730499999965,86.41015599999992,88.20507799999996,88.20507799999996,69.48730499999965,82.82031300000017,-45.1281740000004,28.974121000000196
11,53.0771479999994,150.76904300000024,95.51269500000035,54.74365200000011,116.41015599999992,110.64111300000059,101.53857400000015,85.0,84.35888699999941,84.10253900000043,64.10253900000043,81.0258789999998,-48.46142599999985,31.410155999999915
12,69.48730499999965,157.6923829999996,101.15380900000036,61.410155999999915,123.9741210000002,116.41015599999992,104.23095699999976,85.76904300000024,84.10253900000043,80.25634799999989,63.974121000000196,80.76904300000024,-43.07690400000001,45.64111300000059
13,92.05126999999993,166.6665039999998,111.53857400000015,70.89746099999957,130.76904300000024,120.38476599999922,111.2822270000006,87.30761700000039,86.9228520000006,80.12841800000024,69.61523400000078,82.05126999999993,-29.74365200000011,61.9228520000006
14,106.41015599999992,169.3588869999994,121.0258789999998,77.69238299999961,132.94873000000007,120.25634799999989,118.20507799999996,88.3334960000002,90.12841800000024,83.84619099999964,77.30761700000039,83.9741210000002,-13.71801800000003,72.56396500000028
15,108.3334960000002,160.6411130000006,125.89746099999957,78.58984400000008,129.10253900000043,116.79492200000004,120.64111300000059,87.82031300000017,90.64111300000059,88.20507799999996,82.43603499999972,85.38476599999922,-0.8974609999995664,79.35888699999941
16,106.6665039999998,145.2563479999999,126.79492200000004,75.38476599999922,120.76904300000024,112.82031300000017,116.9228520000006,85.76904300000024,87.05126999999993,89.48730499999965,84.23095699999976,86.0258789999998,7.43603499999972,90.76904300000024
17,111.53857400000015,136.6665039999998,127.30761700000039,73.84619099999964,112.17968800000017,111.0258789999998,109.23095699999976,83.0771479999994,81.79492200000004,87.43603499999972,85.89746099999957,86.2822270000006,13.846190999999635,111.53857400000015
18,124.23095699999976,146.41015599999992,130.38476599999922,79.10253900000043,108.20507799999996,111.6665039999998,102.17968800000017,81.53857400000015,79.10253900000043,85.25634799999989,90.76904300000024,86.79492200000004,21.410155999999915,137.43603499999972
19,138.46142599999985,175.12841800000024,136.15380900000036,91.79492200000004,110.38476599999922,113.0771479999994,99.87158199999976,82.82031300000017,81.53857400000015,86.15380900000036,98.84619099999964,88.0771479999994,30.769043000000238,159.7436520000001
20,150.38476599999922,210.38476599999922,143.20507799999996,108.7177729999994,115.51269500000035,113.3334960000002,102.82031300000017,86.6665039999998,88.3334960000002,90.25634799999989,107.69238299999961,90.38476599999922,40.38476599999922,174.7436520000001
21,162.17968800000017,236.41015599999992,151.15380900000036,125.64111300000059,119.10253900000043,112.05126999999993,108.0771479999994,91.79492200000004,95.64111300000059,95.25634799999989,114.74365200000011,94.23095699999976,50.51269500000035,185.76904300000024
22,178.58984400000008,244.48730499999965,160.76904300000024,140.51269500000035,120.12841800000024,110.0,112.05126999999993,96.41015599999992,100.38476599999922,98.9741210000002,119.74365200000011,99.61523400000078,63.7177729999994,199.10253900000043
23,199.87158199999976,238.7177729999994,171.9228520000006,153.3334960000002,120.51269500000035,107.82031300000017,113.84619099999964,99.61523400000078,102.17968800000017,100.51269500000035,123.7177729999994,105.76904300000024,83.46142599999985,219.10253900000043
24,221.41015599999992,232.43603499999972,183.20507799999996,166.15380900000036,122.30761700000039,105.89746099999957,114.61523400000078,101.15380900000036,102.05126999999993,100.89746099999957,128.84619099999964,111.6665039999998,109.48730499999965,245.89746099999957
25,237.82031300000017,238.46142599999985,192.6923829999996,180.76904300000024,124.74365200000011,103.84619099999964,115.38476599999922,101.0258789999998,100.89746099999957,101.15380900000036,136.2822270000006,115.89746099999957,137.05126999999993,274.3588869999994
26,247.05126999999993,259.23095699999976,199.3588869999994,197.94873000000007,125.51269500000035,102.17968800000017,115.25634799999989,99.10253900000043,98.9741210000002,100.89746099999957,145.76904300000024,117.56396500000028,160.51269500000035,296.6665039999998
27,252.3076170000004,283.84619099999964,204.3588869999994,217.17968800000017,123.0771479999994,101.2822270000006,113.3334960000002,96.41015599999992,97.30761700000039,99.23095699999976,155.38476599999922,117.05126999999993,176.41015599999992,306.79492200000004
28,261.0258789999998,294.7436520000001,210.2563479999999,236.9228520000006,118.7177729999994,101.41015599999992,110.89746099999957,94.10253900000043,96.2822270000006,96.53857400000015,162.94873000000007,116.0258789999998,185.89746099999957,305.76904300000024
29,280.12841800000024,283.3334960000002,218.9741210000002,255.0,116.2822270000006,102.17968800000017,109.87158199999976,93.58984400000008,96.79492200000004,94.87158199999976,168.3334960000002,116.0258789999998,194.7436520000001,301.4101559999999
30,309.23095699999976,258.0771479999994,230.12841800000024,270.51269500000035,119.10253900000043,102.82031300000017,111.15380900000036,95.76904300000024,99.48730499999965,96.9228520000006,173.46142599999985,117.94873000000007,210.2563479999999,301.6665039999998
31,340.2563479999999,238.7177729999994,240.51269500000035,283.20507799999996,127.30761700000039,103.3334960000002,113.3334960000002,99.74365200000011,103.9741210000002,103.58984400000008,180.0,121.2822270000006,236.53857400000015,308.5898440000001
32,364.10253900000043,240.12841800000024,246.53857400000015,293.9741210000002,136.0258789999998,103.7177729999994,113.20507799999996,103.0771479999994,107.43603499999972,111.53857400000015,186.15380900000036,124.48730499999965,269.3588869999994,318.20507799999996
33,381.6665039999998,261.15380900000036,248.20507799999996,304.6152340000008,139.23095699999976,104.10253900000043,109.10253900000043,102.94873000000007,106.53857400000015,115.0,189.3588869999994,126.0258789999998,298.3334960000002,327.05126999999993
34,403.0771479999994,287.05126999999993,249.3588869999994,317.4360349999997,133.9741210000002,105.0,102.94873000000007,98.58984400000008,100.64111300000059,110.38476599999922,189.23095699999976,126.0258789999998,315.89746099999957,334.6152340000008
35,437.94873000000007,302.5639650000003,254.23095699999976,333.5898440000001,124.87158199999976,107.30761700000039,99.87158199999976,93.46142599999985,94.35888699999941,100.89746099999957,188.84619099999964,126.15380900000036,324.7436520000001,341.53857400000015
36,484.6152340000008,301.15380900000036,263.84619099999964,351.15380900000036,120.51269500000035,110.76904300000024,103.84619099999964,92.69238299999961,94.74365200000011,95.12841800000024,192.43603499999972,128.46142599999985,337.05126999999993,347.3076170000004
37,531.4101559999999,288.5898440000001,274.7436520000001,366.4101559999999,126.9228520000006,114.10253900000043,114.10253900000043,98.84619099999964,105.12841800000024,100.25634799999989,201.41015599999992,133.46142599999985,366.0258789999998,351.2822270000006
38,567.9487300000001,276.2822270000006,283.0771479999994,377.05126999999993,141.53857400000015,115.76904300000024,125.12841800000024,109.87158199999976,120.76904300000024,115.64111300000059,214.23095699999976,140.0,417.6923829999996,355.2563479999999
39,591.6665039999998,273.3334960000002,287.82031300000017,385.12841800000024,154.3588869999994,114.87158199999976,130.51269500000035,120.51269500000035,132.43603499999972,132.56396500000028,227.94873000000007,146.0258789999998,488.3334960000002,362.05126999999993
40,605.1284180000002,280.76904300000024,290.51269500000035,394.7436520000001,156.9228520000006,111.15380900000036,128.0771479999994,125.38476599999922,133.7177729999994,140.51269500000035,239.7436520000001,150.12841800000024,566.5385740000002,369.7436520000001
41,610.0,292.82031300000017,293.20507799999996,407.94873000000007,148.46142599999985,105.76904300000024,120.51269500000035,123.58984400000008,125.76904300000024,135.2563479999999,247.05126999999993,151.15380900000036,640.1284180000002,371.53857400000015
42,606.4101559999999,302.6923829999996,296.2822270000006,423.20507799999996,136.15380900000036,100.89746099999957,113.9741210000002,117.56396500000028,116.15380900000036,120.89746099999957,248.3334960000002,148.58984400000008,702.3076170000004,362.4360349999997
43,596.2822270000006,309.3588869999994,298.20507799999996,436.53857400000015,128.84619099999964,98.20507799999996,112.17968800000017,111.9228520000006,112.30761700000039,107.43603499999972,244.3588869999994,144.10253900000043,757.5639650000003,344.7436520000001
44,583.7177729999994,317.3076170000004,298.20507799999996,445.76904300000024,131.15380900000036,98.58984400000008,114.48730499999965,109.61523400000078,116.6665039999998,103.9741210000002,238.58984400000008,140.12841800000024,819.8715819999998,325.12841800000024
45,572.5639650000003,332.3076170000004,296.6665039999998,451.0258789999998,140.76904300000024,100.89746099999957,117.56396500000028,111.0258789999998,125.38476599999922,113.20507799999996,235.6411130000006,139.10253900000043,907.5639650000003,309.23095699999976
46,566.1538090000004,355.89746099999957,296.0258789999998,454.87158199999976,151.53857400000015,102.94873000000007,118.84619099999964,114.61523400000078,132.82031300000017,128.9741210000002,238.46142599999985,141.15380900000036,1032.6923829999996,300.6411130000006
47,567.3076170000004,384.3588869999994,299.23095699999976,460.89746099999957,156.41015599999992,102.94873000000007,117.94873000000007,118.0771479999994,135.38476599999922,140.6411130000006,246.6665039999998,145.0,1193.8461909999996,301.6665039999998
48,576.0258789999998,414.48730499999965,307.5639650000003,471.79492200000004,153.20507799999996,101.0258789999998,116.53857400000015,119.74365200000011,133.46142599999985,140.38476599999922,256.79492200000004,148.58984400000008,1377.5639650000003,311.15380900000036
49,586.794922,445.76904300000024,318.46142599999985,487.6923829999996,145.76904300000024,99.23095699999976,116.15380900000036,119.74365200000011,130.89746099999957,130.0,264.23095699999976,150.2563479999999,1565.1284180000002,322.17968800000017
50,591.9228520000006,478.9741210000002,327.5639650000003,505.51269500000035,141.53857400000015,99.87158199999976,117.05126999999993,119.10253900000043,130.89746099999957,118.20507799999996,267.05126999999993,149.7436520000001,1740.7690430000002,326.53857400000015
51,588.205078,511.9228520000006,331.6665039999998,520.3847659999992,144.3588869999994,103.7177729999994,118.3334960000002,118.7177729999994,133.7177729999994,114.48730499999965,267.05126999999993,148.58984400000008,1894.8715819999998,321.53857400000015
52,580.6411130000006,540.5126950000003,331.4101559999999,528.5898440000001,151.0258789999998,109.23095699999976,118.46142599999985,117.82031300000017,135.6411130000006,121.0258789999998,267.94873000000007,148.7177729999994,2028.7177729999994,313.3334960000002
53,575.2563479999999,563.3334960000002,329.10253900000043,529.1025390000004,153.84619099999964,112.82031300000017,115.89746099999957,114.48730499999965,132.82031300000017,131.0258789999998,272.5639650000003,150.38476599999922,2155.7690430000002,309.48730499999965
54,570.2563479999999,585.1284180000002,326.15380900000036,524.3588869999994,147.56396500000028,111.9228520000006,110.76904300000024,107.30761700000039,124.61523400000078,135.2563479999999,278.5898440000001,151.6665039999998,2297.3076170000004,309.23095699999976
55,557.4360349999997,614.7436520000001,323.20507799999996,519.1025390000004,135.2563479999999,107.30761700000039,105.38476599999922,98.3334960000002,115.12841800000024,129.7436520000001,281.0258789999998,150.2563479999999,2471.538574,305.89746099999957
56,535.3847659999992,661.0258789999998,322.3076170000004,519.7436520000001,126.2822270000006,102.17968800000017,103.20507799999996,92.94873000000007,110.25634799999989,119.48730499999965,278.20507799999996,146.79492200000004,2680.769043000001,297.17968800000017
57,514.8715819999998,727.6923829999996,326.6665039999998,530.5126950000003,128.7177729999994,99.61523400000078,107.05126999999993,95.76904300000024,113.9741210000002,113.84619099999964,275.3847659999992,144.87158199999976,2907.3076170000004,289.6152340000008
58,510.3847659999992,812.0512699999999,338.0771479999994,551.9228520000006,142.82031300000017,100.12841800000024,115.38476599999922,106.6665039999998,124.87158199999976,118.46142599999985,280.0,147.94873000000007,3120.6411129999997,291.53857400000015
59,523.7177729999994,904.7436520000001,353.0771479999994,578.3334960000002,160.89746099999957,102.30761700000039,122.94873000000007,119.10253900000043,136.15380900000036,130.38476599999922,293.5898440000001,155.51269500000035,3291.794922,303.3334960000002
60,541.6665039999998,992.1796880000002,364.3588869999994,601.5385740000002,172.05126999999993,103.58984400000008,124.35888699999941,123.7177729999994,140.2563479999999,139.61523400000078,308.9741210000002,162.56396500000028,3406.0258790000007,315.6411130000006
61,547.8203130000002,1065.5126950000003,366.6665039999998,616.0258789999998,169.7436520000001,102.56396500000028,117.56396500000028,115.51269500000035,133.3334960000002,137.94873000000007,316.53857400000015,163.46142599999985,3466.9228519999997,319.7436520000001
62,538.0771479999994,1126.9228520000006,361.15380900000036,622.3076170000004,156.6665039999998,99.74365200000011,106.0258789999998,98.7177729999994,118.46142599999985,125.25634799999989,313.20507799999996,157.17968800000017,3492.05127,313.9741210000002
63,521.4101559999999,1188.4614259999998,354.48730499999965,626.2822270000006,142.17968800000017,97.43603499999972,96.2822270000006,83.84619099999964,103.9741210000002,110.76904300000024,305.3847659999992,147.94873000000007,3503.205078,304.3588869999994
64,510.2563479999999,1263.4614259999998,353.46142599999985,633.205078,135.38476599999922,97.43603499999972,93.7177729999994,80.38476599999922,98.3334960000002,105.0,303.9741210000002,142.17968800000017,3514.230956999999,298.0771479999994
65,510.3847659999992,1357.8203130000002,360.3847659999992,645.2563479999999,139.23095699999976,99.48730499999965,98.0771479999994,88.9741210000002,103.9741210000002,111.2822270000006,314.48730499999965,142.6923829999996,3527.4360349999997,298.7177729999994
66,517.5639650000003,1467.8203130000002,371.0258789999998,659.8715819999998,147.82031300000017,101.41015599999992,104.35888699999941,101.6665039999998,115.64111300000059,123.84619099999964,332.5639650000003,147.6923829999996,3536.410156,304.3588869999994
67,521.1538090000004,1584.743652,378.3334960000002,673.205078,152.82031300000017,101.6665039999998,107.43603499999972,109.10253900000043,124.87158199999976,132.82031300000017,346.79492200000004,152.17968800000017,3535.5126950000003,307.6923829999996
68,512.1796880000002,1700.0,378.0771479999994,683.205078,150.6411130000006,101.15380900000036,106.6665039999998,107.82031300000017,126.9228520000006,133.7177729999994,347.82031300000017,152.56396500000028,3526.0258790000007,301.9228520000006
69,493.5898440000001,1810.1284180000002,372.5639650000003,690.8974609999996,145.2563479999999,101.0258789999998,105.51269500000035,102.82031300000017,124.10253900000043,129.3588869999994,336.4101559999999,148.9741210000002,3514.615234000001,288.0771479999994
70,479.23095699999976,1917.8203130000002,368.5898440000001,700.1284180000002,143.3334960000002,101.9228520000006,107.69238299999961,101.6665039999998,122.43603499999972,126.2822270000006,323.3334960000002,144.87158199999976,3507.1796879999993,276.9228520000006
71,480.2563479999999,2027.4360349999997,370.89746099999957,713.4614259999998,147.94873000000007,103.3334960000002,112.82031300000017,107.17968800000017,126.0258789999998,128.3334960000002,321.0258789999998,143.9741210000002,3505.128418000001,278.3334960000002
72,492.3076170000004,2138.589844,377.3076170000004,728.5898440000001,155.38476599999922,104.10253900000043,116.6665039999998,115.25634799999989,132.6923829999996,133.58984400000008,331.9228520000006,146.41015599999992,3505.8974609999996,290.2563479999999
73,499.48730499999965,2244.743652,381.53857400000015,741.0258789999998,159.48730499999965,103.46142599999985,114.87158199999976,118.3334960000002,136.9228520000006,136.9228520000006,347.5639650000003,149.48730499999965,3506.5385739999992,300.51269500000035
74,490.89746099999957,2340.0,380.51269500000035,748.4614259999998,157.17968800000017,101.6665039999998,107.05126999999993,112.82031300000017,134.3588869999994,134.61523400000078,355.6411130000006,149.87158199999976,3505.769043000001,298.7177729999994
75,472.4360349999997,2425.384765999999,377.05126999999993,754.2309569999998,151.79492200000004,99.87158199999976,97.94873000000007,102.43603499999972,126.15380900000036,128.58984400000008,351.6665039999998,147.6923829999996,3504.1025390000004,286.9228520000006
76,460.6411130000006,2506.538574,377.94873000000007,763.7177729999994,150.51269500000035,99.23095699999976,94.35888699999941,95.64111300000059,118.9741210000002,124.35888699999941,342.94873000000007,145.51269500000035,3502.94873,276.4101559999999
77,466.9228520000006,2585.8974609999996,386.9228520000006,779.2309569999998,158.3334960000002,100.51269500000035,99.35888699999941,98.58984400000008,119.74365200000011,126.79492200000004,340.76904300000024,145.89746099999957,3502.8203129999993,276.6665039999998
78,486.4101559999999,2657.94873,401.4101559999999,796.6665039999998,174.10253900000043,103.20507799999996,110.0,109.74365200000011,129.3588869999994,135.12841800000024,350.76904300000024,149.10253900000043,3503.205078,286.9228520000006
79,503.20507799999996,2712.8203129999993,414.10253900000043,808.7177729999994,190.51269500000035,105.38476599999922,118.58984400000008,121.2822270000006,142.05126999999993,143.7177729999994,367.82031300000017,152.94873000000007,3503.589844,297.6923829999996
80,503.7177729999994,2744.743651999999,418.20507799999996,810.5126950000003,198.20507799999996,104.87158199999976,119.48730499999965,125.25634799999989,149.3588869999994,146.53857400000015,380.6411130000006,154.48730499999965,3503.4614260000008,299.6152340000008
81,487.5639650000003,2759.1025390000004,413.0771479999994,802.8203130000002,192.94873000000007,101.53857400000015,112.56396500000028,119.48730499999965,146.6665039999998,141.9228520000006,381.6665039999998,151.9228520000006,3503.3334959999993,290.51269500000035
82,466.53857400000015,2770.128418000001,404.3588869999994,792.6923829999996,179.10253900000043,98.0771479999994,104.35888699999941,109.23095699999976,137.05126999999993,134.3588869999994,372.17968800000017,147.43603499999972,3503.205078,276.79492200000004
83,454.3588869999994,2791.5385739999992,399.6152340000008,788.5898440000001,166.9228520000006,97.94873000000007,102.17968800000017,102.69238299999961,129.23095699999976,131.0258789999998,361.53857400000015,144.7436520000001,3503.205078,268.46142599999985
84,457.94873000000007,2824.3588870000003,402.3076170000004,794.8715819999998,164.23095699999976,102.05126999999993,108.0771479999994,104.35888699999941,130.12841800000024,135.51269500000035,359.23095699999976,146.6665039999998,3503.205078,271.15380900000036
85,473.0771479999994,2858.0771480000003,410.2563479999999,808.7177729999994,171.6665039999998,107.82031300000017,116.79492200000004,111.79492200000004,138.84619099999964,144.87158199999976,367.4360349999997,151.6665039999998,3503.205078,283.0771479999994
86,488.5898440000001,2880.6411129999997,417.3076170000004,822.5639650000003,181.79492200000004,110.89746099999957,120.38476599999922,118.0771479999994,147.17968800000017,152.17968800000017,378.84619099999964,156.15380900000036,3503.205078,295.6411130000006
87,492.5639650000003,2889.4873049999997,418.46142599999985,828.7177729999994,186.41015599999992,109.87158199999976,115.64111300000059,117.94873000000007,147.82031300000017,152.6923829999996,384.23095699999976,157.17968800000017,3503.205078,299.6152340000008
88,480.3847659999992,2893.4614260000008,413.3334960000002,825.1284180000002,183.58984400000008,106.15380900000036,106.6665039999998,112.17968800000017,141.0258789999998,147.05126999999993,380.6411130000006,155.0,3503.205078,291.79492200000004
89,457.94873000000007,2906.1538090000004,406.2822270000006,815.8974609999996,178.0771479999994,103.84619099999964,101.2822270000006,107.30761700000039,134.23095699999976,140.6411130000006,373.84619099999964,152.3076170000004,3503.205078,277.5639650000003
90,436.6665039999998,2936.6665040000007,402.6923829999996,807.6923829999996,177.3076170000004,105.64111300000059,104.35888699999941,108.9741210000002,134.3588869999994,138.7177729999994,371.15380900000036,151.9228520000006,3503.205078,265.6411130000006
91,423.9741210000002,2982.6923829999996,403.9741210000002,804.4873049999997,183.7177729999994,111.15380900000036,114.23095699999976,117.43603499999972,141.79492200000004,141.15380900000036,373.9741210000002,154.10253900000043,3503.3334959999993,260.2563479999999
92,420.0,3031.1538090000004,407.4360349999997,805.7690430000002,192.94873000000007,117.17968800000017,124.10253900000043,126.0258789999998,149.87158199999976,143.0771479999994,377.05126999999993,155.89746099999957,3503.4614260000008,260.2563479999999
93,421.79492200000004,3067.8203129999993,409.23095699999976,808.4614259999998,196.79492200000004,119.87158199999976,126.9228520000006,127.69238299999961,151.0258789999998,139.87158199999976,374.10253900000043,154.7436520000001,3503.7177730000003,263.20507799999996
94,428.3334960000002,3086.794922,408.5898440000001,810.8974609999996,190.38476599999922,117.82031300000017,121.79492200000004,120.51269500000035,143.3334960000002,131.9228520000006,365.12841800000024,150.76904300000024,3503.8461909999996,268.9741210000002
95,439.48730499999965,3094.230956999999,407.4360349999997,813.205078,177.3076170000004,113.3334960000002,113.20507799999996,109.10253900000043,132.3076170000004,124.87158199999976,357.3076170000004,147.3076170000004,3503.8461909999996,277.82031300000017
96,452.4360349999997,3102.05127,408.3334960000002,816.794922,167.05126999999993,110.38476599999922,107.94873000000007,101.9228520000006,126.79492200000004,125.12841800000024,358.7177729999994,147.56396500000028,3504.1025390000004,287.05126999999993
97,461.6665039999998,3118.205078,412.3076170000004,821.4101559999999,167.82031300000017,111.41015599999992,108.9741210000002,103.9741210000002,131.0258789999998,133.9741210000002,370.0,151.41015599999992,3504.3588870000003,291.4101559999999
98,460.89746099999957,3141.794922,416.9228520000006,824.6152340000008,179.87158199999976,115.0,113.84619099999964,112.69238299999961,141.9228520000006,146.41015599999992,382.82031300000017,155.6411130000006,3504.871581999999,286.6665039999998
99,446.79492200000004,3165.256348000001,418.3334960000002,823.3334960000002,195.51269500000035,117.94873000000007,117.82031300000017,121.0258789999998,151.53857400000015,154.87158199999976,386.79492200000004,156.0258789999998,3505.384765999999,272.82031300000017
100,422.82031300000017,3180.256348000001,413.9741210000002,815.7690430000002,205.38476599999922,118.20507799999996,118.46142599999985,123.7177729999994,154.10253900000043,155.2563479999999,378.84619099999964,151.41015599999992,3505.5126950000003,255.76904300000024
101,400.12841800000024,3184.4873049999997,406.4101559999999,805.0,205.76904300000024,115.76904300000024,117.30761700000039,121.15380900000036,150.6411130000006,150.2563479999999,366.9228520000006,145.2563479999999,3504.871581999999,244.3588869999994
102,392.5639650000003,3182.4360349999997,402.05126999999993,798.0771479999994,199.23095699999976,113.3334960000002,117.56396500000028,117.94873000000007,146.15380900000036,146.15380900000036,361.6665039999998,143.84619099999964,3503.4614260000008,246.0258789999998
103,405.3847659999992,3180.769043000001,405.12841800000024,800.1284180000002,192.43603499999972,112.30761700000039,120.64111300000059,118.0771479999994,145.51269500000035,148.0771479999994,367.94873000000007,149.87158199999976,3501.1538090000004,260.3847659999992
104,429.48730499999965,3182.94873,414.23095699999976,809.7436520000001,189.87158199999976,112.94873000000007,124.48730499999965,121.9228520000006,148.84619099999964,155.38476599999922,380.3847659999992,159.61523400000078,3497.6923829999996,278.20507799999996
105,447.5639650000003,3188.3334959999993,422.5639650000003,819.6152340000008,192.43603499999972,113.7177729999994,126.15380900000036,126.41015599999992,152.94873000000007,162.43603499999972,388.7177729999994,165.6411130000006,3492.3076170000004,288.20507799999996
106,447.3076170000004,3194.1025390000004,424.7436520000001,822.1796880000002,196.41015599999992,113.7177729999994,124.48730499999965,127.43603499999972,153.9741210000002,164.23095699999976,386.9228520000006,163.7177729999994,3485.0,285.2563479999999
107,431.0258789999998,3195.6411129999997,419.6152340000008,815.5126950000003,197.6923829999996,113.3334960000002,120.89746099999957,123.3334960000002,151.15380900000036,159.87158199999976,378.3334960000002,156.53857400000015,3476.6665040000007,273.3334960000002
108,412.4360349999997,3189.4873049999997,411.6665039999998,804.2309569999998,195.0,113.58984400000008,117.56396500000028,116.79492200000004,146.6665039999998,153.20507799999996,371.0258789999998,150.2563479999999,3468.589844,262.05126999999993
109,404.6152340000008,3176.2822269999997,405.89746099999957,794.8715819999998,190.89746099999957,114.74365200000011,116.0258789999998,112.69238299999961,143.9741210000002,148.7177729999994,370.76904300000024,149.48730499999965,3460.8974609999996,258.84619099999964
110,408.7177729999994,3161.0258790000007,404.7436520000001,789.6152340000008,189.48730499999965,116.41015599999992,116.53857400000015,114.61523400000078,145.6411130000006,148.3334960000002,375.89746099999957,153.9741210000002,3452.05127,263.20507799999996
111,412.94873000000007,3148.0771480000003,405.2563479999999,783.9741210000002,192.05126999999993,117.30761700000039,118.3334960000002,121.15380900000036,150.38476599999922,150.38476599999922,378.9741210000002,158.58984400000008,3439.743651999999,266.9228520000006
112,404.3588869999994,3136.5385739999992,403.20507799999996,772.0512699999999,194.87158199999976,116.6665039999998,120.25634799999989,127.43603499999972,154.61523400000078,151.2822270000006,374.23095699999976,158.46142599999985,3422.3076170000004,262.4360349999997
113,381.9228520000006,3122.94873,396.6665039999998,754.4873049999997,193.9741210000002,114.61523400000078,121.0258789999998,128.7177729999994,155.12841800000024,149.7436520000001,362.05126999999993,152.6923829999996,3401.794922,249.7436520000001
114,358.20507799999996,3106.2822269999997,389.3588869999994,739.7436520000001,188.58984400000008,112.30761700000039,119.61523400000078,124.23095699999976,151.6665039999998,147.6923829999996,350.0,146.0258789999998,3382.05127,237.82031300000017
115,349.3588869999994,3088.3334959999993,385.76904300000024,737.0512699999999,182.56396500000028,111.6665039999998,116.15380900000036,117.43603499999972,147.6923829999996,148.3334960000002,347.4360349999997,144.61523400000078,3367.05127,236.6665039999998
116,361.4101559999999,3071.0258790000007,387.5639650000003,746.794922,179.48730499999965,113.46142599999985,111.79492200000004,113.3334960000002,146.6665039999998,153.0771479999994,357.5639650000003,150.6411130000006,3357.05127,248.20507799999996
117,384.7436520000001,3054.230956999999,392.17968800000017,760.2563479999999,180.89746099999957,116.53857400000015,108.7177729999994,115.0,149.87158199999976,161.41015599999992,374.48730499999965,160.2563479999999,3348.8461909999996,264.23095699999976
118,399.3588869999994,3036.0258790000007,395.2563479999999,765.7690430000002,185.12841800000024,118.58984400000008,108.46142599999985,121.53857400000015,155.89746099999957,170.51269500000035,385.6411130000006,166.2822270000006,3338.3334959999993,272.17968800000017
119,389.6152340000008,3014.1025390000004,394.23095699999976,757.9487300000001,189.7436520000001,118.46142599999985,110.76904300000024,128.9741210000002,161.15380900000036,176.6665039999998,381.53857400000015,164.48730499999965,3323.0771480000003,265.6411130000006
120,357.17968800000017,2987.1796879999993,390.76904300000024,741.794922,192.43603499999972,116.41015599999992,114.10253900000043,133.84619099999964,163.20507799999996,177.3076170000004,364.48730499999965,156.41015599999992,3303.9741209999993,249.48730499999965
121,320.3847659999992,2955.128418000001,389.3588869999994,728.205078,193.9741210000002,114.23095699999976,117.56396500000028,135.51269500000035,162.94873000000007,174.10253900000043,347.4360349999997,148.7177729999994,3284.4873049999997,235.89746099999957
122,299.7436520000001,2918.4614260000008,391.53857400000015,724.4873049999997,196.0258789999998,113.58984400000008,121.0258789999998,135.76904300000024,162.82031300000017,170.89746099999957,342.4360349999997,146.6665039999998,3268.4614260000008,233.7177729999994
123,300.3847659999992,2878.3334959999993,393.3334960000002,726.6665039999998,199.48730499999965,114.61523400000078,124.10253900000043,135.76904300000024,164.3588869999994,170.12841800000024,349.87158199999976,150.6411130000006,3254.615234000001,240.51269500000035
124,311.4101559999999,2835.128418000001,388.3334960000002,723.3334960000002,202.82031300000017,116.2822270000006,126.2822270000006,135.38476599999922,165.76904300000024,172.05126999999993,357.94873000000007,156.53857400000015,3236.5385739999992,245.89746099999957
125,317.6923829999996,2787.8203129999993,374.48730499999965,707.4360349999997,203.84619099999964,117.56396500000028,127.43603499999972,133.58984400000008,165.12841800000024,174.7436520000001,354.6152340000008,159.48730499999965,3206.0258790000007,242.05126999999993
126,312.4360349999997,2730.256348000001,358.20507799999996,683.3334960000002,201.53857400000015,118.20507799999996,127.43603499999972,130.6411130000006,162.6923829999996,176.6665039999998,339.23095699999976,157.43603499999972,3158.7177730000003,231.9228520000006
127,298.3334960000002,2653.7177730000003,348.0771479999994,662.5639650000003,196.6665039999998,118.3334960000002,126.41015599999992,127.82031300000017,159.87158199999976,175.76904300000024,323.9741210000002,151.53857400000015,3096.2822269999997,224.61523400000078
128,280.3847659999992,2552.05127,348.3334960000002,651.0258789999998,191.9228520000006,117.94873000000007,124.35888699999941,126.15380900000036,158.46142599999985,171.79492200000004,322.6923829999996,144.87158199999976,3022.8203129999993,226.41015599999992
129,262.3076170000004,2426.666504,354.7436520000001,642.9487300000001,190.2563479999999,116.79492200000004,122.56396500000028,126.0258789999998,158.58984400000008,166.0258789999998,339.23095699999976,141.2822270000006,2940.0,233.9741210000002
130,245.2563479999999,2285.5126950000003,357.82031300000017,624.6152340000008,191.41015599999992,115.0,123.0771479999994,127.05126999999993,159.7436520000001,161.9228520000006,362.17968800000017,142.82031300000017,2843.4614260000008,237.6923829999996
131,230.12841800000024,2136.9228520000006,349.7436520000001,586.2822270000006,191.2822270000006,113.3334960000002,125.89746099999957,127.43603499999972,159.7436520000001,161.53857400000015,373.20507799999996,149.23095699999976,2724.615234000001,231.41015599999992
132,217.94873000000007,1985.6411130000006,328.5898440000001,530.0,186.0258789999998,113.0771479999994,127.69238299999961,125.0,156.41015599999992,162.94873000000007,360.76904300000024,156.6665039999998,2578.0771479999994,217.94873000000007
133,210.76904300000024,1835.5126950000003,299.87158199999976,468.5898440000001,176.53857400000015,114.23095699999976,124.48730499999965,118.9741210000002,149.61523400000078,161.41015599999992,329.48730499999965,159.87158199999976,2407.94873,206.2822270000006
134,212.6923829999996,1691.6665039999998,273.0771479999994,415.51269500000035,167.43603499999972,116.2822270000006,116.15380900000036,111.2822270000006,141.9228520000006,154.23095699999976,297.05126999999993,155.89746099999957,2228.205078,203.7177729999994
135,227.43603499999972,1559.3588869999994,255.12841800000024,375.89746099999957,162.56396500000028,117.69238299999961,106.53857400000015,105.0,136.2822270000006,143.0771479999994,279.3588869999994,145.2563479999999,2053.8461909999996,209.10253900000043
136,255.51269500000035,1441.2822270000006,246.2822270000006,344.87158199999976,161.41015599999992,117.69238299999961,100.89746099999957,101.2822270000006,134.10253900000043,131.9228520000006,278.46142599999985,131.53857400000015,1892.1796880000002,214.87158199999976
137,292.3076170000004,1335.8974609999996,240.6411130000006,314.10253900000043,160.12841800000024,116.15380900000036,101.41015599999992,99.23095699999976,133.7177729999994,122.56396500000028,282.17968800000017,120.12841800000024,1740.0,213.3334960000002
138,330.76904300000024,1240.8974609999996,231.79492200000004,278.0771479999994,155.2563479999999,114.35888699999941,106.53857400000015,97.82031300000017,131.79492200000004,115.12841800000024,276.53857400000015,114.23095699999976,1591.794922,202.6923829999996
139,366.2822270000006,1157.1796880000002,217.56396500000028,238.20507799999996,147.3076170000004,113.84619099999964,112.56396500000028,97.30761700000039,126.53857400000015,110.64111300000059,257.82031300000017,114.10253900000043,1448.205078,190.0
140,399.48730499999965,1090.5126950000003,201.79492200000004,200.51269500000035,141.2822270000006,114.74365200000011,117.17968800000017,99.61523400000078,120.25634799999989,112.17968800000017,234.61523400000078,117.17968800000017,1318.7177729999994,185.51269500000035
141,432.5639650000003,1047.3076170000004,189.87158199999976,170.38476599999922,141.41015599999992,116.53857400000015,120.25634799999989,105.76904300000024,117.17968800000017,120.76904300000024,217.94873000000007,120.0,1213.7177729999994,194.61523400000078
142,462.82031300000017,1027.94873,183.3334960000002,147.17968800000017,146.41015599999992,118.0771479999994,122.17968800000017,113.46142599999985,118.7177729999994,131.41015599999992,209.7436520000001,119.23095699999976,1133.7177729999994,212.17968800000017
143,484.10253900000043,1023.0771479999994,177.3076170000004,123.84619099999964,148.84619099999964,118.58984400000008,121.6665039999998,117.05126999999993,120.76904300000024,134.48730499999965,201.9228520000006,113.46142599999985,1067.4360349999997,226.2822270000006
144,492.94873000000007,1019.1025390000004,166.53857400000015,94.23095699999976,143.3334960000002,118.46142599999985,117.94873000000007,112.43603499999972,118.58984400000008,125.0,187.3076170000004,104.61523400000078,1002.5639650000003,227.43603499999972
145,492.3076170000004,1007.0512699999999,151.0258789999998,59.48730499999965,133.3334960000002,119.48730499999965,113.20507799999996,102.56396500000028,112.17968800000017,109.74365200000011,168.3334960000002,96.41015599999992,936.794922,217.05126999999993
146,488.5898440000001,986.2822270000006,136.2822270000006,27.30761700000039,128.0771479999994,123.20507799999996,111.15380900000036,95.51269500000035,106.79492200000004,101.79492200000004,153.9741210000002,92.56396500000028,878.3334960000002,203.46142599999985
147,484.87158199999976,961.0258789999998,128.20507799999996,4.102539000000434,133.46142599999985,129.10253900000043,113.7177729999994,97.56396500000028,107.56396500000028,108.58984400000008,150.89746099999957,93.9741210000002,834.8715819999998,193.84619099999964
148,479.87158199999976,934.6152340000008,127.43603499999972,-10.512939000000188,146.0258789999998,133.58984400000008,119.48730499999965,107.94873000000007,114.61523400000078,125.12841800000024,156.6665039999998,98.3334960000002,804.2309569999998,188.3334960000002
149,470.89746099999957,905.0,129.10253900000043,-22.948729999999614,156.0258789999998,134.10253900000043,123.84619099999964,118.46142599999985,122.69238299999961,138.3334960000002,161.9228520000006,101.2822270000006,773.9741210000002,182.17968800000017
150,455.3847659999992,866.5385740000002,125.76904300000024,-39.23071300000038,154.23095699999976,130.76904300000024,122.05126999999993,119.74365200000011,123.9741210000002,137.05126999999993,157.56396500000028,99.48730499999965,730.8974609999996,171.2822270000006
151,433.46142599999985,815.6411130000006,113.9741210000002,-60.38452099999995,139.61523400000078,126.2822270000006,112.43603499999972,108.3334960000002,114.35888699999941,121.15380900000036,141.15380900000036,92.17968800000017,670.8974609999996,154.87158199999976
152,410.0,756.6665039999998,96.6665039999998,-81.15380900000036,121.79492200000004,124.23095699999976,99.74365200000011,91.2822270000006,97.82031300000017,101.6665039999998,119.74365200000011,82.82031300000017,601.4101559999999,136.79492200000004
153,393.20507799999996,701.5385740000002,82.43603499999972,-93.97436500000003,113.9741210000002,125.76904300000024,92.30761700000039,80.89746099999957,84.48730499999965,92.43603499999972,104.87158199999976,77.05126999999993,536.1538090000004,121.6665039999998
154,388.0771479999994,659.7436520000001,78.46142599999985,-95.0,121.6665039999998,128.9741210000002,96.15380900000036,85.0,83.58984400000008,99.61523400000078,104.35888699999941,78.3334960000002,484.6152340000008,112.43603499999972
155,390.2563479999999,629.6152340000008,83.9741210000002,-88.71801800000003,137.3076170000004,130.38476599999922,108.9741210000002,98.84619099999964,94.48730499999965,115.51269500000035,114.35888699999941,83.9741210000002,445.2563479999999,107.82031300000017
156,388.3334960000002,597.9487300000001,90.0,-85.25634799999989,145.89746099999957,127.56396500000028,120.51269500000035,109.35888699999941,106.9228520000006,124.61523400000078,122.30761700000039,88.0771479999994,409.10253900000043,103.7177729999994
157,373.0771479999994,551.6665039999998,88.0771479999994,-92.69238299999961,137.82031300000017,121.53857400000015,121.9228520000006,106.53857400000015,109.48730499999965,117.17968800000017,117.82031300000017,86.2822270000006,369.10253900000043,96.2822270000006
158,346.2822270000006,490.3847659999992,76.6665039999998,-109.74365200000011,117.17968800000017,115.38476599999922,112.94873000000007,92.43603499999972,100.25634799999989,98.58984400000008,102.05126999999993,79.61523400000078,326.9228520000006,85.51269500000035
159,318.9741210000002,426.2822270000006,62.43603499999972,-127.17944299999999,98.7177729999994,112.69238299999961,101.6665039999998,79.61523400000078,88.9741210000002,84.74365200000011,86.2822270000006,73.46142599999985,289.87158199999976,76.0258789999998
160,301.2822270000006,374.23095699999976,53.974121000000196,-135.76928699999962,96.0258789999998,114.10253900000043,97.30761700000039,80.25634799999989,87.69238299999961,87.17968800000017,81.0258789999998,72.30761700000039,262.05126999999993,71.79492200000004
161,293.7177729999994,338.7177729999994,54.35888699999941,-134.23071300000038,109.87158199999976,117.82031300000017,102.56396500000028,95.38476599999922,99.35888699999941,102.94873000000007,87.56396500000028,76.2822270000006,237.43603499999972,72.17968800000017
162,288.84619099999964,310.89746099999957,59.23095699999976,-129.61547900000005,128.84619099999964,120.38476599999922,112.30761700000039,115.51269500000035,115.38476599999922,118.58984400000008,97.43603499999972,81.79492200000004,203.84619099999964,72.17968800000017
163,279.10253900000043,277.5639650000003,62.17968800000017,-129.4870609999998,139.3588869999994,120.12841800000024,118.84619099999964,127.69238299999961,124.10253900000043,123.58984400000008,100.25634799999989,84.61523400000078,152.56396500000028,67.82031300000017
164,263.84619099999964,231.9228520000006,60.0,-134.7436520000001,136.6665039999998,117.43603499999972,118.84619099999964,126.6665039999998,120.76904300000024,118.58984400000008,92.82031300000017,83.9741210000002,84.61523400000078,60.897460999999566
165,248.58984400000008,178.58984400000008,55.38476599999922,-139.61547900000005,126.15380900000036,115.12841800000024,115.51269500000035,117.56396500000028,111.2822270000006,112.69238299999961,81.41015599999992,82.05126999999993,9.871581999999762,56.2822270000006
166,238.3334960000002,126.9228520000006,52.56396500000028,-138.58984399999963,117.17968800000017,115.12841800000024,114.87158199999976,110.76904300000024,105.25634799999989,113.84619099999964,75.25634799999989,82.05126999999993,-60.76928699999962,57.30761700000039
167,233.20507799999996,83.0771479999994,53.46142599999985,-132.43579099999943,115.51269500000035,116.9228520000006,118.9741210000002,112.17968800000017,107.69238299999961,122.43603499999972,78.0771479999994,84.61523400000078,-120.25634799999989,62.17968800000017
168,228.7177729999994,46.9228520000006,56.153809000000365,-127.30761700000039,119.87158199999976,118.20507799999996,123.7177729999994,119.23095699999976,115.0,131.53857400000015,85.51269500000035,88.3334960000002,-167.0512700000004,66.53857400000015
169,220.2563479999999,13.589844000000085,57.43603499999972,-128.076904,125.12841800000024,117.43603499999972,123.58984400000008,124.10253900000043,119.23095699999976,133.46142599999985,89.10253900000043,90.12841800000024,-204.7436520000001,66.79492200000004
170,206.9228520000006,-21.025634999999966,55.64111300000059,-134.23071300000038,125.89746099999957,115.25634799999989,116.9228520000006,120.64111300000059,115.89746099999957,125.51269500000035,83.0771479999994,88.84619099999964,-240.5129390000002,62.56396500000028
171,191.6665039999998,-58.974365000000034,52.69238299999961,-140.89746100000002,121.2822270000006,113.3334960000002,107.94873000000007,109.74365200000011,106.41015599999992,111.79492200000004,68.9741210000002,85.64111300000059,-281.923096,56.153809000000365
172,177.94873000000007,-99.23071300000038,51.025878999999804,-144.23071300000038,115.12841800000024,112.56396500000028,102.30761700000039,97.05126999999993,96.53857400000015,100.0,54.102539000000434,82.94873000000007,-332.9487299999996,50.76904300000024
173,167.6923829999996,-138.97436500000003,51.153809000000365,-144.35888699999987,111.9228520000006,112.82031300000017,102.05126999999993,88.7177729999994,91.15380900000036,95.76904300000024,44.87158199999976,82.56396500000028,-391.923096,48.20507799999996
174,160.2563479999999,-174.7436520000001,51.410155999999915,-145.0,113.0771479999994,112.82031300000017,105.12841800000024,87.17968800000017,90.76904300000024,99.10253900000043,42.94873000000007,83.7177729999994,-453.46142599999985,48.846190999999635
175,155.38476599999922,-202.9487299999996,50.12841800000024,-148.46142599999985,116.6665039999998,112.17968800000017,107.94873000000007,90.76904300000024,92.69238299999961,105.38476599999922,45.12841800000024,84.48730499999965,-512.179443,51.2822270000006
176,152.82031300000017,-222.3076170000004,47.43603499999972,-153.076904,119.61523400000078,111.15380900000036,108.84619099999964,96.2822270000006,93.3334960000002,109.23095699999976,47.43603499999972,84.48730499999965,-565.897461,53.333496000000196
177,151.6665039999998,-234.7436520000001,44.87158199999976,-156.02563499999997,120.25634799999989,110.76904300000024,108.46142599999985,100.25634799999989,91.6665039999998,108.20507799999996,47.43603499999972,83.9741210000002,-616.281982,53.589844000000085
178,148.46142599999985,-246.15380900000036,42.43603499999972,-156.53857400000015,118.7177729999994,111.41015599999992,107.94873000000007,100.12841800000024,88.84619099999964,103.3334960000002,44.48730499999965,84.10253900000043,-667.0512700000004,51.53857400000015
179,139.87158199999976,-262.0512700000004,39.23095699999976,-156.923096,116.2822270000006,112.69238299999961,107.69238299999961,96.0258789999998,87.17968800000017,97.94873000000007,39.23095699999976,84.48730499999965,-720.0,47.17968800000017
180,126.53857400000015,-284.7436520000001,35.12841800000024,-159.23071300000038,114.23095699999976,113.84619099999964,107.69238299999961,90.25634799999989,87.30761700000039,95.76904300000024,33.46142599999985,84.48730499999965,-772.5642090000001,41.666503999999804
181,113.46142599999985,-310.64111300000013,32.05126999999993,-161.53857400000015,114.48730499999965,114.10253900000043,108.0771479999994,86.9228520000006,89.23095699999976,98.84619099999964,29.871581999999762,84.48730499999965,-817.9487300000001,36.79492200000004
182,106.41015599999992,-333.33325200000036,32.56396500000028,-159.8718259999996,118.3334960000002,113.7177729999994,108.9741210000002,88.46142599999985,92.94873000000007,106.79492200000004,30.25634799999989,84.61523400000078,-850.6411129999997,34.74365200000011
183,107.30761700000039,-349.2307130000004,36.9228520000006,-152.9487299999996,125.12841800000024,113.46142599999985,110.12841800000024,93.58984400000008,97.56396500000028,116.9228520000006,34.102539000000434,85.25634799999989,-871.5385739999997,36.53857400000015
184,111.53857400000015,-360.38452099999995,42.43603499999972,-144.23071300000038,132.17968800000017,114.23095699999976,110.89746099999957,98.0771479999994,101.2822270000006,124.87158199999976,38.7177729999994,85.64111300000059,-889.2307129999999,40.12841800000024
185,111.53857400000015,-372.9487299999996,45.38476599999922,-139.8718259999996,136.41015599999992,115.76904300000024,110.89746099999957,98.9741210000002,102.17968800000017,127.17968800000017,40.25634799999989,85.89746099999957,-913.974365,41.666503999999804
186,103.46142599999985,-391.41015600000037,43.333496000000196,-143.20507799999996,136.15380900000036,116.53857400000015,110.64111300000059,95.64111300000059,99.23095699999976,123.46142599999985,36.410155999999915,86.0258789999998,-949.871826,38.589844000000085
187,89.23095699999976,-414.7436520000001,37.17968800000017,-152.3076170000004,132.05126999999993,115.89746099999957,110.51269500000035,91.0258789999998,93.7177729999994,116.15380900000036,27.82031300000017,86.41015599999992,-992.4357909999999,32.05126999999993
188,75.12841800000024,-438.076904,30.128418000000238,-162.0512700000004,125.38476599999922,113.84619099999964,111.15380900000036,88.3334960000002,88.3334960000002,108.9741210000002,18.077147999999397,86.41015599999992,-1033.589844,25.769043000000238
189,65.25634799999989,-457.0512700000004,25.0,-167.6923829999996,118.0771479999994,111.79492200000004,112.56396500000028,89.23095699999976,85.64111300000059,104.61523400000078,11.025878999999804,85.0,-1068.205078,22.43603499999972
190,59.87158199999976,-471.15380900000036,22.94873000000007,-168.076904,111.9228520000006,111.15380900000036,113.84619099999964,93.46142599999985,86.9228520000006,103.0771479999994,8.461425999999847,81.9228520000006,-1096.666748,22.56396500000028
191,56.153809000000365,-483.33325200000036,22.82031300000017,-165.5129390000002,108.46142599999985,112.17968800000017,113.3334960000002,99.10253900000043,91.15380900000036,102.69238299999961,9.102539000000434,78.7177729999994,-1122.6923829999996,24.48730499999965
192,51.153809000000365,-496.53857400000015,22.82031300000017,-163.84619099999964,107.82031300000017,113.9741210000002,109.74365200000011,103.3334960000002,96.0258789999998,101.9228520000006,9.487304999999651,77.30761700000039,-1148.846191,25.897460999999566
193,44.74365200000011,-511.923096,21.922852000000603,-164.35888699999987,109.35888699999941,115.25634799999989,104.10253900000043,103.7177729999994,99.23095699999976,100.12841800000024,6.794922000000042,78.58984400000008,-1174.743652,25.769043000000238
194,38.46142599999985,-528.4614259999998,20.25634799999989,-165.76928699999962,112.17968800000017,115.12841800000024,99.74365200000011,100.76904300000024,100.25634799999989,98.58984400000008,0.8974609999995664,81.15380900000036,-1197.4357909999999,24.102539000000434
195,34.48730499999965,-543.4614259999998,19.102539000000434,-164.4870609999998,115.89746099999957,114.23095699999976,100.64111300000059,98.0771479999994,100.0,98.7177729999994,-5.128174000000399,82.94873000000007,-1214.4870609999998,22.05126999999993
196,32.94873000000007,-555.2563479999999,20.0,-159.10253899999998,119.35888699999941,114.23095699999976,107.30761700000039,100.0,100.0,100.64111300000059,-7.564209000000574,83.46142599999985,-1226.410156,21.282227000000603
197,32.43603499999972,-563.974365,22.30761700000039,-151.53857400000015,120.51269500000035,115.25634799999989,115.76904300000024,107.17968800000017,101.15380900000036,103.3334960000002,-5.512939000000188,83.3334960000002,-1236.410156,22.30761700000039
198,31.410155999999915,-572.3076170000004,24.358886999999413,-146.53857400000015,117.43603499999972,116.79492200000004,120.89746099999957,114.87158199999976,102.69238299999961,105.12841800000024,-1.5385740000001533,83.46142599999985,-1248.076904,24.358886999999413
199,29.615234000000783,-582.6923829999996,24.48730499999965,-146.923096,109.74365200000011,117.17968800000017,120.25634799999989,117.43603499999972,103.0771479999994,105.25634799999989,0.0,83.9741210000002,-1263.333252,25.51269500000035
200,27.82031300000017,-596.4101560000004,22.05126999999993,-151.66674799999964,99.10253900000043,115.51269500000035,114.87158199999976,112.43603499999972,100.51269500000035,104.10253900000043,-3.846190999999635,83.46142599999985,-1282.05127,24.102539000000434
201,25.897460999999566,-611.281982,17.05126999999993,-157.43579099999943,89.35888699999941,112.56396500000028,107.30761700000039,102.30761700000039,94.87158199999976,102.05126999999993,-12.307617000000391,81.0258789999998,-1302.05127,20.51269500000035
202,23.846190999999635,-623.4614259999998,10.897460999999566,-160.76928699999962,84.87158199999976,109.87158199999976,100.64111300000059,92.43603499999972,87.94873000000007,99.87158199999976,-21.28198199999997,77.17968800000017,-1321.5385739999997,16.666503999999804
203,21.666503999999804,-630.384521,6.410155999999915,-159.61547900000005,88.0771479999994,108.9741210000002,96.6665039999998,87.17968800000017,82.43603499999972,98.3334960000002,-25.1281740000004,73.7177729999994,-1338.718018,15.0
204,19.615234000000783,-633.4614259999998,6.666503999999804,-153.84619099999964,97.43603499999972,110.51269500000035,96.79492200000004,87.69238299999961,80.0,97.43603499999972,-21.538574000000153,72.94873000000007,-1353.076904,16.282227000000603
205,17.30761700000039,-636.923096,12.43603499999972,-145.64111300000013,108.0771479999994,113.84619099999964,100.0,91.2822270000006,81.0258789999998,97.17968800000017,-13.846190999999635,76.15380900000036,-1364.743652,20.128418000000238
206,13.846190999999635,-644.7436520000001,20.0,-139.10253899999998,113.7177729999994,117.17968800000017,103.9741210000002,93.9741210000002,83.20507799999996,97.43603499999972,-7.435790999999426,81.6665039999998,-1374.743652,23.846190999999635
207,9.102539000000434,-657.9487299999996,24.358886999999413,-137.820557,111.53857400000015,118.58984400000008,106.0258789999998,94.10253900000043,84.23095699999976,97.17968800000017,-5.38452099999995,85.89746099999957,-1383.846191,25.0
208,3.846190999999635,-672.6923829999996,22.82031300000017,-141.15380900000036,104.35888699999941,117.05126999999993,105.89746099999957,93.46142599999985,83.84619099999964,96.41015599999992,-6.794922000000042,86.41015599999992,-1392.5642090000001,22.94873000000007
209,-0.256347999999889,-683.5898439999996,17.05126999999993,-144.7436520000001,98.58984400000008,113.9741210000002,105.51269500000035,94.35888699999941,83.84619099999964,95.38476599999922,-9.230713000000378,83.58984400000008,-1400.5129390000002,19.48730499999965
210,-3.077147999999397,-687.9487299999996,10.641113000000587,-144.8718259999996,97.82031300000017,111.2822270000006,105.51269500000035,96.9228520000006,85.0,94.61523400000078,-11.923095999999987,79.74365200000011,-1407.6923829999996,16.410155999999915
211,-6.025634999999966,-688.8461909999996,6.410155999999915,-142.179443,100.51269500000035,110.25634799999989,105.0,98.3334960000002,85.76904300000024,93.9741210000002,-16.025634999999966,76.15380900000036,-1415.384521,14.358886999999413
212,-12.179442999999992,-692.0512700000004,4.743652000000111,-141.02563499999997,101.53857400000015,111.15380900000036,103.0771479999994,96.0258789999998,84.74365200000011,93.0771479999994,-21.923095999999987,72.82031300000017,-1425.5129390000002,12.43603499999972
213,-21.28198199999997,-701.025635,5.128418000000238,-143.58984399999963,98.7177729999994,113.20507799999996,100.38476599999922,90.38476599999922,82.43603499999972,92.43603499999972,-27.564209000000574,69.87158199999976,-1437.4357909999999,10.384765999999217
214,-29.74365200000011,-713.076904,7.56396500000028,-146.79492200000004,94.74365200000011,115.64111300000059,99.48730499999965,86.2822270000006,82.05126999999993,93.58984400000008,-29.74365200000011,68.84619099999964,-1447.6923829999996,9.615234000000783
215,-31.923095999999987,-722.4357909999994,11.794922000000042,-145.0,95.0,117.56396500000028,102.69238299999961,88.9741210000002,86.2822270000006,97.82031300000017,-26.794922000000042,71.2822270000006,-1452.05127,11.282227000000603
216,-26.41015600000037,-723.974365,17.17968800000017,-135.89746100000002,101.9228520000006,118.46142599999985,109.35888699999941,97.69238299999961,93.9741210000002,103.58984400000008,-20.512939000000188,76.6665039999998,-1449.4870609999998,15.512695000000349
217,-17.30761700000039,-717.6923829999996,20.769043000000238,-123.58984399999963,111.6665039999998,117.94873000000007,115.76904300000024,106.41015599999992,100.25634799999989,107.05126999999993,-15.38452099999995,82.05126999999993,-1443.718018,19.74365200000011
218,-11.923095999999987,-708.5898439999996,20.0,-115.0,117.05126999999993,116.41015599999992,117.43603499999972,107.94873000000007,100.51269500000035,105.12841800000024,-15.0,83.58984400000008,-1441.281982,21.153809000000365
219,-15.0,-702.820557,15.0,-113.71801800000003,113.3334960000002,114.87158199999976,112.56396500000028,101.2822270000006,93.84619099999964,97.17968800000017,-19.8718259999996,79.61523400000078,-1446.794922,18.461425999999847
220,-25.25634799999989,-703.718018,8.974121000000196,-117.17944299999999,102.30761700000039,114.61523400000078,103.84619099999964,92.17968800000017,84.61523400000078,86.41015599999992,-27.051270000000386,72.56396500000028,-1459.230713,12.82031300000017
221,-36.66674799999964,-710.1281740000004,5.512695000000349,-120.1281740000004,91.53857400000015,115.89746099999957,96.2822270000006,87.56396500000028,78.84619099999964,77.82031300000017,-32.435790999999426,66.79492200000004,-1472.3076170000004,7.051269999999931
222,-43.20507799999996,-718.076904,5.769043000000238,-118.58984399999963,87.43603499999972,117.94873000000007,93.58984400000008,89.87158199999976,79.61523400000078,74.61523400000078,-34.35888699999987,65.76904300000024,-1479.4870609999998,3.9741210000001956
223,-43.33325200000036,-723.8461909999996,7.56396500000028,-113.33325200000036,91.41015599999992,119.35888699999941,95.76904300000024,96.41015599999992,85.64111300000059,77.17968800000017,-33.71801800000003,69.35888699999941,-1478.333252,4.6152340000007825
224,-39.48706099999981,-726.1538090000004,8.974121000000196,-107.82055700000001,99.23095699999976,119.48730499999965,99.35888699999941,102.56396500000028,93.20507799999996,83.3334960000002,-31.923095999999987,75.0,-1471.666748,8.205077999999958
225,-35.76928699999962,-725.897461,9.871581999999762,-105.89746100000002,105.89746099999957,118.46142599999985,101.53857400000015,105.38476599999922,99.35888699999941,90.51269500000035,-28.846190999999635,80.12841800000024,-1464.4870609999998,13.589844000000085
226,-34.10253899999998,-724.7436520000001,11.922852000000603,-108.07690400000001,108.3334960000002,117.17968800000017,102.05126999999993,105.38476599999922,103.58984400000008,96.53857400000015,-23.71801800000003,83.58984400000008,-1460.0,18.846190999999635
227,-34.48706099999981,-724.2307130000004,15.641113000000587,-111.79492200000004,107.43603499999972,116.6665039999998,102.94873000000007,104.74365200000011,106.6665039999998,99.35888699999941,-17.564209000000574,85.12841800000024,-1458.076904,22.69238299999961
228,-36.025634999999966,-725.5129390000002,19.48730499999965,-113.84619099999964,105.12841800000024,117.05126999999993,106.0258789999998,104.23095699999976,108.7177729999994,98.7177729999994,-12.692382999999609,84.74365200000011,-1457.4357909999999,24.48730499999965
229,-38.07690400000001,-727.6923829999996,20.897460999999566,-113.20507799999996,103.20507799999996,118.3334960000002,110.38476599999922,103.58984400000008,108.7177729999994,96.79492200000004,-10.38452099999995,82.94873000000007,-1456.153809,24.615234000000783
230,-40.51293900000019,-729.102539,18.846190999999635,-111.28198199999997,102.69238299999961,119.74365200000011,113.0771479999994,102.82031300000017,106.41015599999992,96.6665039999998,-10.0,80.76904300000024,-1453.333252,23.717772999999397
231,-43.20507799999996,-729.102539,15.0,-110.64111300000013,103.0771479999994,120.12841800000024,111.53857400000015,102.69238299999961,103.0771479999994,99.61523400000078,-10.0,79.10253900000043,-1449.615479,22.56396500000028
232,-46.53857400000015,-729.4870609999998,12.56396500000028,-112.05127000000039,103.84619099999964,119.10253900000043,106.6665039999998,103.3334960000002,100.25634799999989,103.20507799999996,-10.256347999999889,78.20507799999996,-1446.281982,21.666503999999804
233,-49.61547900000005,-733.205078,13.461425999999847,-114.48706099999981,103.58984400000008,117.43603499999972,101.0258789999998,103.84619099999964,98.58984400000008,103.7177729999994,-11.666747999999643,78.46142599999985,-1444.102539,21.282227000000603
234,-51.79492200000004,-740.6411130000001,16.666503999999804,-115.0,101.9228520000006,116.2822270000006,97.56396500000028,102.43603499999972,97.17968800000017,99.10253900000043,-14.358886999999868,79.61523400000078,-1441.666748,21.282227000000603
235,-52.17944299999999,-749.102539,20.25634799999989,-111.28198199999997,99.87158199999976,116.41015599999992,97.05126999999993,98.7177729999994,95.51269500000035,90.89746099999957,-16.41015600000037,81.53857400000015,-1437.5642090000001,21.538574000000153
236,-50.76928699999962,-753.5898440000001,23.205077999999958,-103.07690400000001,98.58984400000008,117.17968800000017,98.7177729999994,93.46142599999985,93.7177729999994,83.3334960000002,-16.41015600000037,83.84619099999964,-1431.410156,22.30761700000039
237,-49.10253899999998,-751.4101559999999,25.0,-93.07690400000001,99.23095699999976,117.69238299999961,100.89746099999957,88.58984400000008,92.43603499999972,80.0,-14.8718259999996,85.76904300000024,-1424.871826,23.205077999999958
238,-48.846190999999635,-744.4870609999998,25.128418000000238,-85.64111300000013,101.41015599999992,117.43603499999972,101.79492200000004,85.89746099999957,91.6665039999998,82.17968800000017,-14.743652000000111,86.2822270000006,-1420.6411129999997,22.94873000000007
239,-51.025634999999966,-738.076904,23.077147999999397,-83.46142599999985,103.7177729999994,116.79492200000004,101.6665039999998,85.38476599999922,90.51269500000035,87.05126999999993,-18.461425999999847,84.35888699999941,-1420.256348,21.025878999999804
240,-54.61547900000005,-736.281982,19.230956999999762,-85.89746100000002,104.87158199999976,116.15380900000036,101.2822270000006,86.0258789999998,88.7177729999994,89.48730499999965,-25.25634799999989,79.87158199999976,-1422.820557,17.43603499999972
241,-58.33325200000036,-740.0,15.384765999999217,-90.1281740000004,104.61523400000078,116.2822270000006,101.2822270000006,86.6665039999998,86.53857400000015,86.15380900000036,-32.17944299999999,74.74365200000011,-1426.5385739999997,13.846190999999635
242,-61.53857400000015,-746.794922,12.948730000000069,-93.07690400000001,103.58984400000008,117.17968800000017,101.53857400000015,86.6665039999998,84.23095699999976,78.0771479999994,-36.92309599999999,70.64111300000059,-1430.897461,11.025878999999804
243,-64.8718259999996,-753.974365,12.307617000000391,-93.58984399999963,102.43603499999972,117.82031300000017,101.6665039999998,86.15380900000036,81.9228520000006,69.61523400000078,-39.35888699999987,68.7177729999994,-1436.410156,9.358886999999413
244,-67.82055700000001,-758.718018,13.589844000000085,-92.30761700000039,101.41015599999992,117.69238299999961,101.53857400000015,86.2822270000006,80.12841800000024,65.12841800000024,-40.1281740000004,68.84619099999964,-1442.6923829999996,8.717772999999397
245,-68.84619099999964,-759.102539,16.410155999999915,-90.0,99.61523400000078,117.05126999999993,102.69238299999961,88.58984400000008,80.0,65.89746099999957,-38.974365000000034,70.25634799999989,-1447.179443,9.230956999999762
246,-66.79492200000004,-755.5129390000002,20.384765999999217,-86.66674799999964,96.79492200000004,116.9228520000006,105.89746099999957,93.46142599999985,82.43603499999972,70.76904300000024,-35.38452099999995,72.17968800000017,-1446.5385739999997,11.282227000000603
247,-61.92309599999999,-750.128174,25.25634799999989,-81.28198199999997,94.61523400000078,117.82031300000017,110.89746099999957,99.87158199999976,88.0771479999994,77.30761700000039,-28.846190999999635,74.87158199999976,-1439.615479,15.769043000000238
248,-55.64111300000013,-745.2563479999999,30.384765999999217,-73.58984399999963,96.0258789999998,119.23095699999976,116.0258789999998,105.76904300000024,96.0258789999998,84.23095699999976,-20.0,78.84619099999964,-1428.333252,21.794922000000042
249,-50.25634799999989,-742.179443,34.35888699999941,-66.02563499999997,101.6665039999998,119.87158199999976,118.9741210000002,109.10253900000043,103.46142599999985,90.64111300000059,-10.897461000000021,83.20507799999996,-1417.05127,26.538574000000153
250,-48.974365000000034,-741.4101560000004,35.25634799999989,-62.435790999999426,108.7177729999994,118.9741210000002,117.82031300000017,109.10253900000043,106.53857400000015,94.74365200000011,-4.871825999999601,85.76904300000024,-1410.384521,26.794922000000042
251,-53.20507799999996,-742.4357909999994,31.794922000000042,-64.8718259999996,112.30761700000039,117.43603499999972,112.94873000000007,106.0258789999998,102.94873000000007,94.35888699999941,-4.743652000000111,84.74365200000011,-1409.743652,21.794922000000042
252,-61.53857400000015,-744.2307130000004,25.641113000000587,-71.41015600000037,110.12841800000024,116.2822270000006,106.6665039999998,101.41015599999992,94.87158199999976,89.74365200000011,-9.487060999999812,80.76904300000024,-1412.6923829999996,14.743652000000111
253,-69.48706099999981,-744.871826,20.25634799999989,-77.56420900000057,103.9741210000002,116.53857400000015,102.43603499999972,97.43603499999972,87.56396500000028,84.35888699999941,-15.769286999999622,76.2822270000006,-1414.230713,10.512695000000349
254,-73.20507799999996,-743.5898439999996,18.717772999999397,-80.51293900000019,98.58984400000008,117.69238299999961,101.6665039999998,96.15380900000036,86.53857400000015,81.53857400000015,-19.8718259999996,74.35888699999941,-1410.6411129999997,11.922852000000603
255,-72.43579099999943,-741.794922,20.897460999999566,-81.15380900000036,96.79492200000004,118.9741210000002,103.7177729999994,97.94873000000007,92.17968800000017,82.05126999999993,-21.153809000000365,75.76904300000024,-1402.3076170000004,17.17968800000017
256,-70.38452099999995,-741.923096,23.974121000000196,-82.05127000000039,97.69238299999961,119.61523400000078,106.53857400000015,101.15380900000036,99.35888699999941,83.9741210000002,-21.41015600000037,78.9741210000002,-1393.4614260000003,21.153809000000365
257,-70.38452099999995,-745.0,24.871581999999762,-84.23071300000038,98.7177729999994,119.10253900000043,108.84619099999964,103.46142599999985,102.17968800000017,84.74365200000011,-22.435790999999426,81.41015599999992,-1387.5642090000001,20.51269500000035
258,-72.69238299999961,-748.718018,23.589844000000085,-86.02563499999997,97.94873000000007,117.82031300000017,110.25634799999989,103.84619099999964,99.10253900000043,83.9741210000002,-23.461425999999847,81.9228520000006,-1383.974365,16.282227000000603
259,-75.89746100000002,-749.2307129999999,22.17968800000017,-85.38452099999995,96.53857400000015,116.6665039999998,110.89746099999957,102.43603499999972,92.94873000000007,82.17968800000017,-22.435790999999426,80.89746099999957,-1379.615479,12.43603499999972
260,-79.10253899999998,-745.128174,22.56396500000028,-82.82055700000001,96.15380900000036,116.53857400000015,110.25634799999989,99.87158199999976,87.94873000000007,80.12841800000024,-20.1281740000004,78.84619099999964,-1373.205078,12.17968800000017
261,-83.20507799999996,-739.2307130000004,23.974121000000196,-81.41015600000037,97.94873000000007,117.82031300000017,107.43603499999972,95.38476599999922,85.51269500000035,78.20507799999996,-19.487060999999812,76.15380900000036,-1366.281982,15.128418000000238
262,-88.71801800000003,-735.6411130000001,24.102539000000434,-83.46142599999985,101.41015599999992,120.12841800000024,103.0771479999994,88.58984400000008,83.84619099999964,76.2822270000006,-22.564209000000574,73.0771479999994,-1361.281982,18.717772999999397
263,-93.58984399999963,-735.5129390000002,22.17968800000017,-88.20507799999996,104.48730499999965,123.3334960000002,99.61523400000078,81.41015599999992,81.6665039999998,74.74365200000011,-27.051270000000386,70.51269500000035,-1358.589844,21.025878999999804
264,-94.23071300000038,-736.4101560000004,20.128418000000238,-92.94872999999961,105.12841800000024,127.56396500000028,100.51269500000035,78.58984400000008,80.64111300000059,74.23095699999976,-28.461425999999847,70.0,-1355.897461,22.17968800000017
265,-89.35888699999987,-735.0,19.615234000000783,-95.51293900000019,102.82031300000017,132.3076170000004,106.9228520000006,82.94873000000007,83.3334960000002,75.89746099999957,-24.230713000000378,71.6665039999998,-1349.743652,22.82031300000017
266,-81.53857400000015,-730.7692869999996,20.769043000000238,-95.51293900000019,98.58984400000008,135.2563479999999,115.12841800000024,92.05126999999993,90.38476599999922,80.51269500000035,-16.794922000000042,74.35888699999941,-1340.0,23.205077999999958
267,-75.89746100000002,-725.5129390000002,21.666503999999804,-94.61547900000005,95.38476599999922,133.9741210000002,120.0,100.0,98.84619099999964,86.6665039999998,-10.769286999999622,75.64111300000059,-1329.230713,22.82031300000017
268,-74.8718259999996,-721.4101560000004,21.666503999999804,-93.58984399999963,95.25634799999989,128.9741210000002,117.94873000000007,101.79492200000004,103.58984400000008,90.64111300000059,-9.487060999999812,74.61523400000078,-1320.897461,21.666503999999804
269,-78.07690400000001,-719.2307130000004,21.410155999999915,-92.43579099999943,98.3334960000002,122.82031300000017,111.2822270000006,97.69238299999961,101.41015599999992,88.84619099999964,-12.307617000000391,72.94873000000007,-1316.153809,19.871581999999762
270,-82.43579099999943,-718.205078,21.538574000000153,-90.89746100000002,102.17968800000017,119.10253900000043,105.38476599999922,91.79492200000004,93.58984400000008,81.2822270000006,-16.666747999999643,72.43603499999972,-1313.846191,18.461425999999847
271,-85.76928699999962,-718.076904,21.922852000000603,-89.35888699999987,103.9741210000002,119.10253900000043,104.74365200000011,88.7177729999994,85.0,72.05126999999993,-19.61547900000005,74.10253900000043,-1312.05127,17.94873000000007
272,-87.94872999999961,-718.5898439999996,21.282227000000603,-89.61547900000005,102.17968800000017,121.9228520000006,109.48730499999965,89.87158199999976,80.25634799999989,66.79492200000004,-20.641113000000132,76.0258789999998,-1309.230713,18.205077999999958
273,-89.8718259999996,-719.615479,18.717772999999397,-92.43579099999943,97.82031300000017,124.74365200000011,115.25634799999989,93.3334960000002,81.0258789999998,68.3334960000002,-20.38452099999995,75.12841800000024,-1304.615479,18.205077999999958
274,-92.05127000000039,-719.7436520000001,15.256347999999889,-95.51293900000019,93.9741210000002,125.51269500000035,117.17968800000017,96.2822270000006,85.89746099999957,75.12841800000024,-19.61547900000005,71.41015599999992,-1298.333252,17.43603499999972
275,-92.69238299999961,-716.5385740000002,13.461425999999847,-94.74365200000011,93.3334960000002,123.84619099999964,115.38476599999922,97.69238299999961,92.30761700000039,82.82031300000017,-17.30761700000039,68.46142599999985,-1290.128174,16.794922000000042
276,-89.74365200000011,-709.4870609999998,15.769043000000238,-87.56420900000057,96.0258789999998,120.89746099999957,113.46142599999985,98.84619099999964,98.46142599999985,88.58984400000008,-12.051270000000386,70.0,-1279.743652,17.82031300000017
277,-83.46142599999985,-700.897461,21.410155999999915,-77.05127000000039,99.23095699999976,118.3334960000002,114.87158199999976,101.0258789999998,102.69238299999961,91.2822270000006,-5.128174000000399,75.76904300000024,-1268.718018,20.897460999999566
278,-78.07690400000001,-695.0,26.410155999999915,-70.38452099999995,99.61523400000078,117.05126999999993,118.46142599999985,103.58984400000008,103.84619099999964,90.51269500000035,0.12841800000023795,81.9228520000006,-1260.0,23.974121000000196
279,-77.56420900000057,-693.8461909999996,26.666503999999804,-72.30761700000039,96.41015599999992,116.9228520000006,120.38476599999922,104.87158199999976,101.6665039999998,86.9228520000006,-0.12841800000023795,84.35888699999941,-1255.0,24.871581999999762
280,-82.17944299999999,-695.2563479999999,22.43603499999972,-79.61547900000005,92.43603499999972,117.17968800000017,118.7177729999994,103.7177729999994,97.69238299999961,82.69238299999961,-6.153809000000365,82.17968800000017,-1252.820557,23.589844000000085
281,-86.92309599999999,-694.615479,18.077147999999397,-83.58984399999963,91.79492200000004,116.79492200000004,115.0,101.15380900000036,95.12841800000024,81.2822270000006,-13.58984399999963,78.3334960000002,-1249.615479,22.43603499999972
282,-86.41015600000037,-689.8718259999996,18.717772999999397,-78.20507799999996,95.12841800000024,116.0258789999998,112.82031300000017,99.74365200000011,96.15380900000036,84.23095699999976,-16.153809000000365,76.79492200000004,-1242.94873,23.205077999999958
283,-80.1281740000004,-683.3332520000004,25.384765999999217,-66.15380900000036,98.9741210000002,115.64111300000059,114.23095699999976,101.15380900000036,100.25634799999989,90.0,-11.025634999999966,78.9741210000002,-1233.205078,25.641113000000587
284,-72.43579099999943,-679.3588869999999,34.23095699999976,-55.51293900000019,99.87158199999976,116.15380900000036,118.20507799999996,103.9741210000002,104.74365200000011,95.64111300000059,-0.8974609999995664,83.20507799999996,-1223.718018,26.922852000000603
285,-68.07690400000001,-679.2307130000004,40.0,-52.564209000000574,98.46142599999985,117.30761700000039,122.05126999999993,105.89746099999957,106.41015599999992,99.87158199999976,8.589844000000085,86.41015599999992,-1216.025635,26.153809000000365
286,-67.56420900000057,-679.4870609999998,40.38476599999922,-56.66674799999964,99.61523400000078,118.46142599999985,123.20507799999996,106.41015599999992,105.25634799999989,102.94873000000007,13.974121000000196,86.6665039999998,-1209.615479,25.384765999999217
287,-67.82055700000001,-675.2563479999999,37.17968800000017,-61.41015600000037,105.89746099999957,119.23095699999976,121.15380900000036,106.9228520000006,104.23095699999976,105.38476599999922,15.0,84.74365200000011,-1202.4357909999999,26.794922000000042
288,-65.51293900000019,-665.897461,33.974121000000196,-60.89746100000002,114.10253900000043,119.74365200000011,117.94873000000007,108.7177729999994,105.51269500000035,106.6665039999998,12.43603499999972,83.0771479999994,-1194.743652,30.51269500000035
289,-60.89746100000002,-656.4101560000004,33.7177729999994,-54.23071300000038,118.3334960000002,119.74365200000011,115.76904300000024,111.9228520000006,109.35888699999941,106.15380900000036,7.43603499999972,83.20507799999996,-1188.4614260000003,33.589844000000085
290,-56.79492200000004,-652.179443,36.153809000000365,-44.35888699999987,115.89746099999957,118.7177729999994,115.89746099999957,115.0,113.7177729999994,104.35888699999941,2.3076170000003913,84.61523400000078,-1185.256348,33.846190999999635
291,-56.41015600000037,-654.2307130000004,39.74365200000011,-36.41015600000037,109.87158199999976,116.9228520000006,118.3334960000002,116.2822270000006,116.79492200000004,102.17968800000017,0.8974609999995664,85.89746099999957,-1184.4870609999998,31.922852000000603
292,-59.23071300000038,-657.9487299999996,42.30761700000039,-33.46142599999985,105.64111300000059,115.38476599999922,122.56396500000028,115.38476599999922,117.69238299999961,100.89746099999957,5.128418000000238,86.41015599999992,-1182.6923829999996,30.128418000000238
293,-62.82055700000001,-657.0512700000004,42.94873000000007,-34.8718259999996,106.41015599999992,115.12841800000024,127.94873000000007,113.46142599999985,117.30761700000039,100.76904300000024,13.077147999999397,86.41015599999992,-1177.05127,30.25634799999989
294,-64.35888699999987,-649.4870609999998,42.05126999999993,-37.564209000000574,110.38476599999922,116.15380900000036,132.56396500000028,111.6665039999998,116.41015599999992,101.53857400000015,19.74365200000011,86.53857400000015,-1167.6923829999996,31.922852000000603
295,-63.58984399999963,-639.8718259999996,40.64111300000059,-38.71801800000003,113.20507799999996,117.56396500000028,134.23095699999976,110.0,114.74365200000011,101.6665039999998,20.384765999999217,86.53857400000015,-1157.94873,33.333496000000196
296,-63.07690400000001,-635.7692869999996,39.35888699999941,-38.71801800000003,110.89746099999957,118.46142599999985,131.53857400000015,106.79492200000004,110.64111300000059,99.35888699999941,13.589844000000085,85.38476599999922,-1152.179443,32.30761700000039
297,-66.02563499999997,-641.923096,37.56396500000028,-39.48706099999981,103.58984400000008,118.0771479999994,125.0,100.76904300000024,103.58984400000008,93.3334960000002,2.8203130000001693,83.3334960000002,-1152.6923829999996,28.333496000000196
298,-72.82055700000001,-654.7436520000001,34.87158199999976,-41.92309599999999,95.0,116.53857400000015,118.0771479999994,93.0771479999994,95.64111300000059,85.25634799999989,-5.256347999999889,81.6665039999998,-1157.3076170000004,22.69238299999961
299,-79.48706099999981,-664.4870609999998,32.94873000000007,-43.846190999999635,91.0258789999998,115.0,115.51269500000035,87.56396500000028,90.51269500000035,79.23095699999976,-5.769286999999622,81.53857400000015,-1160.0,18.974121000000196
300,-81.15380900000036,-662.3076170000004,33.846190999999635,-42.17944299999999,95.25634799999989,114.74365200000011,120.25634799999989,88.46142599999985,91.0258789999998,79.23095699999976,1.6665039999998044,82.82031300000017,-1155.897461,20.128418000000238
301,-76.41015600000037,-647.6923829999996,37.69238299999961,-37.17944299999999,106.53857400000015,116.2822270000006,129.61523400000078,95.25634799999989,96.53857400000015,85.38476599999922,11.025878999999804,83.9741210000002,-1144.743652,25.769043000000238
302,-69.10253899999998,-628.974365,41.2822270000006,-33.46142599999985,117.94873000000007,118.58984400000008,137.43603499999972,102.94873000000007,102.17968800000017,92.69238299999961,15.384765999999217,83.20507799999996,-1131.5385739999997,31.922852000000603
303,-64.61547900000005,-616.281982,40.76904300000024,-35.76928699999962,122.30761700000039,120.0,138.3334960000002,106.0258789999998,104.10253900000043,96.0258789999998,11.794922000000042,80.25634799999989,-1121.281982,34.48730499999965
304,-64.8718259999996,-613.8461909999996,35.76904300000024,-43.58984399999963,117.56396500000028,118.84619099999964,132.43603499999972,103.7177729999994,102.43603499999972,94.74365200000011,3.9741210000001956,77.05126999999993,-1114.871826,33.20507799999996
305,-65.89746100000002,-617.3076170000004,29.871581999999762,-49.74365200000011,109.10253900000043,116.0258789999998,125.12841800000024,100.51269500000035,101.2822270000006,92.94873000000007,0.12841800000023795,76.0258789999998,-1108.205078,31.794922000000042
306,-62.82055700000001,-618.974365,28.333496000000196,-46.92309599999999,104.61523400000078,114.10253900000043,121.79492200000004,101.53857400000015,104.74365200000011,95.76904300000024,5.512695000000349,78.84619099999964,-1097.3076170000004,33.974121000000196
307,-55.25634799999989,-614.4870609999998,32.43603499999972,-34.61547900000005,106.9228520000006,115.0,124.48730499999965,108.0771479999994,112.17968800000017,103.84619099999964,17.82031300000017,84.35888699999941,-1082.4357909999999,38.846190999999635
308,-47.948729999999614,-605.897461,39.102539000000434,-20.0,112.69238299999961,117.82031300000017,130.2563479999999,115.25634799999989,118.84619099999964,112.69238299999961,28.589844000000085,89.10253900000043,-1069.102539,42.43603499999972
309,-46.53857400000015,-599.102539,43.46142599999985,-11.794922000000042,115.76904300000024,120.51269500000035,134.23095699999976,117.17968800000017,120.25634799999989,115.51269500000035,30.897460999999566,90.25634799999989,-1063.589844,41.53857400000015
310,-52.30761700000039,-597.9487299999996,42.82031300000017,-13.076904000000013,112.94873000000007,121.41015599999992,133.84619099999964,111.41015599999992,114.87158199999976,108.9741210000002,23.589844000000085,87.69238299999961,-1067.5642090000001,36.2822270000006
311,-61.53857400000015,-601.281982,39.102539000000434,-19.10253899999998,105.76904300000024,120.51269500000035,130.0,101.0258789999998,105.25634799999989,96.0258789999998,11.025878999999804,84.10253900000043,-1076.410156,29.74365200000011
312,-67.94872999999961,-604.7436520000001,36.2822270000006,-22.30761700000039,99.74365200000011,119.35888699999941,126.53857400000015,93.3334960000002,96.6665039999998,84.23095699999976,-0.256347999999889,82.05126999999993,-1081.923096,26.025878999999804
313,-67.56420900000057,-603.718018,36.666503999999804,-18.71801800000003,99.74365200000011,119.23095699999976,126.41015599999992,93.46142599999985,94.10253900000043,80.25634799999989,-5.0,82.43603499999972,-1077.820557,27.56396500000028
314,-61.28198199999997,-597.6923829999996,39.102539000000434,-10.897461000000021,106.6665039999998,120.64111300000059,129.61523400000078,101.41015599999992,98.7177729999994,85.76904300000024,-1.5385740000001533,84.48730499999965,-1063.718018,33.46142599999985
315,-54.10253899999998,-589.7436520000001,40.51269500000035,-4.871825999999601,116.15380900000036,122.43603499999972,133.20507799999996,111.2822270000006,106.41015599999992,95.76904300000024,7.56396500000028,86.41015599999992,-1045.5129390000002,40.25634799999989
316,-50.89746100000002,-584.615479,39.23095699999976,-4.358886999999868,121.41015599999992,123.3334960000002,134.61523400000078,116.79492200000004,111.6665039999998,103.20507799999996,16.282227000000603,86.41015599999992,-1031.410156,43.7177729999994
317,-53.07690400000001,-584.3588869999999,36.9228520000006,-7.435790999999426,119.35888699999941,122.17968800000017,133.58984400000008,115.64111300000059,111.79492200000004,103.84619099999964,20.384765999999217,84.48730499999965,-1025.5129390000002,42.69238299999961
318,-57.051270000000386,-586.794922,37.30761700000039,-9.358886999999868,113.0771479999994,119.87158199999976,131.9228520000006,111.15380900000036,108.58984400000008,99.74365200000011,20.128418000000238,82.82031300000017,-1025.5129390000002,39.48730499999965
319,-57.948729999999614,-587.4357909999994,42.69238299999961,-6.923095999999987,109.10253900000043,117.94873000000007,131.9228520000006,108.46142599999985,106.53857400000015,96.79492200000004,19.230956999999762,83.7177729999994,-1025.384521,37.82031300000017
320,-54.35888699999987,-582.9487299999996,51.153809000000365,-1.7949220000000423,111.2822270000006,117.43603499999972,133.58984400000008,109.74365200000011,107.94873000000007,99.48730499999965,20.384765999999217,87.56396500000028,-1020.384521,38.846190999999635
321,-49.48706099999981,-574.3588869999999,57.82031300000017,1.0258789999998044,117.56396500000028,117.30761700000039,135.0,113.3334960000002,111.53857400000015,107.17968800000017,22.69238299999961,92.17968800000017,-1011.025635,40.76904300000024
322,-48.07690400000001,-565.7692869999996,58.46142599999985,-1.5385740000001533,121.9228520000006,116.6665039999998,134.3588869999994,116.2822270000006,114.48730499999965,114.61523400000078,23.461425999999847,94.10253900000043,-1001.4101559999999,41.153809000000365
323,-51.28198199999997,-560.384521,53.7177729999994,-7.051270000000386,121.0258789999998,115.64111300000059,131.79492200000004,117.30761700000039,115.76904300000024,117.94873000000007,22.43603499999972,92.30761700000039,-994.2307129999999,39.74365200000011
324,-56.153809000000365,-558.076904,48.0771479999994,-9.743652000000111,117.17968800000017,115.51269500000035,129.48730499999965,118.20507799999996,117.05126999999993,117.05126999999993,22.30761700000039,89.10253900000043,-988.8461910000001,38.333496000000196
325,-57.948729999999614,-557.179443,46.53857400000015,-5.512939000000188,115.12841800000024,116.53857400000015,129.23095699999976,121.41015599999992,120.64111300000059,115.64111300000059,25.641113000000587,87.69238299999961,-983.205078,38.7177729999994
326,-55.25634799999989,-556.5385740000002,51.025878999999804,3.846190999999635,117.17968800000017,117.56396500000028,130.89746099999957,127.05126999999993,126.41015599999992,116.15380900000036,31.153809000000365,89.35888699999941,-976.1538089999999,40.0
327,-50.89746100000002,-556.6667479999996,58.20507799999996,12.692382999999609,119.74365200000011,116.79492200000004,133.58984400000008,132.82031300000017,131.41015599999992,117.56396500000028,34.102539000000434,92.82031300000017,-969.871826,40.25634799999989
328,-49.35888699999987,-558.718018,62.69238299999961,15.769043000000238,118.3334960000002,114.10253900000043,135.51269500000035,135.0,131.9228520000006,116.41015599999992,30.769043000000238,95.25634799999989,-967.179443,38.333496000000196
329,-52.435790999999426,-562.3076170000004,61.9228520000006,12.56396500000028,112.30761700000039,111.2822270000006,135.76904300000024,133.20507799999996,127.05126999999993,110.76904300000024,22.56396500000028,95.0,-967.9487300000001,34.61523400000078
330,-58.46142599999985,-565.5129390000002,57.43603499999972,6.282227000000603,105.76904300000024,110.25634799999989,134.10253900000043,129.7436520000001,119.74365200000011,102.94873000000007,15.128418000000238,92.69238299999961,-968.974365,31.153809000000365
331,-63.846190999999635,-566.281982,52.94873000000007,0.6411130000005869,103.58984400000008,111.15380900000036,130.89746099999957,127.56396500000028,114.61523400000078,97.94873000000007,13.717772999999397,90.38476599999922,-967.0512699999999,29.230956999999762
332,-66.41015600000037,-563.8461909999996,50.64111300000059,-3.077147999999397,106.6665039999998,112.69238299999961,126.53857400000015,126.9228520000006,114.48730499999965,98.9741210000002,17.94873000000007,89.74365200000011,-961.794922,28.461425999999847
333,-66.02563499999997,-559.4870609999998,50.0,-4.487060999999812,111.9228520000006,113.84619099999964,122.17968800000017,126.41015599999992,117.94873000000007,105.38476599999922,22.56396500000028,90.38476599999922,-955.128174,28.205077999999958
334,-64.48706099999981,-554.7436520000001,49.74365200000011,-3.4614259999998467,115.0,113.9741210000002,119.48730499999965,125.25634799999989,121.41015599999992,113.84619099999964,22.30761700000039,90.76904300000024,-948.5898440000001,28.333496000000196
335,-62.82055700000001,-550.897461,49.61523400000078,0.8974609999995664,113.3334960000002,113.46142599999985,120.25634799999989,124.23095699999976,122.30761700000039,120.51269500000035,16.282227000000603,90.0,-942.6923829999996,28.846190999999635
336,-61.41015600000037,-548.3332520000004,49.61523400000078,6.922852000000603,107.82031300000017,113.58984400000008,124.61523400000078,124.23095699999976,120.89746099999957,122.94873000000007,8.717772999999397,87.94873000000007,-937.0512699999999,29.615234000000783
337,-60.1281740000004,-546.794922,49.35888699999941,11.025878999999804,101.9228520000006,114.74365200000011,130.12841800000024,125.51269500000035,119.23095699999976,120.25634799999989,5.641113000000587,86.0258789999998,-932.3076170000004,29.74365200000011
338,-58.846190999999635,-545.1281740000004,48.589844000000085,10.512695000000349,99.23095699999976,116.2822270000006,132.94873000000007,126.15380900000036,118.7177729999994,113.84619099999964,9.102539000000434,85.25634799999989,-929.3588870000003,28.846190999999635
339,-58.33325200000036,-543.205078,47.30761700000039,5.3847659999992175,101.41015599999992,116.41015599999992,130.89746099999957,124.61523400000078,118.7177729999994,107.05126999999993,15.769043000000238,85.89746099999957,-928.205078,26.922852000000603
340,-59.8718259999996,-541.923096,46.025878999999804,-1.2822270000006029,106.0258789999998,115.12841800000024,124.87158199999976,120.64111300000059,118.46142599999985,103.46142599999985,18.974121000000196,86.9228520000006,-927.179443,24.74365200000011
341,-63.846190999999635,-542.820557,44.61523400000078,-6.794922000000042,108.58984400000008,113.20507799999996,118.46142599999985,116.41015599999992,117.82031300000017,104.35888699999941,14.743652000000111,87.05126999999993,-924.102539,23.205077999999958
342,-69.10253899999998,-545.1281740000004,42.17968800000017,-10.1281740000004,106.0258789999998,111.79492200000004,114.48730499999965,114.10253900000043,117.05126999999993,108.3334960000002,5.769043000000238,85.76904300000024,-917.820557,23.077147999999397
343,-72.69238299999961,-546.4101560000004,39.23095699999976,-11.538574000000153,99.61523400000078,110.76904300000024,113.7177729999994,114.61523400000078,116.53857400000015,112.17968800000017,-0.769043000000238,83.84619099999964,-908.974365,24.615234000000783
344,-72.43579099999943,-543.974365,38.0771479999994,-10.256347999999889,94.23095699999976,109.87158199999976,115.12841800000024,117.05126999999993,116.53857400000015,113.20507799999996,1.6665039999998044,82.17968800000017,-899.3588870000003,28.077147999999397
345,-67.69238299999961,-537.6923829999996,41.025878999999804,-6.153809000000365,93.84619099999964,108.84619099999964,117.05126999999993,119.61523400000078,117.43603499999972,111.53857400000015,13.461425999999847,81.9228520000006,-890.384521,32.82031300000017
346,-61.025634999999966,-530.384521,46.666503999999804,-0.512695000000349,98.58984400000008,107.82031300000017,118.58984400000008,120.76904300000024,119.10253900000043,109.48730499999965,28.589844000000085,83.46142599999985,-882.820557,37.17968800000017
347,-55.1281740000004,-524.7436520000001,51.410155999999915,4.102539000000434,106.15380900000036,106.9228520000006,119.48730499999965,120.64111300000059,121.41015599999992,109.74365200000011,39.23095699999976,86.79492200000004,-875.6411129999997,39.48730499999965
348,-52.30761700000039,-522.3076170000004,52.30761700000039,6.922852000000603,113.0771479999994,106.2822270000006,120.0,120.38476599999922,123.3334960000002,113.20507799999996,40.0,90.51269500000035,-868.4614260000003,38.46142599999985
349,-52.30761700000039,-523.205078,50.0,9.230956999999762,116.2822270000006,106.15380900000036,119.87158199999976,120.89746099999957,123.84619099999964,117.69238299999961,32.05126999999993,93.0771479999994,-862.5642090000001,34.74365200000011
350,-54.10253899999998,-526.1538090000004,46.9228520000006,12.82031300000017,113.46142599999985,106.41015599999992,118.3334960000002,121.15380900000036,122.17968800000017,119.48730499999965,19.74365200000011,92.82031300000017,-860.384521,29.48730499999965
351,-56.153809000000365,-529.4870609999998,45.0,17.56396500000028,104.74365200000011,106.6665039999998,115.25634799999989,119.35888699999941,118.7177729999994,115.38476599999922,8.205077999999958,89.35888699999941,-863.3332519999999,24.358886999999413
352,-57.564209000000574,-530.2563479999999,43.974121000000196,21.025878999999804,93.84619099999964,107.17968800000017,112.17968800000017,115.38476599999922,114.74365200000011,106.53857400000015,0.512695000000349,84.48730499999965,-868.4614260000003,21.025878999999804
353,-57.051270000000386,-527.179443,43.333496000000196,20.897460999999566,86.79492200000004,107.56396500000028,110.89746099999957,111.6665039999998,112.17968800000017,97.69238299999961,-1.6665039999998044,81.0258789999998,-869.871826,21.025878999999804
354,-53.58984399999963,-520.6411130000001,42.69238299999961,17.17968800000017,87.43603499999972,107.43603499999972,111.9228520000006,111.0258789999998,112.17968800000017,94.35888699999941,1.4101559999999154,80.64111300000059,-863.4614260000003,24.48730499999965
355,-48.07690400000001,-513.5898439999996,41.53857400000015,11.538574000000153,94.74365200000011,106.0258789999998,114.35888699999941,113.20507799999996,113.84619099999964,97.69238299999961,7.56396500000028,82.69238299999961,-851.025635,29.615234000000783
356,-43.33325200000036,-508.71801800000003,39.35888699999941,6.025878999999804,104.10253900000043,103.3334960000002,116.2822270000006,115.64111300000059,114.61523400000078,103.7177729999994,12.948730000000069,84.48730499999965,-838.205078,33.46142599999985
357,-41.41015600000037,-506.02563499999997,36.53857400000015,2.8203130000001693,111.0258789999998,100.89746099999957,116.41015599999992,116.0258789999998,112.82031300000017,106.41015599999992,15.512695000000349,83.9741210000002,-829.102539,34.74365200000011
358,-42.17944299999999,-503.076904,35.38476599999922,3.5898440000000846,114.23095699999976,100.0,115.89746099999957,114.61523400000078,110.38476599999922,103.84619099999964,15.512695000000349,81.79492200000004,-823.076904,34.102539000000434
359,-42.69238299999961,-497.3076170000004,37.30761700000039,8.717772999999397,115.12841800000024,100.76904300000024,115.76904300000024,113.20507799999996,110.38476599999922,99.35888699999941,14.743652000000111,80.0,-816.5385739999997,33.333496000000196
360,-40.64111300000013,-488.71801800000003,41.53857400000015,16.794922000000042,115.12841800000024,102.56396500000028,116.6665039999998,113.84619099999964,113.7177729999994,98.0771479999994,15.128418000000238,80.51269500000035,-807.3076170000004,33.589844000000085
361,-36.41015600000037,-479.8718259999996,45.76904300000024,25.641113000000587,114.10253900000043,103.7177729999994,117.69238299999961,116.15380900000036,118.20507799999996,101.9228520000006,17.69238299999961,83.0771479999994,-796.281982,35.0
362,-32.435790999999426,-474.35888699999987,48.20507799999996,32.94873000000007,110.51269500000035,103.7177729999994,117.82031300000017,117.82031300000017,119.87158199999976,108.0771479999994,22.56396500000028,85.89746099999957,-787.3076170000004,37.05126999999993
363,-31.025634999999966,-474.8718259999996,49.35888699999941,36.79492200000004,104.10253900000043,103.20507799999996,116.9228520000006,117.05126999999993,117.69238299999961,112.43603499999972,28.589844000000085,87.17968800000017,-782.4357909999999,38.846190999999635
364,-32.051270000000386,-480.38452099999995,50.64111300000059,37.43603499999972,97.05126999999993,104.61523400000078,116.0258789999998,115.0,114.61523400000078,113.0771479999994,34.48730499999965,86.9228520000006,-780.6411129999997,40.12841800000024
365,-32.82055700000001,-485.64111300000013,52.56396500000028,36.53857400000015,93.84619099999964,108.3334960000002,116.41015599999992,114.48730499999965,115.12841800000024,112.17968800000017,38.333496000000196,86.2822270000006,-778.4614260000003,40.76904300000024
366,-31.28198199999997,-484.4870609999998,54.35888699999941,36.79492200000004,98.3334960000002,112.30761700000039,118.3334960000002,117.43603499999972,120.64111300000059,113.46142599999985,40.0,86.0258789999998,-772.6923829999996,41.025878999999804
367,-27.435790999999426,-475.2563479999999,55.12841800000024,40.51269500000035,109.74365200000011,113.84619099999964,120.76904300000024,122.94873000000007,128.9741210000002,118.7177729999994,40.51269500000035,86.0258789999998,-762.9487300000001,41.53857400000015
368,-24.8718259999996,-462.820557,55.12841800000024,47.43603499999972,122.82031300000017,112.05126999999993,121.6665039999998,128.20507799999996,135.2563479999999,125.89746099999957,40.76904300000024,86.0258789999998,-751.794922,42.17968800000017
369,-26.794922000000042,-454.102539,54.74365200000011,53.46142599999985,130.12841800000024,108.20507799999996,120.12841800000024,129.61523400000078,135.76904300000024,130.12841800000024,40.64111300000059,86.0258789999998,-743.205078,42.17968800000017
370,-33.58984399999963,-452.9487299999996,53.974121000000196,53.974121000000196,127.43603499999972,104.61523400000078,116.6665039999998,125.51269500000035,129.48730499999965,126.9228520000006,39.23095699999976,85.89746099999957,-739.3588869999999,40.897460999999566
371,-41.28198199999997,-457.5642090000006,52.69238299999961,48.333496000000196,116.41015599999992,102.56396500000028,113.20507799999996,117.94873000000007,119.10253900000043,115.64111300000059,36.53857400000015,85.25634799999989,-739.102539,38.46142599999985
372,-44.35888699999987,-462.3076170000004,51.9228520000006,40.76904300000024,103.7177729999994,102.43603499999972,111.79492200000004,111.2822270000006,110.0,101.53857400000015,34.74365200000011,84.23095699999976,-738.5898439999996,37.05126999999993
373,-39.74365200000011,-463.076904,52.82031300000017,37.56396500000028,96.41015599999992,103.3334960000002,112.69238299999961,109.35888699999941,106.9228520000006,92.56396500000028,36.025878999999804,84.10253900000043,-734.2307130000004,38.846190999999635
374,-30.0,-459.8718259999996,55.51269500000035,40.51269500000035,96.6665039999998,104.48730499999965,113.58984400000008,112.17968800000017,110.38476599999922,94.10253900000043,40.38476599999922,85.51269500000035,-726.1538090000004,44.48730499999965
375,-21.153809000000365,-456.923096,58.974121000000196,45.64111300000059,100.51269500000035,105.12841800000024,112.05126999999993,115.64111300000059,116.2822270000006,103.58984400000008,44.87158199999976,88.3334960000002,-717.179443,51.025878999999804
376,-17.948729999999614,-457.3076170000004,61.666503999999804,47.17968800000017,102.17968800000017,104.74365200000011,107.30761700000039,115.12841800000024,118.84619099999964,113.46142599999985,46.153809000000365,91.6665039999998,-711.1538090000004,54.48730499999965
377,-20.0,-459.4870609999998,63.20507799999996,43.46142599999985,98.84619099999964,104.35888699999941,101.53857400000015,110.0,115.51269500000035,116.53857400000015,43.46142599999985,94.23095699999976,-708.974365,53.46142599999985
378,-22.179442999999992,-458.46142599999985,64.61523400000078,38.0771479999994,93.3334960000002,105.76904300000024,98.58984400000008,103.58984400000008,108.84619099999964,111.9228520000006,38.846190999999635,96.0258789999998,-708.8461909999996,49.61523400000078
379,-20.0,-449.7436520000001,67.05126999999993,36.410155999999915,91.41015599999992,109.48730499999965,100.38476599999922,100.12841800000024,103.46142599999985,104.61523400000078,35.76904300000024,96.79492200000004,-707.3076170000004,46.025878999999804
380,-13.333252000000357,-435.1281740000004,69.74365200000011,41.2822270000006,96.79492200000004,113.9741210000002,106.0258789999998,101.79492200000004,102.69238299999961,100.76904300000024,36.153809000000365,97.30761700000039,-702.4357909999994,45.12841800000024
381,-6.41015600000037,-421.923096,71.6665039999998,50.38476599999922,107.30761700000039,116.41015599999992,112.56396500000028,107.05126999999993,106.2822270000006,102.94873000000007,39.102539000000434,98.20507799999996,-694.615479,46.79492200000004
382,-3.4614259999998467,-416.66674799999964,72.30761700000039,58.7177729999994,116.9228520000006,115.64111300000059,116.6665039999998,112.17968800000017,111.15380900000036,108.84619099999964,41.2822270000006,99.48730499999965,-686.923096,49.61523400000078
383,-5.0,-420.0,72.30761700000039,61.666503999999804,120.12841800000024,112.56396500000028,117.43603499999972,114.48730499999965,113.9741210000002,114.10253900000043,40.76904300000024,100.51269500000035,-681.794922,51.410155999999915
