,EEG.AF3,EEG.F7,EEG.F3,EEG.FC5,EEG.T7,EEG.P7,EEG.O1,EEG.O2,EEG.P8,EEG.T8,EEG.FC6,EEG.F4,EEG.F8,EEG.AF4
0,160.12841800000024,114.23095699999976,131.2822270000006,385.12841800000024,116.53857400000015,119.23095699999976,118.58984400000008,121.53857400000015,105.38476599999922,205.51269500000035,24.74365200000011,125.0,52.82031300000017,133.58984400000008
1,158.20507799999996,113.20507799999996,128.84619099999964,371.9228520000006,115.0,119.87158199999976,120.89746099999957,119.23095699999976,104.23095699999976,207.43603499999972,22.43603499999972,127.05126999999993,48.20507799999996,128.58984400000008
2,153.46142599999985,110.38476599999922,126.0258789999998,360.76904300000024,115.89746099999957,119.61523400000078,122.30761700000039,121.2822270000006,103.7177729999994,212.3076170000004,17.82031300000017,129.23095699999976,40.64111300000059,121.79492200000004
3,148.0771479999994,107.82031300000017,125.25634799999989,351.4101559999999,117.56396500000028,118.7177729999994,123.0771479999994,127.30761700000039,106.9228520000006,214.48730499999965,17.05126999999993,130.51269500000035,36.2822270000006,118.20507799999996
4,145.38476599999922,107.69238299999961,127.56396500000028,342.82031300000017,117.56396500000028,117.82031300000017,124.10253900000043,133.9741210000002,113.84619099999964,210.2563479999999,22.82031300000017,130.76904300000024,38.589844000000085,120.89746099999957
5,147.05126999999993,110.64111300000059,131.41015599999992,333.84619099999964,114.48730499999965,117.56396500000028,125.25634799999989,137.05126999999993,121.53857400000015,199.7436520000001,32.30761700000039,130.89746099999957,45.897460999999566,128.3334960000002
6,151.2822270000006,115.12841800000024,133.58984400000008,323.9741210000002,110.38476599999922,117.56396500000028,125.12841800000024,133.9741210000002,125.12841800000024,187.17968800000017,39.74365200000011,131.2822270000006,53.20507799999996,133.9741210000002
7,154.3588869999994,119.10253900000043,132.05126999999993,313.0771479999994,109.10253900000043,117.69238299999961,122.82031300000017,126.15380900000036,122.17968800000017,176.9228520000006,41.9228520000006,131.41015599999992,56.410155999999915,132.94873000000007
8,153.84619099999964,120.89746099999957,127.17968800000017,301.15380900000036,112.56396500000028,117.56396500000028,119.87158199999976,117.69238299999961,114.23095699999976,171.2822270000006,39.74365200000011,130.38476599999922,55.38476599999922,126.0258789999998
9,149.3588869999994,120.12841800000024,120.64111300000059,287.6923829999996,118.20507799999996,117.17968800000017,118.9741210000002,112.17968800000017,106.0258789999998,169.87158199999976,36.79492200000004,128.46142599999985,53.0771479999994,118.7177729999994
10,142.3076170000004,117.56396500000028,114.74365200000011,273.5898440000001,121.6665039999998,116.79492200000004,120.51269500000035,110.25634799999989,100.89746099999957,168.9741210000002,35.25634799999989,125.76904300000024,52.17968800000017,115.12841800000024
11,135.2563479999999,114.61523400000078,110.51269500000035,259.7436520000001,120.89746099999957,116.15380900000036,121.53857400000015,108.9741210000002,99.48730499999965,163.58984400000008,34.102539000000434,122.69238299999961,53.20507799999996,114.23095699999976
12,130.0,113.7177729999994,108.3334960000002,247.56396500000028,117.69238299999961,115.51269500000035,119.23095699999976,105.89746099999957,100.89746099999957,152.05126999999993,32.56396500000028,119.35888699999941,55.897460999999566,112.56396500000028
13,127.94873000000007,115.51269500000035,107.94873000000007,237.17968800000017,115.0,114.87158199999976,114.23095699999976,101.6665039999998,103.7177729999994,138.46142599999985,31.410155999999915,116.79492200000004,60.64111300000059,108.3334960000002
14,128.3334960000002,118.7177729999994,108.58984400000008,228.46142599999985,113.46142599999985,114.61523400000078,110.64111300000059,100.12841800000024,107.82031300000017,129.61523400000078,31.794922000000042,115.89746099999957,68.3334960000002,103.20507799999996
15,128.7177729999994,119.35888699999941,108.9741210000002,220.2563479999999,111.9228520000006,115.0,112.30761700000039,104.48730499999965,111.9228520000006,129.10253900000043,33.7177729999994,116.41015599999992,78.9741210000002,100.64111300000059
16,126.9228520000006,114.87158199999976,108.20507799999996,211.79492200000004,109.23095699999976,116.15380900000036,119.48730499999965,113.0771479999994,113.9741210000002,133.3334960000002,35.12841800000024,117.56396500000028,89.87158199999976,102.56396500000028
17,122.69238299999961,106.2822270000006,106.15380900000036,204.23095699999976,105.76904300000024,117.30761700000039,127.69238299999961,119.48730499999965,111.6665039999998,135.38476599999922,34.87158199999976,118.3334960000002,97.43603499999972,107.17968800000017
18,119.10253900000043,98.9741210000002,103.7177729999994,200.12841800000024,104.48730499999965,118.0771479999994,130.6411130000006,118.20507799999996,105.25634799999989,131.6665039999998,34.23095699999976,118.3334960000002,100.89746099999957,111.2822270000006
19,119.48730499999965,98.7177729999994,102.43603499999972,201.9228520000006,107.43603499999972,117.69238299999961,124.87158199999976,108.84619099999964,97.69238299999961,125.51269500000035,36.2822270000006,117.56396500000028,102.82031300000017,113.58984400000008
20,125.64111300000059,105.89746099999957,103.9741210000002,209.23095699999976,113.7177729999994,116.41015599999992,114.10253900000043,96.9228520000006,92.69238299999961,122.82031300000017,44.23095699999976,117.30761700000039,107.94873000000007,115.76904300000024
21,135.51269500000035,114.74365200000011,108.84619099999964,217.94873000000007,119.48730499999965,115.0,106.53857400000015,91.0258789999998,92.82031300000017,127.05126999999993,58.0771479999994,118.9741210000002,119.23095699999976,120.64111300000059
22,145.51269500000035,118.0771479999994,115.12841800000024,224.23095699999976,120.76904300000024,114.35888699999941,108.46142599999985,97.17968800000017,99.23095699999976,136.6665039999998,74.35888699999941,122.94873000000007,135.89746099999957,129.87158199999976
23,153.3334960000002,114.10253900000043,120.76904300000024,227.56396500000028,117.30761700000039,114.48730499999965,119.23095699999976,113.84619099999964,111.0258789999998,148.9741210000002,88.84619099999964,128.58984400000008,154.10253900000043,141.9228520000006
24,159.61523400000078,108.84619099999964,124.87158199999976,231.2822270000006,112.05126999999993,115.25634799999989,131.6665039999998,132.56396500000028,125.51269500000035,161.15380900000036,98.58984400000008,133.84619099999964,169.10253900000043,154.48730499999965
25,166.79492200000004,110.76904300000024,128.46142599999985,239.10253900000043,109.48730499999965,115.89746099999957,137.56396500000028,142.3076170000004,136.6665039999998,169.87158199999976,103.0771479999994,136.41015599999992,177.82031300000017,165.0
26,175.76904300000024,125.12841800000024,132.94873000000007,251.79492200000004,111.41015599999992,115.89746099999957,133.84619099999964,137.05126999999993,138.0771479999994,171.41015599999992,103.9741210000002,135.6411130000006,180.12841800000024,173.20507799999996
27,185.6411130000006,149.10253900000043,137.94873000000007,267.3076170000004,115.89746099999957,115.64111300000059,123.46142599999985,119.74365200000011,127.05126999999993,165.12841800000024,102.94873000000007,132.6923829999996,177.56396500000028,179.87158199999976
28,194.87158199999976,175.38476599999922,141.6665039999998,282.5639650000003,119.35888699999941,115.64111300000059,112.94873000000007,101.53857400000015,109.35888699999941,155.51269500000035,101.79492200000004,130.89746099999957,173.0771479999994,186.6665039999998
29,204.61523400000078,197.05126999999993,143.58984400000008,296.53857400000015,120.0,115.64111300000059,108.58984400000008,94.23095699999976,95.76904300000024,149.10253900000043,101.79492200000004,132.17968800000017,168.84619099999964,194.61523400000078
30,217.17968800000017,213.58984400000008,145.38476599999922,311.4101559999999,118.58984400000008,115.76904300000024,111.6665039999998,102.43603499999972,94.61523400000078,150.0,103.7177729999994,136.6665039999998,165.76904300000024,203.9741210000002
31,233.58984400000008,229.3588869999994,149.87158199999976,329.48730499999965,117.17968800000017,115.76904300000024,119.23095699999976,119.87158199999976,105.0,156.0258789999998,106.2822270000006,142.05126999999993,162.3076170000004,214.3588869999994
32,251.2822270000006,249.3588869999994,157.17968800000017,351.53857400000015,116.79492200000004,115.51269500000035,126.53857400000015,134.10253900000043,117.43603499999972,162.56396500000028,107.17968800000017,145.89746099999957,156.0258789999998,224.3588869999994
33,265.76904300000024,273.7177729999994,164.7436520000001,375.2563479999999,117.69238299999961,115.38476599999922,130.2563479999999,136.6665039999998,121.6665039999998,166.79492200000004,103.58984400000008,147.43603499999972,145.12841800000024,232.17968800000017
34,273.46142599999985,297.05126999999993,168.7177729999994,397.05126999999993,120.0,115.51269500000035,129.87158199999976,128.46142599999985,114.74365200000011,168.9741210000002,95.12841800000024,147.3076170000004,130.12841800000024,235.76904300000024
35,274.3588869999994,313.0771479999994,167.43603499999972,412.94873000000007,122.30761700000039,115.76904300000024,127.56396500000028,117.69238299999961,101.2822270000006,170.38476599999922,83.20507799999996,146.15380900000036,112.43603499999972,234.61523400000078
36,270.0,319.23095699999976,161.9228520000006,421.9228520000006,121.9228520000006,116.0258789999998,125.38476599999922,112.05126999999993,89.10253900000043,171.2822270000006,70.51269500000035,143.58984400000008,93.3334960000002,229.10253900000043
37,263.20507799999996,319.23095699999976,154.48730499999965,426.6665039999998,116.79492200000004,115.76904300000024,123.0771479999994,113.0771479999994,82.69238299999961,170.51269500000035,58.7177729999994,139.3588869999994,73.3334960000002,220.89746099999957
38,256.53857400000015,319.87158199999976,148.0771479999994,431.4101559999999,108.7177729999994,115.38476599999922,120.12841800000024,116.53857400000015,82.30761700000039,167.17968800000017,48.589844000000085,134.7436520000001,53.333496000000196,212.94873000000007
39,252.43603499999972,326.2822270000006,145.38476599999922,438.3334960000002,103.0771479999994,115.25634799999989,116.9228520000006,117.56396500000028,84.87158199999976,162.6923829999996,40.38476599999922,131.79492200000004,34.61523400000078,207.56396500000028
40,251.15380900000036,337.94873000000007,147.17968800000017,445.6411130000006,104.35888699999941,116.15380900000036,115.25634799999989,114.61523400000078,87.30761700000039,159.48730499999965,34.102539000000434,131.2822270000006,17.69238299999961,204.7436520000001
41,251.0258789999998,350.0,151.15380900000036,449.6152340000008,112.94873000000007,117.43603499999972,115.51269500000035,109.74365200000011,87.69238299999961,159.87158199999976,28.333496000000196,131.9228520000006,2.6923829999996087,202.94873000000007
42,249.23095699999976,356.9228520000006,152.94873000000007,447.6923829999996,124.23095699999976,118.3334960000002,116.15380900000036,105.51269500000035,85.64111300000059,163.20507799999996,21.153809000000365,131.53857400000015,-11.41015600000037,199.3588869999994
43,243.7177729999994,356.4101559999999,150.2563479999999,439.6152340000008,131.53857400000015,117.94873000000007,115.0,102.17968800000017,81.53857400000015,165.0,11.410155999999915,128.46142599999985,-25.512939000000188,192.82031300000017
44,234.3588869999994,350.6411130000006,144.3588869999994,427.3076170000004,130.51269500000035,116.2822270000006,112.17968800000017,98.46142599999985,76.15380900000036,159.61523400000078,0.512695000000349,122.82031300000017,-39.8718259999996,183.46142599999985
45,223.20507799999996,344.7436520000001,138.46142599999985,412.4360349999997,121.79492200000004,114.74365200000011,109.48730499999965,93.7177729999994,70.25634799999989,144.7436520000001,-7.564209000000574,117.05126999999993,-52.948729999999614,172.43603499999972
46,212.17968800000017,343.20507799999996,134.61523400000078,396.79492200000004,111.53857400000015,114.10253900000043,108.58984400000008,88.84619099999964,65.25634799999989,124.74365200000011,-9.743652000000111,113.84619099999964,-63.33325200000036,161.41015599999992
47,202.6923829999996,346.0258789999998,132.43603499999972,380.6411130000006,105.89746099999957,114.74365200000011,108.84619099999964,85.51269500000035,62.94873000000007,107.82031300000017,-5.769286999999622,114.61523400000078,-70.76928699999962,151.9228520000006
48,193.84619099999964,349.3588869999994,130.38476599999922,362.5639650000003,107.17968800000017,115.64111300000059,108.84619099999964,84.23095699999976,63.7177729999994,99.87158199999976,0.8974609999995664,117.43603499999972,-76.66674799999964,143.7177729999994
49,184.61523400000078,348.3334960000002,127.30761700000039,340.51269500000035,112.82031300000017,116.15380900000036,107.17968800000017,84.23095699999976,66.41015599999992,99.48730499999965,5.3847659999992175,119.10253900000043,-83.07690400000001,135.89746099999957
50,173.9741210000002,342.4360349999997,122.56396500000028,314.48730499999965,119.10253900000043,116.0258789999998,103.9741210000002,83.0771479999994,68.58984400000008,100.0,4.743652000000111,117.17968800000017,-90.51293900000019,128.20507799999996
51,162.43603499999972,335.2563479999999,117.56396500000028,286.79492200000004,124.23095699999976,115.51269500000035,100.51269500000035,79.74365200000011,68.58984400000008,96.41015599999992,-0.256347999999889,112.43603499999972,-97.69238299999961,121.2822270000006
52,151.41015599999992,330.76904300000024,113.58984400000008,260.12841800000024,128.7177729999994,115.25634799999989,98.20507799999996,74.48730499999965,67.05126999999993,87.94873000000007,-6.281981999999971,107.17968800000017,-102.43579099999943,115.76904300000024
53,141.6665039999998,328.9741210000002,111.0258789999998,235.0,132.17968800000017,115.38476599999922,98.0771479999994,68.3334960000002,64.48730499999965,75.51269500000035,-10.1281740000004,103.58984400000008,-104.23071300000038,110.64111300000059
54,132.56396500000028,326.53857400000015,108.20507799999996,208.84619099999964,132.6923829999996,115.64111300000059,99.35888699999941,62.43603499999972,61.153809000000365,59.102539000000434,-11.538574000000153,102.05126999999993,-103.84619099999964,103.20507799999996
55,122.82031300000017,320.3847659999992,103.46142599999985,178.84619099999964,128.46142599999985,115.12841800000024,100.0,57.30761700000039,57.17968800000017,38.589844000000085,-12.179442999999992,101.6665039999998,-102.05127000000039,92.05126999999993
56,111.79492200000004,310.6411130000006,96.2822270000006,144.23095699999976,120.38476599999922,113.9741210000002,98.84619099999964,53.589844000000085,54.102539000000434,17.69238299999961,-12.948729999999614,101.6665039999998,-98.71801800000003,79.10253900000043
57,101.6665039999998,300.51269500000035,88.9741210000002,108.0771479999994,112.94873000000007,113.3334960000002,96.79492200000004,52.30761700000039,54.48730499999965,2.9487300000000687,-11.923095999999987,101.41015599999992,-92.30761700000039,69.10253900000043
58,94.48730499999965,293.20507799999996,84.35888699999941,74.35888699999941,110.25634799999989,114.35888699999941,96.0258789999998,54.23095699999976,59.35888699999941,-1.4101559999999154,-6.923095999999987,100.76904300000024,-81.79492200000004,64.87158199999976
59,90.38476599999922,290.12841800000024,83.3334960000002,45.38476599999922,113.3334960000002,116.53857400000015,97.82031300000017,57.43603499999972,66.53857400000015,1.4101559999999154,1.4101559999999154,99.74365200000011,-68.71801800000003,65.12841800000024
60,86.6665039999998,289.10253900000043,83.46142599999985,20.769043000000238,118.84619099999964,117.82031300000017,101.2822270000006,58.974121000000196,71.9228520000006,3.5898440000000846,9.615234000000783,97.94873000000007,-56.92309599999999,64.87158199999976
61,81.0258789999998,286.53857400000015,81.15380900000036,-1.0258789999998044,122.94873000000007,116.41015599999992,104.10253900000043,57.56396500000028,72.82031300000017,-0.8974609999995664,14.743652000000111,96.41015599999992,-48.46142599999985,60.64111300000059
62,74.35888699999941,280.6411130000006,75.76904300000024,-21.153809000000365,123.20507799999996,112.82031300000017,105.12841800000024,54.87158199999976,70.25634799999989,-11.666747999999643,17.30761700000039,96.0258789999998,-41.66674799999964,53.333496000000196
63,68.9741210000002,271.9228520000006,69.74365200000011,-39.48706099999981,120.25634799999989,108.84619099999964,103.7177729999994,53.974121000000196,67.56396500000028,-22.564209000000574,21.025878999999804,97.05126999999993,-31.923095999999987,46.2822270000006
64,66.79492200000004,262.82031300000017,66.6665039999998,-55.64111300000013,116.41015599999992,106.6665039999998,100.51269500000035,55.897460999999566,67.17968800000017,-27.30761700000039,29.230956999999762,98.58984400000008,-16.41015600000037,42.82031300000017
65,66.6665039999998,254.7436520000001,68.20507799999996,-69.35888699999987,113.9741210000002,107.05126999999993,96.53857400000015,59.48730499999965,69.87158199999976,-23.58984399999963,42.17968800000017,99.35888699999941,4.358886999999413,44.23095699999976
66,67.43603499999972,247.56396500000028,73.20507799999996,-79.74365200000011,114.35888699999941,109.61523400000078,94.48730499999965,63.0771479999994,75.89746099999957,-13.333252000000357,57.69238299999961,99.48730499999965,27.17968800000017,49.102539000000434
67,68.9741210000002,239.87158199999976,78.9741210000002,-85.51293900000019,117.82031300000017,113.3334960000002,97.17968800000017,67.56396500000028,85.51269500000035,-0.8974609999995664,73.3334960000002,100.12841800000024,48.974121000000196,55.76904300000024
68,71.79492200000004,231.15380900000036,83.0771479999994,-86.15380900000036,123.46142599999985,116.15380900000036,104.61523400000078,74.87158199999976,97.30761700000039,10.256347999999889,87.69238299999961,102.69238299999961,67.82031300000017,62.69238299999961
69,75.89746099999957,221.79492200000004,84.61523400000078,-82.43579099999943,130.0,116.53857400000015,113.20507799999996,85.64111300000059,108.3334960000002,18.974121000000196,100.12841800000024,106.9228520000006,82.94873000000007,68.84619099999964
70,79.23095699999976,211.9228520000006,84.48730499999965,-77.82055700000001,135.2563479999999,114.23095699999976,117.43603499999972,96.79492200000004,115.12841800000024,26.538574000000153,110.38476599999922,110.89746099999957,93.9741210000002,73.3334960000002
71,79.23095699999976,201.41015599999992,84.10253900000043,-75.64111300000013,136.53857400000015,109.87158199999976,114.10253900000043,103.84619099999964,116.2822270000006,33.20507799999996,117.94873000000007,112.17968800000017,100.64111300000059,75.0
72,74.74365200000011,189.61523400000078,83.84619099999964,-78.58984399999963,132.43603499999972,105.12841800000024,104.61523400000078,103.7177729999994,112.82031300000017,37.30761700000039,121.9228520000006,109.74365200000011,104.10253900000043,72.94873000000007
73,67.30761700000039,176.41015599999992,83.20507799999996,-86.02563499999997,124.23095699999976,101.79492200000004,93.7177729999994,96.79492200000004,107.05126999999993,35.64111300000059,122.17968800000017,105.0,105.64111300000059,67.69238299999961
74,59.87158199999976,162.17968800000017,80.89746099999957,-94.8718259999996,115.51269500000035,101.2822270000006,86.2822270000006,86.9228520000006,101.2822270000006,27.30761700000039,119.61523400000078,100.76904300000024,106.79492200000004,61.53857400000015
75,55.12841800000024,147.3076170000004,77.05126999999993,-101.15380900000036,109.74365200000011,102.56396500000028,83.9741210000002,78.7177729999994,97.17968800000017,16.538574000000153,116.6665039999998,98.84619099999964,108.46142599999985,58.46142599999985
76,53.7177729999994,133.3334960000002,72.82031300000017,-102.94872999999961,107.94873000000007,103.84619099999964,85.0,75.38476599999922,95.12841800000024,10.384765999999217,115.89746099999957,99.48730499999965,111.41015599999992,60.12841800000024
77,55.0,122.82031300000017,69.61523400000078,-100.89746100000002,108.46142599999985,103.3334960000002,86.9228520000006,76.9228520000006,94.48730499999965,12.82031300000017,118.84619099999964,101.15380900000036,115.76904300000024,64.87158199999976
78,57.05126999999993,117.05126999999993,68.7177729999994,-97.69238299999961,110.25634799999989,101.53857400000015,88.20507799999996,80.38476599999922,95.12841800000024,22.43603499999972,124.10253900000043,102.43603499999972,121.15380900000036,68.46142599999985
79,58.974121000000196,114.87158199999976,69.48730499999965,-96.02563499999997,112.94873000000007,100.64111300000059,89.48730499999965,82.56396500000028,96.79492200000004,33.333496000000196,129.10253900000043,102.69238299999961,126.2822270000006,67.94873000000007
80,60.25634799999989,112.94873000000007,70.89746099999957,-96.66674799999964,116.6665039999998,102.17968800000017,92.05126999999993,82.82031300000017,99.23095699999976,39.87158199999976,132.17968800000017,102.17968800000017,130.2563479999999,64.10253900000043
81,61.153809000000365,108.0771479999994,71.53857400000015,-98.07690400000001,120.76904300000024,106.15380900000036,95.89746099999957,82.69238299999961,101.2822270000006,40.0,132.94873000000007,101.53857400000015,132.43603499999972,60.38476599999922
82,61.2822270000006,99.87158199999976,71.0258789999998,-98.71801800000003,123.7177729999994,110.12841800000024,100.0,84.23095699999976,101.9228520000006,35.64111300000059,131.9228520000006,101.2822270000006,134.23095699999976,59.35888699999941
83,60.25634799999989,90.64111300000059,70.25634799999989,-97.43579099999943,124.35888699999941,111.15380900000036,102.30761700000039,87.30761700000039,101.53857400000015,30.641113000000587,130.0,101.41015599999992,137.6923829999996,61.666503999999804
84,57.69238299999961,82.82031300000017,69.87158199999976,-95.64111300000013,122.69238299999961,108.20507799999996,102.17968800000017,91.0258789999998,101.0258789999998,29.74365200000011,128.3334960000002,101.2822270000006,143.3334960000002,65.64111300000059
85,54.48730499999965,78.3334960000002,69.87158199999976,-95.0,120.0,103.7177729999994,100.38476599999922,94.35888699999941,102.05126999999993,34.74365200000011,128.0771479999994,100.89746099999957,150.6411130000006,68.84619099999964
86,52.56396500000028,76.9228520000006,70.0,-96.28198199999997,118.46142599999985,101.53857400000015,98.9741210000002,97.94873000000007,105.89746099999957,44.23095699999976,130.51269500000035,100.64111300000059,157.94873000000007,70.0
87,52.69238299999961,76.2822270000006,69.87158199999976,-97.56420900000057,118.7177729999994,102.94873000000007,99.61523400000078,102.43603499999972,112.17968800000017,53.846190999999635,135.76904300000024,101.0258789999998,163.9741210000002,69.23095699999976
88,54.102539000000434,74.23095699999976,69.35888699999941,-96.79492200000004,119.74365200000011,106.0258789999998,102.69238299999961,107.56396500000028,118.0771479999994,58.589844000000085,142.43603499999972,101.79492200000004,167.82031300000017,68.0771479999994
89,55.12841800000024,69.48730499999965,68.9741210000002,-93.07690400000001,120.0,107.05126999999993,107.05126999999993,112.30761700000039,120.76904300000024,56.666503999999804,147.43603499999972,102.56396500000028,169.48730499999965,68.20507799999996
90,55.38476599999922,63.7177729999994,68.9741210000002,-87.17944299999999,119.10253900000043,104.61523400000078,110.76904300000024,116.0258789999998,120.0,51.025878999999804,149.10253900000043,102.69238299999961,170.12841800000024,69.61523400000078
91,56.153809000000365,59.61523400000078,69.35888699999941,-80.38452099999995,118.20507799999996,101.15380900000036,112.56396500000028,118.3334960000002,118.20507799999996,48.333496000000196,148.0771479999994,102.30761700000039,172.05126999999993,71.53857400000015
92,58.20507799999996,57.69238299999961,69.61523400000078,-74.10253899999998,117.82031300000017,100.38476599999922,111.9228520000006,119.10253900000043,118.3334960000002,53.46142599999985,146.79492200000004,101.6665039999998,175.2563479999999,72.43603499999972
93,60.76904300000024,55.64111300000059,69.35888699999941,-69.74365200000011,117.82031300000017,103.0771479999994,110.0,117.69238299999961,120.76904300000024,65.38476599999922,147.94873000000007,101.2822270000006,177.94873000000007,72.05126999999993
94,61.9228520000006,50.76904300000024,68.58984400000008,-67.69238299999961,116.9228520000006,107.05126999999993,107.69238299999961,114.61523400000078,123.7177729999994,78.0771479999994,151.9228520000006,101.79492200000004,178.3334960000002,71.2822270000006
95,62.30761700000039,43.7177729999994,68.20507799999996,-66.66674799999964,115.76904300000024,109.87158199999976,106.53857400000015,111.9228520000006,125.89746099999957,85.0,157.17968800000017,103.58984400000008,177.05126999999993,71.53857400000015
96,64.35888699999941,38.333496000000196,70.12841800000024,-63.58984399999963,116.15380900000036,110.76904300000024,108.0771479999994,112.17968800000017,127.43603499999972,85.64111300000059,162.05126999999993,107.05126999999993,176.6665039999998,74.10253900000043
97,70.12841800000024,38.7177729999994,75.51269500000035,-55.89746100000002,120.25634799999989,110.12841800000024,112.69238299999961,116.6665039999998,130.12841800000024,85.0,165.51269500000035,111.53857400000015,179.23095699999976,78.7177729999994
98,78.46142599999985,44.35888699999941,83.46142599999985,-44.10253899999998,127.82031300000017,109.87158199999976,119.74365200000011,124.35888699999941,135.38476599999922,88.7177729999994,167.82031300000017,115.76904300000024,184.7436520000001,85.0
99,85.25634799999989,50.38476599999922,91.2822270000006,-31.794922000000042,136.15380900000036,110.89746099999957,126.79492200000004,132.3076170000004,142.56396500000028,98.46142599999985,169.23095699999976,118.3334960000002,190.38476599999922,90.89746099999957
100,86.41015599999992,51.153809000000365,95.64111300000059,-23.846190999999635,140.51269500000035,112.94873000000007,131.0258789999998,137.56396500000028,148.7177729999994,110.64111300000059,168.9741210000002,118.46142599999985,192.17968800000017,93.46142599999985
101,81.41015599999992,44.102539000000434,94.74365200000011,-22.30761700000039,138.58984400000008,113.84619099999964,130.51269500000035,137.94873000000007,150.6411130000006,118.58984400000008,165.89746099999957,116.0258789999998,187.82031300000017,90.64111300000059
102,73.7177729999994,32.56396500000028,89.74365200000011,-25.38452099999995,131.53857400000015,112.43603499999972,125.0,133.46142599999985,146.6665039999998,117.69238299999961,160.38476599999922,112.56396500000028,178.3334960000002,83.58984400000008
103,68.58984400000008,22.69238299999961,84.23095699999976,-28.076904000000013,124.23095699999976,109.35888699999941,117.43603499999972,127.05126999999993,138.9741210000002,108.46142599999985,155.0,110.38476599999922,168.3334960000002,76.2822270000006
104,70.0,20.384765999999217,81.79492200000004,-26.153809000000365,122.30761700000039,107.17968800000017,111.79492200000004,123.7177729999994,131.79492200000004,96.79492200000004,153.20507799999996,111.15380900000036,162.94873000000007,73.84619099999964
105,77.56396500000028,27.43603499999972,84.35888699999941,-18.461425999999847,127.69238299999961,107.56396500000028,111.41015599999992,126.6665039999998,129.23095699999976,90.76904300000024,156.9228520000006,114.61523400000078,164.61523400000078,78.58984400000008
106,87.05126999999993,38.974121000000196,89.87158199999976,-7.948729999999614,135.89746099999957,109.87158199999976,116.41015599999992,133.84619099999964,131.9228520000006,94.35888699999941,163.7177729999994,118.20507799999996,171.15380900000036,88.20507799999996
107,92.56396500000028,46.9228520000006,94.23095699999976,-0.256347999999889,138.46142599999985,111.9228520000006,122.69238299999961,138.9741210000002,136.53857400000015,104.10253900000043,167.82031300000017,119.48730499999965,175.89746099999957,96.15380900000036
108,90.76904300000024,44.87158199999976,93.7177729999994,0.6411130000005869,130.12841800000024,111.9228520000006,124.87158199999976,136.79492200000004,137.94873000000007,111.6665039999998,163.9741210000002,117.30761700000039,172.6923829999996,96.6665039999998
109,83.20507799999996,32.94873000000007,88.58984400000008,-4.358886999999868,113.7177729999994,110.25634799999989,120.89746099999957,127.30761700000039,134.3588869999994,112.43603499999972,152.43603499999972,112.82031300000017,161.15380900000036,88.9741210000002
110,76.0258789999998,18.333496000000196,82.82031300000017,-9.230713000000378,99.87158199999976,108.84619099999964,114.10253900000043,116.79492200000004,128.3334960000002,108.20507799999996,140.2563479999999,108.9741210000002,148.3334960000002,78.84619099999964
111,74.87158199999976,9.487304999999651,81.2822270000006,-6.923095999999987,98.0771479999994,109.74365200000011,110.51269500000035,112.94873000000007,124.23095699999976,105.0,135.12841800000024,108.0771479999994,142.6923829999996,73.7177729999994
112,80.64111300000059,10.641113000000587,85.76904300000024,4.487304999999651,109.48730499999965,112.30761700000039,113.46142599999985,118.3334960000002,124.10253900000043,105.76904300000024,139.7436520000001,110.64111300000059,147.43603499999972,76.6665039999998
113,89.10253900000043,19.358886999999413,93.58984400000008,19.48730499999965,126.6665039999998,114.61523400000078,120.64111300000059,128.84619099999964,126.79492200000004,109.23095699999976,149.48730499999965,114.35888699999941,157.82031300000017,85.0
114,95.64111300000059,29.74365200000011,100.25634799999989,30.769043000000238,138.84619099999964,115.25634799999989,126.6665039999998,136.41015599999992,130.2563479999999,112.43603499999972,157.43603499999972,116.6665039999998,165.6411130000006,92.82031300000017
115,98.46142599999985,36.410155999999915,103.3334960000002,34.61523400000078,139.61523400000078,114.35888699999941,128.0771479999994,136.41015599999992,133.3334960000002,113.9741210000002,159.3588869999994,116.79492200000004,166.15380900000036,96.0258789999998
116,98.3334960000002,36.666503999999804,103.20507799999996,33.0771479999994,130.76904300000024,113.3334960000002,125.12841800000024,129.10253900000043,135.2563479999999,114.35888699999941,156.15380900000036,115.51269500000035,160.0,94.48730499999965
117,96.53857400000015,31.153809000000365,100.76904300000024,30.0,119.23095699999976,112.56396500000028,120.12841800000024,119.61523400000078,134.61523400000078,113.7177729999994,151.2822270000006,114.10253900000043,151.6665039999998,90.76904300000024
118,94.61523400000078,22.94873000000007,97.56396500000028,28.333496000000196,112.05126999999993,112.30761700000039,115.25634799999989,112.56396500000028,130.12841800000024,111.15380900000036,147.43603499999972,113.0771479999994,145.38476599999922,87.82031300000017
119,94.23095699999976,17.05126999999993,95.0,29.102539000000434,111.6665039999998,112.43603499999972,112.82031300000017,109.87158199999976,122.82031300000017,106.79492200000004,145.6411130000006,112.82031300000017,142.82031300000017,86.6665039999998
120,96.53857400000015,17.43603499999972,95.12841800000024,33.589844000000085,115.51269500000035,113.0771479999994,114.23095699999976,111.15380900000036,116.41015599999992,102.69238299999961,146.15380900000036,113.58984400000008,143.0771479999994,87.82031300000017
121,101.6665039999998,23.846190999999635,98.9741210000002,42.17968800000017,119.87158199999976,114.48730499999965,119.74365200000011,114.87158199999976,115.0,102.05126999999993,148.7177729999994,115.64111300000059,144.10253900000043,91.2822270000006
122,107.82031300000017,32.43603499999972,105.25634799999989,53.46142599999985,122.94873000000007,116.2822270000006,127.05126999999993,119.10253900000043,119.61523400000078,105.89746099999957,152.17968800000017,117.94873000000007,144.87158199999976,96.2822270000006
123,112.30761700000039,37.69238299999961,110.76904300000024,63.0771479999994,125.38476599999922,117.30761700000039,132.94873000000007,122.69238299999961,126.79492200000004,112.69238299999961,154.87158199999976,119.48730499999965,144.61523400000078,100.76904300000024
124,113.3334960000002,36.9228520000006,112.69238299999961,67.17968800000017,127.43603499999972,116.53857400000015,134.3588869999994,124.74365200000011,131.6665039999998,119.23095699999976,155.12841800000024,119.23095699999976,143.0771479999994,101.53857400000015
125,110.64111300000059,31.666503999999804,110.12841800000024,65.12841800000024,127.82031300000017,113.7177729999994,130.76904300000024,124.23095699999976,130.89746099999957,122.94873000000007,152.3076170000004,117.30761700000039,139.61523400000078,97.43603499999972
126,105.89746099999957,25.769043000000238,104.74365200000011,59.87158199999976,124.74365200000011,110.51269500000035,124.23095699999976,120.76904300000024,125.38476599999922,122.05126999999993,147.05126999999993,114.87158199999976,133.58984400000008,89.61523400000078
127,101.2822270000006,22.17968800000017,99.10253900000043,56.410155999999915,119.35888699999941,108.58984400000008,118.3334960000002,115.64111300000059,118.46142599999985,116.79492200000004,140.51269500000035,112.43603499999972,125.89746099999957,81.79492200000004
128,98.84619099999964,21.538574000000153,95.38476599999922,57.69238299999961,115.0,108.58984400000008,115.89746099999957,112.30761700000039,113.7177729999994,109.48730499999965,134.10253900000043,110.12841800000024,118.9741210000002,77.82031300000017
129,99.35888699999941,23.077147999999397,94.74365200000011,62.69238299999961,114.48730499999965,110.51269500000035,117.30761700000039,112.82031300000017,112.94873000000007,103.7177729999994,130.0,108.20507799999996,115.12841800000024,79.61523400000078
130,101.53857400000015,25.384765999999217,95.89746099999957,67.94873000000007,117.30761700000039,112.56396500000028,120.51269500000035,116.79492200000004,114.74365200000011,101.0258789999998,129.23095699999976,106.79492200000004,114.48730499999965,85.51269500000035
131,103.20507799999996,27.69238299999961,96.6665039999998,69.35888699999941,120.25634799999989,113.20507799999996,122.30761700000039,120.12841800000024,116.0258789999998,100.38476599999922,131.15380900000036,106.6665039999998,115.0,90.64111300000059
132,102.94873000000007,30.0,96.0258789999998,65.51269500000035,120.89746099999957,111.79492200000004,120.64111300000059,119.48730499999965,115.38476599999922,99.61523400000078,133.20507799999996,107.82031300000017,113.7177729999994,91.53857400000015
133,101.6665039999998,32.30761700000039,95.12841800000024,59.102539000000434,119.61523400000078,109.74365200000011,117.17968800000017,114.23095699999976,113.58984400000008,98.58984400000008,133.0771479999994,109.74365200000011,109.87158199999976,88.58984400000008
134,100.64111300000059,34.74365200000011,95.76904300000024,54.35888699999941,118.20507799999996,109.35888699999941,114.61523400000078,107.56396500000028,112.69238299999961,98.20507799999996,129.7436520000001,111.2822270000006,104.61523400000078,85.38476599999922
135,100.76904300000024,36.53857400000015,98.20507799999996,53.7177729999994,118.20507799999996,110.89746099999957,114.61523400000078,103.20507799999996,113.0771479999994,98.7177729999994,125.0,110.76904300000024,100.89746099999957,84.61523400000078
136,100.64111300000059,36.53857400000015,100.0,55.76904300000024,119.10253900000043,112.30761700000039,116.0258789999998,102.30761700000039,113.7177729999994,99.23095699999976,120.89746099999957,107.94873000000007,100.38476599999922,85.64111300000059
137,98.46142599999985,33.589844000000085,98.7177729999994,57.17968800000017,119.61523400000078,111.9228520000006,116.2822270000006,103.20507799999996,112.69238299999961,99.10253900000043,118.7177729999994,103.9741210000002,102.05126999999993,86.0258789999998
138,94.23095699999976,29.358886999999413,94.10253900000043,56.025878999999804,119.23095699999976,110.12841800000024,114.87158199999976,103.58984400000008,109.48730499999965,99.48730499999965,118.0771479999994,101.0258789999998,102.43603499999972,83.7177729999994
139,89.74365200000011,26.666503999999804,88.9741210000002,53.974121000000196,119.10253900000043,109.10253900000043,113.58984400000008,103.3334960000002,105.64111300000059,101.41015599999992,117.43603499999972,100.64111300000059,98.58984400000008,78.9741210000002
140,86.41015599999992,27.69238299999961,85.89746099999957,53.46142599999985,119.87158199999976,110.0,114.35888699999941,103.46142599999985,102.94873000000007,104.23095699999976,115.0,102.43603499999972,90.89746099999957,73.3334960000002
141,84.23095699999976,31.794922000000042,85.12841800000024,54.87158199999976,120.51269500000035,112.17968800000017,116.53857400000015,103.46142599999985,102.17968800000017,104.61523400000078,110.25634799999989,103.3334960000002,82.94873000000007,68.20507799999996
142,82.30761700000039,36.153809000000365,85.0,55.38476599999922,118.58984400000008,112.82031300000017,117.56396500000028,102.05126999999993,102.56396500000028,100.51269500000035,104.48730499999965,101.41015599999992,79.61523400000078,64.74365200000011
143,80.64111300000059,38.333496000000196,84.48730499999965,53.20507799999996,114.23095699999976,110.51269500000035,116.2822270000006,98.84619099999964,103.46142599999985,94.48730499999965,100.76904300000024,97.56396500000028,83.9741210000002,64.10253900000043
144,81.41015599999992,38.0771479999994,84.61523400000078,49.61523400000078,110.89746099999957,106.2822270000006,115.0,96.41015599999992,105.12841800000024,92.82031300000017,102.94873000000007,95.89746099999957,96.15380900000036,68.20507799999996
145,87.05126999999993,37.43603499999972,88.20507799999996,48.333496000000196,113.84619099999964,104.10253900000043,116.79492200000004,98.0771479999994,108.9741210000002,99.87158199999976,112.30761700000039,99.61523400000078,112.05126999999993,77.82031300000017
146,96.79492200000004,38.0771479999994,95.51269500000035,51.153809000000365,123.7177729999994,106.2822270000006,122.43603499999972,104.48730499999965,114.87158199999976,112.82031300000017,126.0258789999998,107.69238299999961,125.51269500000035,90.38476599999922
147,106.0258789999998,39.61523400000078,103.3334960000002,55.76904300000024,134.87158199999976,111.53857400000015,129.3588869999994,112.69238299999961,120.38476599999922,123.46142599999985,137.6923829999996,115.51269500000035,131.0258789999998,100.51269500000035
148,109.23095699999976,40.64111300000059,107.17968800000017,57.94873000000007,138.9741210000002,115.89746099999957,132.82031300000017,117.94873000000007,122.30761700000039,124.48730499999965,141.79492200000004,118.46142599999985,126.9228520000006,103.20507799999996
149,104.35888699999941,39.23095699999976,104.35888699999941,55.64111300000059,132.05126999999993,116.53857400000015,129.7436520000001,117.05126999999993,119.10253900000043,115.64111300000059,137.05126999999993,115.0,116.53857400000015,97.56396500000028
150,95.0,34.61523400000078,97.43603499999972,50.0,117.69238299999961,113.3334960000002,121.6665039999998,109.87158199999976,112.56396500000028,103.20507799999996,127.56396500000028,107.94873000000007,105.76904300000024,87.94873000000007
151,87.43603499999972,28.205077999999958,91.15380900000036,44.87158199999976,105.0,108.84619099999964,113.0771479999994,100.51269500000035,106.2822270000006,95.51269500000035,118.9741210000002,101.6665039999998,99.23095699999976,80.51269500000035
152,85.64111300000059,22.82031300000017,89.61523400000078,43.333496000000196,100.89746099999957,105.89746099999957,108.7177729999994,94.10253900000043,103.84619099999964,97.43603499999972,115.38476599999922,99.48730499999965,98.20507799999996,79.35888699999941
153,89.35888699999941,21.410155999999915,92.69238299999961,46.53857400000015,106.41015599999992,106.15380900000036,110.12841800000024,93.58984400000008,106.15380900000036,107.94873000000007,116.9228520000006,101.2822270000006,100.25634799999989,83.9741210000002
154,93.84619099999964,24.74365200000011,96.41015599999992,52.43603499999972,116.2822270000006,109.10253900000043,114.87158199999976,98.0771479999994,111.2822270000006,120.25634799999989,120.76904300000024,104.23095699999976,102.17968800000017,89.74365200000011
155,94.87158199999976,30.769043000000238,96.6665039999998,57.69238299999961,123.84619099999964,111.9228520000006,118.58984400000008,103.46142599999985,115.76904300000024,127.43603499999972,123.46142599999985,105.0,102.56396500000028,92.30761700000039
156,91.53857400000015,36.025878999999804,92.56396500000028,59.61523400000078,124.87158199999976,112.56396500000028,118.58984400000008,106.53857400000015,117.30761700000039,126.15380900000036,122.82031300000017,102.82031300000017,101.41015599999992,90.38476599999922
157,86.0258789999998,37.69238299999961,87.69238299999961,58.0771479999994,119.87158199999976,110.51269500000035,115.51269500000035,105.89746099999957,115.51269500000035,118.7177729999994,119.23095699999976,99.74365200000011,99.74365200000011,86.15380900000036
158,82.43603499999972,36.2822270000006,86.53857400000015,54.48730499999965,112.69238299999961,107.43603499999972,112.43603499999972,103.3334960000002,111.9228520000006,111.2822270000006,114.74365200000011,98.7177729999994,98.7177729999994,82.94873000000007
159,82.69238299999961,34.74365200000011,90.76904300000024,51.2822270000006,108.20507799999996,105.38476599999922,111.53857400000015,101.41015599999992,108.9741210000002,108.84619099999964,112.43603499999972,100.76904300000024,99.23095699999976,82.69238299999961
160,86.2822270000006,35.76904300000024,97.56396500000028,50.25634799999989,108.3334960000002,105.38476599999922,112.43603499999972,101.6665039999998,108.84619099999964,111.79492200000004,113.46142599999985,103.9741210000002,101.0258789999998,85.64111300000059
161,90.64111300000059,39.61523400000078,102.30761700000039,51.9228520000006,112.30761700000039,107.05126999999993,113.46142599999985,103.58984400000008,111.79492200000004,117.05126999999993,116.2822270000006,105.64111300000059,102.56396500000028,89.61523400000078
162,93.58984400000008,43.0771479999994,101.6665039999998,54.87158199999976,116.41015599999992,109.35888699999941,114.10253900000043,105.38476599999922,116.2822270000006,120.64111300000059,118.0771479999994,105.0,102.17968800000017,92.30761700000039
163,93.58984400000008,42.69238299999961,96.53857400000015,56.53857400000015,117.30761700000039,111.41015599999992,114.48730499999965,105.76904300000024,119.35888699999941,120.76904300000024,116.53857400000015,103.46142599999985,98.9741210000002,91.79492200000004
164,90.0,36.79492200000004,90.0,54.61523400000078,112.82031300000017,112.30761700000039,115.0,103.7177729999994,118.0771479999994,118.3334960000002,111.53857400000015,102.05126999999993,93.20507799999996,87.17968800000017
165,83.9741210000002,27.43603499999972,85.38476599999922,48.589844000000085,104.61523400000078,112.05126999999993,114.61523400000078,98.46142599999985,111.6665039999998,114.61523400000078,104.48730499999965,100.64111300000059,86.2822270000006,79.10253900000043
166,78.46142599999985,19.615234000000783,84.23095699999976,41.153809000000365,97.56396500000028,111.53857400000015,113.84619099999964,91.79492200000004,102.69238299999961,111.79492200000004,97.82031300000017,99.10253900000043,80.25634799999989,70.64111300000059
167,77.30761700000039,18.974121000000196,86.6665039999998,37.05126999999993,97.56396500000028,111.79492200000004,114.48730499999965,88.0771479999994,96.79492200000004,111.6665039999998,94.35888699999941,98.0771479999994,78.0771479999994,66.79492200000004
168,83.20507799999996,27.94873000000007,92.82031300000017,40.25634799999989,107.56396500000028,113.84619099999964,118.20507799999996,91.53857400000015,99.35888699999941,115.0,95.64111300000059,99.10253900000043,81.9228520000006,70.89746099999957
169,94.61523400000078,42.17968800000017,101.15380900000036,49.48730499999965,123.46142599999985,116.53857400000015,124.61523400000078,101.79492200000004,110.89746099999957,120.38476599999922,101.15380900000036,102.17968800000017,90.12841800000024,81.41015599999992
170,105.12841800000024,52.82031300000017,107.94873000000007,58.46142599999985,134.87158199999976,118.3334960000002,130.2563479999999,113.58984400000008,125.0,124.10253900000043,107.05126999999993,106.0258789999998,97.82031300000017,91.15380900000036
171,106.9228520000006,52.69238299999961,108.7177729999994,59.87158199999976,132.43603499999972,117.69238299999961,131.2822270000006,120.12841800000024,132.05126999999993,122.94873000000007,109.23095699999976,108.20507799999996,99.74365200000011,93.3334960000002
172,97.56396500000028,41.9228520000006,102.30761700000039,52.17968800000017,116.9228520000006,115.0,126.41015599999992,118.3334960000002,126.9228520000006,116.15380900000036,105.64111300000059,107.43603499999972,94.23095699999976,86.79492200000004
173,81.9228520000006,28.333496000000196,92.43603499999972,39.87158199999976,98.3334960000002,111.79492200000004,118.20507799999996,110.64111300000059,113.20507799999996,105.76904300000024,98.84619099999964,104.35888699999941,85.0,76.79492200000004
174,69.87158199999976,20.51269500000035,85.12841800000024,30.51269500000035,88.9741210000002,109.74365200000011,111.53857400000015,102.43603499999972,100.38476599999922,96.41015599999992,93.58984400000008,100.89746099999957,77.94873000000007,70.89746099999957
175,67.82031300000017,22.69238299999961,84.74365200000011,28.846190999999635,93.58984400000008,109.23095699999976,109.61523400000078,98.3334960000002,96.53857400000015,92.69238299999961,93.20507799999996,99.23095699999976,77.30761700000039,72.69238299999961
176,75.0,32.17968800000017,90.38476599999922,34.23095699999976,106.6665039999998,109.23095699999976,112.30761700000039,99.35888699999941,102.94873000000007,97.43603499999972,96.9228520000006,100.25634799999989,81.6665039999998,79.61523400000078
177,83.84619099999964,41.79492200000004,97.82031300000017,41.2822270000006,117.43603499999972,109.23095699999976,116.53857400000015,103.20507799999996,113.84619099999964,109.10253900000043,100.89746099999957,102.69238299999961,86.2822270000006,86.15380900000036
178,86.9228520000006,45.64111300000059,102.17968800000017,44.102539000000434,118.7177729999994,110.0,118.7177729999994,106.53857400000015,121.9228520000006,122.17968800000017,102.30761700000039,104.35888699999941,87.30761700000039,87.82031300000017
179,82.30761700000039,42.30761700000039,101.41015599999992,41.153809000000365,112.17968800000017,112.30761700000039,117.56396500000028,108.0771479999994,123.3334960000002,131.2822270000006,101.0258789999998,103.58984400000008,84.74365200000011,85.25634799999989
180,74.35888699999941,35.64111300000059,97.05126999999993,36.153809000000365,105.76904300000024,115.38476599999922,115.0,108.9741210000002,120.0,133.84619099999964,99.74365200000011,101.6665039999998,82.43603499999972,82.17968800000017
181,69.87158199999976,31.410155999999915,93.46142599999985,34.61523400000078,106.9228520000006,117.05126999999993,113.84619099999964,110.89746099999957,116.9228520000006,132.17968800000017,101.41015599999992,100.89746099999957,84.48730499999965,82.05126999999993
182,72.17968800000017,33.20507799999996,94.74365200000011,38.846190999999635,115.64111300000059,116.53857400000015,115.64111300000059,114.35888699999941,117.94873000000007,129.87158199999976,107.17968800000017,102.82031300000017,92.05126999999993,85.0
183,79.61523400000078,40.76904300000024,101.41015599999992,46.53857400000015,124.74365200000011,115.0,118.7177729999994,118.7177729999994,123.46142599999985,129.48730499999965,114.87158199999976,106.9228520000006,101.41015599999992,88.46142599999985
184,87.17968800000017,50.12841800000024,110.38476599999922,52.69238299999961,126.15380900000036,114.23095699999976,120.38476599999922,122.17968800000017,130.2563479999999,130.51269500000035,120.51269500000035,110.76904300000024,106.9228520000006,90.25634799999989
185,90.51269500000035,56.410155999999915,116.41015599999992,52.82031300000017,117.94873000000007,114.87158199999976,119.35888699999941,122.56396500000028,134.3588869999994,130.0,121.15380900000036,111.53857400000015,105.38476599999922,89.35888699999941
186,88.7177729999994,57.17968800000017,116.2822270000006,46.666503999999804,105.89746099999957,116.15380900000036,116.41015599999992,120.0,133.3334960000002,126.0258789999998,116.79492200000004,108.84619099999964,98.7177729999994,87.56396500000028
187,84.61523400000078,53.20507799999996,110.89746099999957,38.589844000000085,98.58984400000008,116.41015599999992,113.9741210000002,116.53857400000015,127.56396500000028,119.23095699999976,110.89746099999957,104.87158199999976,91.6665039999998,86.53857400000015
188,81.9228520000006,47.56396500000028,105.0,33.846190999999635,100.12841800000024,115.25634799999989,113.9741210000002,115.38476599999922,120.76904300000024,113.58984400000008,107.82031300000017,102.69238299999961,87.94873000000007,87.17968800000017
189,82.56396500000028,43.46142599999985,102.69238299999961,35.0,108.3334960000002,112.94873000000007,116.41015599999992,117.17968800000017,116.6665039999998,112.94873000000007,109.61523400000078,104.35888699999941,88.46142599999985,87.94873000000007
190,85.25634799999989,42.43603499999972,105.38476599999922,40.12841800000024,116.9228520000006,111.41015599999992,119.10253900000043,120.25634799999989,117.17968800000017,118.46142599999985,114.74365200000011,108.7177729999994,91.0258789999998,87.69238299999961
191,87.30761700000039,43.846190999999635,110.76904300000024,44.35888699999941,121.15380900000036,112.17968800000017,119.61523400000078,121.6665039999998,121.2822270000006,126.79492200000004,119.23095699999976,112.69238299999961,92.82031300000017,86.15380900000036
192,86.2822270000006,45.12841800000024,115.0,44.35888699999941,121.15380900000036,114.61523400000078,117.05126999999993,118.7177729999994,125.64111300000059,132.82031300000017,119.48730499999965,113.3334960000002,92.17968800000017,84.35888699999941
193,81.53857400000015,44.23095699999976,114.61523400000078,39.61523400000078,119.48730499999965,116.15380900000036,112.43603499999972,111.6665039999998,126.9228520000006,132.6923829999996,115.51269500000035,110.12841800000024,89.35888699999941,82.94873000000007
194,75.0,41.410155999999915,109.61523400000078,33.333496000000196,118.0771479999994,115.25634799999989,107.69238299999961,102.69238299999961,124.23095699999976,126.53857400000015,109.61523400000078,105.0,85.89746099999957,82.17968800000017
195,69.74365200000011,38.846190999999635,102.82031300000017,29.74365200000011,117.17968800000017,112.69238299999961,105.25634799999989,95.76904300000024,119.10253900000043,118.7177729999994,104.48730499999965,100.76904300000024,83.84619099999964,82.30761700000039
196,68.0771479999994,38.20507799999996,98.84619099999964,30.769043000000238,116.53857400000015,110.64111300000059,105.12841800000024,93.46142599999985,114.23095699999976,113.46142599999985,101.41015599999992,99.10253900000043,83.84619099999964,83.0771479999994
197,70.12841800000024,39.23095699999976,99.74365200000011,34.102539000000434,116.53857400000015,111.2822270000006,106.0258789999998,95.64111300000059,111.15380900000036,112.30761700000039,100.38476599999922,99.61523400000078,85.12841800000024,83.7177729999994
198,75.0,40.64111300000059,105.0,35.51269500000035,118.20507799999996,114.48730499999965,105.76904300000024,99.48730499999965,110.25634799999989,113.9741210000002,100.76904300000024,101.41015599999992,86.41015599999992,83.9741210000002
199,80.89746099999957,41.79492200000004,111.6665039999998,33.333496000000196,122.05126999999993,117.82031300000017,103.58984400000008,101.79492200000004,111.15380900000036,116.41015599999992,102.69238299999961,104.10253900000043,87.05126999999993,84.35888699999941
200,85.89746099999957,43.589844000000085,117.17968800000017,29.358886999999413,126.41015599999992,118.7177729999994,100.76904300000024,101.9228520000006,113.20507799999996,118.0771479999994,106.41015599999992,107.82031300000017,87.30761700000039,85.25634799999989
201,88.7177729999994,46.410155999999915,119.74365200000011,26.538574000000153,127.94873000000007,115.89746099999957,99.23095699999976,100.51269500000035,115.64111300000059,117.82031300000017,111.2822270000006,111.9228520000006,87.56396500000028,86.79492200000004
202,89.10253900000043,49.61523400000078,119.48730499999965,27.05126999999993,124.35888699999941,110.89746099999957,100.38476599999922,99.48730499999965,116.79492200000004,116.0258789999998,115.76904300000024,114.61523400000078,88.0771479999994,87.94873000000007
203,88.3334960000002,51.9228520000006,117.69238299999961,30.769043000000238,117.94873000000007,107.05126999999993,104.23095699999976,100.89746099999957,116.0258789999998,114.10253900000043,117.82031300000017,115.12841800000024,89.23095699999976,88.0771479999994
204,87.82031300000017,53.0771479999994,116.0258789999998,36.2822270000006,114.48730499999965,106.9228520000006,109.74365200000011,105.64111300000059,114.87158199999976,113.9741210000002,118.0771479999994,114.35888699999941,91.6665039999998,87.69238299999961
205,88.46142599999985,53.974121000000196,115.89746099999957,41.410155999999915,118.58984400000008,110.38476599999922,115.0,112.56396500000028,115.89746099999957,117.05126999999993,118.58984400000008,113.9741210000002,95.0,87.94873000000007
206,89.61523400000078,54.74365200000011,117.05126999999993,44.23095699999976,128.84619099999964,115.12841800000024,118.20507799999996,118.3334960000002,119.48730499999965,122.94873000000007,120.0,114.35888699999941,97.56396500000028,89.10253900000043
207,90.25634799999989,54.87158199999976,117.94873000000007,43.974121000000196,138.9741210000002,118.20507799999996,118.58984400000008,119.48730499999965,123.7177729999994,129.23095699999976,121.15380900000036,114.74365200000011,97.82031300000017,90.0
208,89.48730499999965,53.974121000000196,117.30761700000039,41.53857400000015,142.82031300000017,118.3334960000002,116.41015599999992,115.25634799999989,125.38476599999922,132.82031300000017,121.15380900000036,113.58984400000008,95.76904300000024,89.35888699999941
209,87.56396500000028,52.82031300000017,115.76904300000024,38.7177729999994,139.3588869999994,116.2822270000006,113.7177729999994,107.69238299999961,123.0771479999994,131.15380900000036,120.12841800000024,110.38476599999922,93.9741210000002,87.69238299999961
210,85.76904300000024,53.46142599999985,115.25634799999989,37.82031300000017,132.43603499999972,113.9741210000002,112.43603499999972,101.53857400000015,119.10253900000043,125.0,119.35888699999941,106.41015599999992,94.48730499999965,86.53857400000015
211,85.38476599999922,56.666503999999804,116.41015599999992,38.846190999999635,126.2822270000006,112.94873000000007,113.0771479999994,100.64111300000059,117.05126999999993,117.82031300000017,119.87158199999976,103.7177729999994,97.43603499999972,86.79492200000004
212,85.76904300000024,60.897460999999566,117.17968800000017,39.87158199999976,122.56396500000028,113.46142599999985,114.35888699999941,105.25634799999989,119.35888699999941,113.9741210000002,121.79492200000004,103.20507799999996,100.12841800000024,87.94873000000007
213,85.64111300000059,63.20507799999996,115.0,38.0771479999994,119.87158199999976,114.74365200000011,114.23095699999976,112.05126999999993,125.0,114.87158199999976,124.10253900000043,103.9741210000002,100.51269500000035,88.7177729999994
214,84.74365200000011,61.410155999999915,109.74365200000011,33.333496000000196,117.43603499999972,115.25634799999989,112.17968800000017,116.9228520000006,130.89746099999957,119.35888699999941,125.25634799999989,104.35888699999941,99.35888699999941,89.10253900000043
215,84.48730499999965,56.153809000000365,104.48730499999965,27.69238299999961,116.79492200000004,114.87158199999976,109.35888699999941,117.82031300000017,133.84619099999964,125.51269500000035,125.12841800000024,103.84619099999964,99.74365200000011,89.74365200000011
216,86.2822270000006,51.2822270000006,102.94873000000007,24.230956999999762,120.0,114.10253900000043,108.46142599999985,116.41015599999992,133.7177729999994,131.6665039999998,125.12841800000024,103.46142599999985,103.9741210000002,91.9228520000006
217,90.76904300000024,50.897460999999566,105.89746099999957,23.974121000000196,126.79492200000004,113.7177729999994,110.25634799999989,115.64111300000059,132.6923829999996,136.2822270000006,127.43603499999972,104.23095699999976,111.41015599999992,95.38476599999922
218,95.89746099999957,56.666503999999804,110.76904300000024,26.410155999999915,134.61523400000078,114.10253900000043,113.84619099999964,117.30761700000039,133.3334960000002,137.82031300000017,131.79492200000004,106.15380900000036,118.7177729999994,98.7177729999994
219,98.46142599999985,65.51269500000035,113.7177729999994,29.615234000000783,138.84619099999964,114.48730499999965,117.30761700000039,120.38476599999922,136.0258789999998,134.87158199999976,135.38476599999922,107.43603499999972,122.30761700000039,100.0
220,96.2822270000006,72.17968800000017,111.53857400000015,31.153809000000365,135.89746099999957,114.61523400000078,118.58984400000008,122.17968800000017,138.3334960000002,128.3334960000002,135.12841800000024,106.41015599999992,120.76904300000024,97.94873000000007
221,90.51269500000035,72.56396500000028,104.87158199999976,29.230956999999762,125.64111300000059,114.48730499999965,116.79492200000004,120.25634799999989,137.17968800000017,121.53857400000015,130.0,102.82031300000017,115.25634799999989,93.0771479999994
222,85.64111300000059,67.69238299999961,97.43603499999972,24.48730499999965,113.58984400000008,114.74365200000011,112.94873000000007,115.12841800000024,132.56396500000028,118.7177729999994,121.9228520000006,98.84619099999964,109.48730499999965,86.9228520000006
223,85.64111300000059,63.333496000000196,94.23095699999976,20.769043000000238,107.94873000000007,115.12841800000024,110.12841800000024,110.89746099999957,128.3334960000002,121.6665039999998,115.64111300000059,97.69238299999961,107.43603499999972,82.56396500000028
224,91.41015599999992,64.48730499999965,97.43603499999972,21.153809000000365,113.20507799999996,115.64111300000059,110.89746099999957,111.2822270000006,128.58984400000008,128.46142599999985,114.87158199999976,100.64111300000059,110.51269500000035,82.30761700000039
225,99.10253900000043,70.76904300000024,104.10253900000043,25.51269500000035,125.64111300000059,116.0258789999998,115.12841800000024,116.41015599999992,133.3334960000002,134.10253900000043,119.61523400000078,104.74365200000011,116.0258789999998,85.76904300000024
226,102.69238299999961,76.79492200000004,108.3334960000002,29.102539000000434,135.0,116.15380900000036,119.35888699999941,122.05126999999993,138.0771479999994,133.9741210000002,124.61523400000078,105.89746099999957,118.7177729999994,89.10253900000043
227,98.3334960000002,76.41015599999992,105.89746099999957,26.794922000000042,132.6923829999996,115.51269500000035,119.61523400000078,122.82031300000017,137.56396500000028,126.9228520000006,123.58984400000008,101.2822270000006,115.51269500000035,88.46142599999985
228,87.82031300000017,68.84619099999964,98.3334960000002,18.461425999999847,119.48730499999965,114.23095699999976,115.12841800000024,116.53857400000015,130.6411130000006,116.15380900000036,115.64111300000059,92.69238299999961,107.56396500000028,82.17968800000017
229,78.46142599999985,58.974121000000196,91.0258789999998,8.717772999999397,105.0,113.20507799999996,108.7177729999994,106.2822270000006,120.38476599999922,106.79492200000004,104.87158199999976,85.38476599999922,99.61523400000078,73.46142599999985
230,77.17968800000017,54.35888699999941,89.23095699999976,4.102539000000434,100.0,113.3334960000002,105.38476599999922,97.69238299999961,112.17968800000017,102.17968800000017,97.69238299999961,84.10253900000043,97.17968800000017,67.56396500000028
231,85.38476599999922,58.846190999999635,93.9741210000002,8.077147999999397,108.3334960000002,114.61523400000078,107.30761700000039,95.76904300000024,109.87158199999976,102.05126999999993,98.20507799999996,90.25634799999989,102.43603499999972,68.9741210000002
232,97.94873000000007,69.48730499999965,102.05126999999993,18.077147999999397,123.46142599999985,116.2822270000006,113.0771479999994,100.0,113.3334960000002,103.9741210000002,105.89746099999957,99.74365200000011,112.17968800000017,77.43603499999972
233,106.41015599999992,78.20507799999996,108.58984400000008,27.05126999999993,133.58984400000008,117.17968800000017,118.0771479999994,106.0258789999998,118.0771479999994,104.87158199999976,115.64111300000059,105.76904300000024,120.25634799999989,88.0771479999994
234,105.0,77.69238299999961,109.74365200000011,28.077147999999397,130.38476599999922,116.9228520000006,118.20507799999996,107.69238299999961,118.7177729999994,103.46142599999985,120.38476599999922,103.7177729999994,121.15380900000036,93.84619099999964
235,94.48730499999965,67.43603499999972,105.51269500000035,19.615234000000783,115.76904300000024,115.76904300000024,112.30761700000039,102.69238299999961,112.69238299999961,101.0258789999998,116.41015599999992,94.87158199999976,114.10253900000043,90.64111300000059
236,82.56396500000028,54.61523400000078,98.9741210000002,7.051269999999931,100.0,114.48730499999965,104.23095699999976,93.9741210000002,103.0771479999994,99.48730499999965,106.41015599999992,85.64111300000059,103.9741210000002,80.76904300000024
237,77.56396500000028,48.974121000000196,95.0,-0.8974609999995664,93.9741210000002,113.7177729999994,100.0,87.69238299999961,96.41015599999992,100.64111300000059,97.43603499999972,82.43603499999972,98.20507799999996,71.41015599999992
238,82.56396500000028,54.48730499999965,96.2822270000006,1.0258789999998044,100.51269500000035,114.10253900000043,103.20507799999996,87.82031300000017,97.56396500000028,104.61523400000078,95.38476599999922,86.9228520000006,101.15380900000036,69.48730499999965
239,93.3334960000002,66.41015599999992,101.9228520000006,11.025878999999804,112.69238299999961,115.38476599999922,112.17968800000017,94.35888699999941,106.41015599999992,109.74365200000011,100.76904300000024,95.38476599999922,111.0258789999998,76.15380900000036
240,101.9228520000006,75.51269500000035,107.17968800000017,21.538574000000153,120.51269500000035,116.79492200000004,120.51269500000035,102.82031300000017,117.17968800000017,112.56396500000028,109.10253900000043,101.53857400000015,121.15380900000036,86.0258789999998
241,102.94873000000007,75.12841800000024,108.3334960000002,25.25634799999989,117.94873000000007,117.17968800000017,121.9228520000006,108.0771479999994,123.3334960000002,110.0,115.0,101.0258789999998,125.64111300000059,90.76904300000024
242,96.41015599999992,65.89746099999957,104.87158199999976,20.25634799999989,107.30761700000039,116.53857400000015,115.12841800000024,107.05126999999993,121.15380900000036,101.9228520000006,115.25634799999989,94.61523400000078,122.69238299999961,86.6665039999998
243,86.41015599999992,54.35888699999941,99.48730499999965,10.897460999999566,95.89746099999957,115.12841800000024,104.74365200000011,101.0258789999998,112.69238299999961,91.6665039999998,110.64111300000059,86.53857400000015,114.74365200000011,76.41015599999992
244,78.58984400000008,47.30761700000039,94.74365200000011,3.3334960000001956,89.61523400000078,113.84619099999964,97.17968800000017,93.58984400000008,102.69238299999961,84.48730499999965,104.23095699999976,81.79492200000004,106.15380900000036,67.05126999999993
245,76.53857400000015,47.56396500000028,92.30761700000039,1.6665039999998044,90.12841800000024,113.0771479999994,96.2822270000006,88.7177729999994,96.15380900000036,83.58984400000008,99.10253900000043,82.05126999999993,99.87158199999976,64.23095699999976
246,80.38476599999922,53.589844000000085,92.94873000000007,6.025878999999804,95.89746099999957,113.20507799999996,101.6665039999998,89.10253900000043,96.0258789999998,88.46142599999985,97.56396500000028,86.53857400000015,97.69238299999961,68.58984400000008
247,87.56396500000028,61.79492200000004,96.6665039999998,13.974121000000196,104.35888699999941,114.23095699999976,109.74365200000011,95.12841800000024,102.30761700000039,96.6665039999998,100.12841800000024,92.69238299999961,100.64111300000059,77.17968800000017
248,95.38476599999922,69.35888699999941,102.82031300000017,21.794922000000042,112.82031300000017,115.89746099999957,116.6665039999998,105.51269500000035,112.94873000000007,106.0258789999998,106.15380900000036,98.0771479999994,107.69238299999961,85.51269500000035
249,101.41015599999992,74.87158199999976,108.46142599999985,26.794922000000042,118.7177729999994,117.56396500000028,120.25634799999989,116.6665039999998,124.48730499999965,115.25634799999989,113.20507799999996,101.53857400000015,115.89746099999957,90.64111300000059
250,104.87158199999976,78.20507799999996,111.0258789999998,27.94873000000007,120.51269500000035,118.3334960000002,121.2822270000006,124.10253900000043,133.58984400000008,123.0771479999994,118.0771479999994,102.94873000000007,121.53857400000015,91.53857400000015
251,105.76904300000024,78.9741210000002,109.87158199999976,26.282227000000603,119.61523400000078,118.0771479999994,121.2822270000006,125.12841800000024,137.56396500000028,127.05126999999993,118.46142599999985,102.94873000000007,121.9228520000006,89.74365200000011
252,104.48730499999965,76.15380900000036,106.15380900000036,23.205077999999958,118.0771479999994,116.9228520000006,120.76904300000024,120.12841800000024,134.87158199999976,124.61523400000078,114.61523400000078,101.6665039999998,117.30761700000039,87.30761700000039
253,101.0258789999998,69.61523400000078,102.05126999999993,19.358886999999413,116.2822270000006,115.76904300000024,118.7177729999994,111.53857400000015,125.51269500000035,114.10253900000043,108.58984400000008,99.61523400000078,110.0,85.12841800000024
254,95.89746099999957,61.153809000000365,99.35888699999941,14.743652000000111,112.69238299999961,114.87158199999976,113.9741210000002,102.82031300000017,112.43603499999972,98.3334960000002,102.17968800000017,97.43603499999972,103.20507799999996,82.69238299999961
255,90.76904300000024,54.48730499999965,98.58984400000008,10.128418000000238,106.79492200000004,114.10253900000043,107.56396500000028,97.17968800000017,101.2822270000006,83.7177729999994,96.41015599999992,96.0258789999998,99.10253900000043,80.25634799999989
256,88.20507799999996,53.46142599999985,99.74365200000011,7.43603499999972,101.41015599999992,113.7177729999994,102.82031300000017,96.2822270000006,97.30761700000039,77.05126999999993,93.20507799999996,96.41015599999992,98.84619099999964,79.10253900000043
257,89.35888699999941,58.46142599999985,101.79492200000004,8.205077999999958,100.51269500000035,113.7177729999994,102.43603499999972,100.0,102.30761700000039,80.89746099999957,93.7177729999994,98.3334960000002,102.05126999999993,80.51269500000035
258,92.94873000000007,66.2822270000006,103.46142599999985,11.282227000000603,105.38476599999922,114.23095699999976,106.2822270000006,106.15380900000036,112.43603499999972,92.17968800000017,97.94873000000007,100.89746099999957,107.05126999999993,83.9741210000002
259,96.0258789999998,71.9228520000006,103.58984400000008,13.846190999999635,112.43603499999972,114.74365200000011,110.51269500000035,111.41015599999992,120.76904300000024,104.61523400000078,102.94873000000007,102.69238299999961,110.89746099999957,86.6665039999998
260,96.0258789999998,72.30761700000039,102.05126999999993,13.717772999999397,116.15380900000036,114.61523400000078,111.9228520000006,113.3334960000002,121.53857400000015,111.9228520000006,105.12841800000024,103.20507799999996,111.6665039999998,86.15380900000036
261,92.17968800000017,68.7177729999994,100.0,11.025878999999804,113.46142599999985,114.35888699999941,110.25634799999989,110.76904300000024,114.61523400000078,111.9228520000006,102.69238299999961,101.9228520000006,109.23095699999976,82.43603499999972
262,86.9228520000006,64.74365200000011,99.35888699999941,8.333496000000196,106.53857400000015,114.35888699999941,108.3334960000002,105.25634799999989,105.64111300000059,106.15380900000036,96.9228520000006,99.87158199999976,104.87158199999976,78.20507799999996
263,84.10253900000043,63.846190999999635,100.38476599999922,7.820313000000169,100.89746099999957,115.38476599999922,108.7177729999994,100.25634799999989,100.64111300000059,98.84619099999964,91.15380900000036,98.20507799999996,100.51269500000035,76.79492200000004
264,86.41015599999992,66.2822270000006,101.79492200000004,9.487304999999651,101.0258789999998,116.9228520000006,111.53857400000015,98.58984400000008,102.43603499999972,94.35888699999941,89.35888699999941,97.94873000000007,97.56396500000028,79.23095699999976
265,92.69238299999961,70.51269500000035,102.30761700000039,11.153809000000365,107.17968800000017,117.94873000000007,114.48730499999965,101.2822270000006,108.9741210000002,95.89746099999957,92.56396500000028,98.84619099999964,97.05126999999993,83.58984400000008
266,99.10253900000043,74.10253900000043,102.30761700000039,11.025878999999804,115.25634799999989,117.94873000000007,115.51269500000035,106.41015599999992,116.41015599999992,103.46142599999985,98.84619099999964,100.0,99.48730499999965,87.05126999999993
267,102.30761700000039,76.15380900000036,102.94873000000007,9.230956999999762,120.64111300000059,117.17968800000017,114.61523400000078,111.15380900000036,121.0258789999998,113.46142599999985,104.61523400000078,100.64111300000059,104.87158199999976,87.94873000000007
268,101.2822270000006,76.9228520000006,104.74365200000011,7.307617000000391,121.15380900000036,116.53857400000015,113.20507799999996,113.3334960000002,121.6665039999998,120.0,107.30761700000039,101.0258789999998,111.53857400000015,86.53857400000015
269,98.7177729999994,77.94873000000007,107.69238299999961,6.153809000000365,117.82031300000017,116.41015599999992,112.82031300000017,111.9228520000006,118.84619099999964,118.0771479999994,107.05126999999993,101.2822270000006,116.6665039999998,84.61523400000078
270,97.56396500000028,78.9741210000002,110.12841800000024,5.3847659999992175,112.69238299999961,116.9228520000006,113.0771479999994,107.82031300000017,113.84619099999964,106.9228520000006,105.51269500000035,101.41015599999992,117.82031300000017,83.58984400000008
271,98.9741210000002,78.84619099999964,110.51269500000035,3.077147999999397,106.79492200000004,117.43603499999972,112.82031300000017,102.94873000000007,107.82031300000017,91.41015599999992,103.84619099999964,100.89746099999957,114.23095699999976,83.84619099999964
272,101.15380900000036,76.2822270000006,108.0771479999994,-1.7949220000000423,100.0,117.30761700000039,111.0258789999998,99.48730499999965,102.56396500000028,79.23095699999976,101.9228520000006,99.61523400000078,107.17968800000017,84.74365200000011
273,101.53857400000015,72.17968800000017,104.10253900000043,-7.435790999999426,92.82031300000017,116.2822270000006,107.94873000000007,98.3334960000002,99.48730499999965,77.43603499999972,98.9741210000002,98.0771479999994,100.25634799999989,85.12841800000024
274,99.87158199999976,68.58984400000008,101.0258789999998,-10.512939000000188,88.20507799999996,114.74365200000011,104.61523400000078,98.9741210000002,99.61523400000078,86.2822270000006,95.12841800000024,97.56396500000028,96.79492200000004,84.48730499999965
275,97.43603499999972,67.94873000000007,101.0258789999998,-8.71801800000003,90.51269500000035,113.58984400000008,102.43603499999972,100.25634799999989,101.79492200000004,99.35888699999941,91.6665039999998,98.0771479999994,97.56396500000028,83.7177729999994
276,96.79492200000004,71.15380900000036,104.35888699999941,-2.6923829999996087,100.25634799999989,113.7177729999994,102.43603499999972,100.76904300000024,103.7177729999994,107.69238299999961,90.76904300000024,99.48730499999965,100.25634799999989,83.9741210000002
277,99.48730499999965,77.43603499999972,110.0,4.230956999999762,113.84619099999964,114.48730499999965,104.61523400000078,100.51269500000035,103.7177729999994,106.9228520000006,94.10253900000043,100.89746099999957,101.41015599999992,85.38476599999922
278,105.25634799999989,83.9741210000002,115.64111300000059,8.846190999999635,124.35888699999941,115.0,108.46142599999985,100.89746099999957,102.56396500000028,99.61523400000078,100.76904300000024,102.30761700000039,99.61523400000078,87.69238299999961
279,111.6665039999998,87.94873000000007,119.35888699999941,9.871581999999762,127.17968800000017,114.74365200000011,112.82031300000017,102.82031300000017,102.43603499999972,92.56396500000028,107.82031300000017,103.46142599999985,95.64111300000059,89.61523400000078
280,115.12841800000024,86.9228520000006,119.35888699999941,8.077147999999397,121.79492200000004,114.35888699999941,115.25634799999989,105.12841800000024,104.23095699999976,91.0258789999998,111.6665039999998,103.84619099999964,91.2822270000006,89.87158199999976
281,112.43603499999972,79.87158199999976,115.12841800000024,4.102539000000434,110.76904300000024,114.23095699999976,113.9741210000002,105.0,105.89746099999957,94.10253900000043,109.87158199999976,102.05126999999993,87.82031300000017,86.6665039999998
282,103.0771479999994,68.20507799999996,106.53857400000015,-2.4360349999997197,97.94873000000007,114.35888699999941,108.46142599999985,100.0,103.7177729999994,96.41015599999992,102.05126999999993,97.30761700000039,84.10253900000043,78.84619099999964
283,90.12841800000024,55.12841800000024,95.76904300000024,-11.41015600000037,87.30761700000039,114.48730499999965,100.51269500000035,90.89746099999957,96.53857400000015,93.3334960000002,90.89746099999957,90.64111300000059,79.48730499999965,68.84619099999964
284,79.61523400000078,46.025878999999804,86.9228520000006,-20.25634799999989,82.30761700000039,114.35888699999941,94.23095699999976,82.17968800000017,87.56396500000028,85.89746099999957,81.0258789999998,85.64111300000059,75.12841800000024,61.53857400000015
285,77.30761700000039,46.025878999999804,85.0,-23.974365000000034,84.87158199999976,114.23095699999976,92.94873000000007,79.23095699999976,83.3334960000002,79.74365200000011,77.56396500000028,85.25634799999989,73.7177729999994,61.666503999999804
286,85.12841800000024,55.897460999999566,92.30761700000039,-19.487060999999812,93.0771479999994,114.35888699999941,97.56396500000028,84.87158199999976,87.82031300000017,80.12841800000024,83.0771479999994,90.25634799999989,77.94873000000007,69.61523400000078
287,99.61523400000078,71.15380900000036,105.12841800000024,-8.846190999999635,102.43603499999972,114.87158199999976,105.76904300000024,96.9228520000006,99.35888699999941,87.17968800000017,95.64111300000059,98.20507799999996,86.9228520000006,80.64111300000059
288,113.0771479999994,84.23095699999976,116.2822270000006,1.4101559999999154,108.9741210000002,115.0,112.69238299999961,109.48730499999965,110.89746099999957,96.2822270000006,108.9741210000002,104.61523400000078,96.9228520000006,88.46142599999985
289,119.74365200000011,89.23095699999976,120.25634799999989,5.0,111.53857400000015,114.35888699999941,115.0,116.41015599999992,116.9228520000006,102.30761700000039,116.9228520000006,106.6665039999998,103.58984400000008,90.0
290,118.7177729999994,86.41015599999992,116.6665039999998,1.153809000000365,112.17968800000017,113.58984400000008,112.56396500000028,115.64111300000059,116.79492200000004,104.48730499999965,117.05126999999993,104.48730499999965,104.87158199999976,86.9228520000006
291,114.35888699999941,80.0,110.25634799999989,-6.281981999999971,112.94873000000007,113.7177729999994,108.0771479999994,109.87158199999976,115.0,105.51269500000035,111.6665039999998,101.15380900000036,102.56396500000028,83.58984400000008
292,111.53857400000015,75.38476599999922,105.89746099999957,-11.538574000000153,113.9741210000002,114.74365200000011,104.87158199999976,103.84619099999964,115.51269500000035,108.20507799999996,105.51269500000035,99.35888699999941,100.38476599999922,83.9741210000002
293,111.6665039999998,73.9741210000002,105.25634799999989,-12.564209000000574,112.43603499999972,116.2822270000006,105.0,100.89746099999957,118.0771479999994,111.9228520000006,101.9228520000006,99.87158199999976,100.12841800000024,87.56396500000028
294,112.69238299999961,73.84619099999964,106.53857400000015,-11.025634999999966,106.9228520000006,117.17968800000017,107.94873000000007,101.15380900000036,118.58984400000008,113.0771479999994,100.89746099999957,101.2822270000006,100.89746099999957,90.64111300000059
295,112.30761700000039,72.69238299999961,107.05126999999993,-9.61547900000005,99.48730499999965,117.05126999999993,111.79492200000004,102.43603499999972,114.10253900000043,109.48730499999965,100.76904300000024,101.53857400000015,100.51269500000035,89.87158199999976
296,109.61523400000078,70.51269500000035,105.76904300000024,-9.358886999999868,95.64111300000059,116.41015599999992,114.35888699999941,103.20507799999996,106.53857400000015,103.46142599999985,100.12841800000024,100.38476599999922,98.7177729999994,84.87158199999976
297,106.15380900000036,69.35888699999941,103.84619099999964,-8.461425999999847,99.23095699999976,115.64111300000059,114.48730499999965,103.20507799999996,101.41015599999992,99.87158199999976,99.23095699999976,98.58984400000008,97.17968800000017,80.0
298,104.48730499999965,70.89746099999957,103.58984400000008,-5.641113000000132,108.3334960000002,115.64111300000059,113.46142599999985,103.0771479999994,102.30761700000039,100.89746099999957,98.58984400000008,97.69238299999961,97.17968800000017,79.74365200000011
299,106.41015599999992,75.25634799999989,106.41015599999992,-0.769043000000238,117.17968800000017,116.53857400000015,113.0771479999994,102.82031300000017,108.7177729999994,104.87158199999976,98.3334960000002,97.94873000000007,98.84619099999964,85.76904300000024
300,111.9228520000006,81.53857400000015,110.76904300000024,4.6152340000007825,120.25634799999989,117.69238299999961,114.35888699999941,102.69238299999961,115.64111300000059,108.20507799999996,98.46142599999985,99.23095699999976,101.41015599999992,95.51269500000035
301,118.3334960000002,87.56396500000028,113.58984400000008,8.974121000000196,116.0258789999998,118.0771479999994,116.0258789999998,102.82031300000017,117.82031300000017,108.20507799999996,99.35888699999941,100.64111300000059,103.9741210000002,103.20507799999996
302,121.41015599999992,91.0258789999998,112.30761700000039,11.666503999999804,107.56396500000028,117.43603499999972,115.38476599999922,103.20507799999996,113.58984400000008,104.74365200000011,101.0258789999998,101.79492200000004,105.12841800000024,105.0
303,118.7177729999994,91.0258789999998,107.05126999999993,13.333496000000196,100.12841800000024,116.2822270000006,111.2822270000006,103.7177729999994,106.2822270000006,100.25634799999989,102.56396500000028,102.43603499999972,104.48730499999965,100.76904300000024
304,111.9228520000006,89.23095699999976,101.6665039999998,15.256347999999889,98.84619099999964,115.64111300000059,105.76904300000024,105.51269500000035,102.30761700000039,98.58984400000008,104.74365200000011,102.69238299999961,103.3334960000002,95.89746099999957
305,106.15380900000036,89.48730499999965,100.89746099999957,18.461425999999847,104.61523400000078,116.15380900000036,103.20507799999996,109.74365200000011,106.6665039999998,103.0771479999994,108.7177729999994,103.0771479999994,104.74365200000011,96.6665039999998
306,106.79492200000004,93.84619099999964,106.6665039999998,22.30761700000039,114.48730499999965,117.30761700000039,106.41015599999992,115.76904300000024,118.84619099999964,113.9741210000002,115.64111300000059,104.10253900000043,110.89746099999957,105.38476599999922
307,114.10253900000043,101.0258789999998,116.15380900000036,25.769043000000238,122.94873000000007,118.3334960000002,114.23095699999976,121.15380900000036,132.3076170000004,127.17968800000017,123.3334960000002,105.25634799999989,119.87158199999976,117.17968800000017
308,123.20507799999996,106.53857400000015,123.20507799999996,28.077147999999397,126.15380900000036,118.58984400000008,121.53857400000015,122.56396500000028,138.7177729999994,136.9228520000006,128.0771479999994,105.64111300000059,126.6665039999998,123.84619099999964
309,127.56396500000028,106.41015599999992,123.0771479999994,28.461425999999847,123.20507799999996,117.69238299999961,123.3334960000002,118.58984400000008,133.84619099999964,138.0771479999994,126.41015599999992,104.35888699999941,126.53857400000015,119.48730499999965
310,123.7177729999994,100.38476599999922,115.64111300000059,26.794922000000042,116.6665039999998,116.41015599999992,117.94873000000007,110.76904300000024,120.38476599999922,129.7436520000001,118.46142599999985,101.9228520000006,119.10253900000043,105.64111300000059
311,113.9741210000002,91.9228520000006,105.0,23.205077999999958,109.48730499999965,115.25634799999989,108.84619099999964,102.56396500000028,106.0258789999998,116.0258789999998,107.69238299999961,99.35888699999941,109.10253900000043,90.25634799999989
312,104.23095699999976,86.15380900000036,97.30761700000039,18.461425999999847,104.35888699999941,114.74365200000011,101.2822270000006,97.69238299999961,97.69238299999961,102.56396500000028,99.23095699999976,97.82031300000017,102.43603499999972,82.56396500000028
313,100.64111300000059,86.2822270000006,96.9228520000006,14.358886999999413,102.94873000000007,114.61523400000078,98.84619099999964,97.82031300000017,98.58984400000008,94.23095699999976,97.17968800000017,98.0771479999994,102.30761700000039,85.89746099999957
314,105.51269500000035,92.30761700000039,103.84619099999964,13.333496000000196,105.64111300000059,114.87158199999976,102.05126999999993,101.2822270000006,106.15380900000036,92.30761700000039,100.76904300000024,100.12841800000024,107.17968800000017,96.79492200000004
315,114.48730499999965,100.51269500000035,113.46142599999985,16.025878999999804,111.15380900000036,115.12841800000024,107.43603499999972,105.0,115.25634799999989,94.87158199999976,105.76904300000024,102.82031300000017,112.30761700000039,107.30761700000039
316,120.51269500000035,105.64111300000059,119.74365200000011,20.128418000000238,115.64111300000059,115.38476599999922,111.0258789999998,105.89746099999957,119.87158199999976,98.84619099999964,107.69238299999961,104.48730499999965,112.94873000000007,110.89746099999957
317,119.61523400000078,104.61523400000078,119.48730499999965,22.56396500000028,116.41015599999992,115.64111300000059,111.53857400000015,104.23095699999976,118.46142599999985,102.17968800000017,105.38476599999922,103.84619099999964,107.94873000000007,106.9228520000006
318,113.9741210000002,99.74365200000011,115.38476599999922,21.922852000000603,114.48730499999965,115.64111300000059,110.89746099999957,102.56396500000028,114.23095699999976,105.12841800000024,101.41015599999992,101.79492200000004,101.53857400000015,100.25634799999989
319,110.25634799999989,97.05126999999993,112.82031300000017,20.769043000000238,114.48730499999965,115.89746099999957,111.9228520000006,104.35888699999941,113.0771479999994,108.3334960000002,100.38476599999922,100.64111300000059,98.9741210000002,97.69238299999961
320,112.43603499999972,100.12841800000024,114.48730499999965,22.17968800000017,118.9741210000002,116.41015599999992,115.38476599999922,109.48730499999965,117.43603499999972,111.6665039999998,104.10253900000043,102.05126999999993,102.43603499999972,101.53857400000015
321,117.94873000000007,106.0258789999998,118.20507799999996,25.897460999999566,124.61523400000078,116.79492200000004,118.7177729999994,113.46142599999985,123.46142599999985,113.46142599999985,109.74365200000011,104.61523400000078,107.43603499999972,107.43603499999972
322,120.12841800000024,107.94873000000007,118.9741210000002,27.94873000000007,124.23095699999976,116.9228520000006,118.20507799999996,111.0258789999998,124.35888699999941,111.9228520000006,111.53857400000015,105.51269500000035,107.05126999999993,107.94873000000007
323,114.35888699999941,101.9228520000006,113.7177729999994,24.74365200000011,114.35888699999941,116.6665039999998,112.17968800000017,101.53857400000015,117.17968800000017,107.56396500000028,106.79492200000004,102.43603499999972,98.84619099999964,99.74365200000011
324,103.20507799999996,90.76904300000024,103.84619099999964,16.922852000000603,99.35888699999941,116.15380900000036,103.20507799999996,89.87158199999976,105.38476599999922,102.30761700000039,98.20507799999996,96.79492200000004,87.30761700000039,87.30761700000039
325,93.58984400000008,81.41015599999992,95.51269500000035,8.974121000000196,88.9741210000002,115.89746099999957,96.0258789999998,83.20507799999996,96.15380900000036,98.20507799999996,91.9228520000006,92.05126999999993,80.76904300000024,78.7177729999994
326,92.05126999999993,80.0,94.48730499999965,6.153809000000365,90.64111300000059,116.2822270000006,95.12841800000024,85.25634799999989,95.0,96.53857400000015,92.30761700000039,91.15380900000036,83.9741210000002,79.48730499999965
327,99.48730499999965,87.30761700000039,101.79492200000004,10.641113000000587,104.48730499999965,117.05126999999993,101.15380900000036,93.84619099999964,102.43603499999972,97.94873000000007,98.7177729999994,95.12841800000024,95.12841800000024,88.7177729999994
328,111.2822270000006,98.3334960000002,112.56396500000028,19.615234000000783,122.43603499999972,117.94873000000007,111.0258789999998,103.58984400000008,114.23095699999976,102.30761700000039,106.6665039999998,101.53857400000015,107.43603499999972,100.51269500000035
329,120.76904300000024,106.2822270000006,119.74365200000011,27.43603499999972,133.3334960000002,118.3334960000002,118.7177729999994,108.84619099999964,123.7177729999994,108.0771479999994,111.15380900000036,106.53857400000015,113.9741210000002,108.0771479999994
330,123.7177729999994,106.79492200000004,119.35888699999941,29.74365200000011,130.76904300000024,117.69238299999961,120.0,107.30761700000039,125.38476599999922,112.43603499999972,109.74365200000011,107.05126999999993,112.05126999999993,107.56396500000028
331,120.0,101.2822270000006,113.0771479999994,26.282227000000603,118.0771479999994,116.2822270000006,115.51269500000035,102.05126999999993,118.9741210000002,112.30761700000039,104.35888699999941,103.3334960000002,104.61523400000078,101.0258789999998
332,113.9741210000002,95.38476599999922,106.15380900000036,20.769043000000238,105.89746099999957,115.12841800000024,109.74365200000011,98.46142599999985,109.74365200000011,107.56396500000028,99.23095699999976,99.23095699999976,97.69238299999961,94.48730499999965
333,111.15380900000036,94.48730499999965,103.46142599999985,18.205077999999958,103.58984400000008,114.87158199999976,107.43603499999972,99.74365200000011,104.74365200000011,101.2822270000006,97.94873000000007,97.82031300000017,95.89746099999957,92.94873000000007
334,113.3334960000002,98.9741210000002,105.12841800000024,20.51269500000035,110.89746099999957,115.76904300000024,108.9741210000002,104.23095699999976,107.05126999999993,97.56396500000028,99.61523400000078,98.9741210000002,99.23095699999976,96.41015599999992
335,118.20507799999996,103.84619099999964,108.20507799999996,24.74365200000011,119.23095699999976,117.17968800000017,111.53857400000015,106.6665039999998,112.94873000000007,98.46142599999985,100.12841800000024,99.23095699999976,103.84619099999964,100.38476599999922
336,121.15380900000036,103.58984400000008,108.7177729999994,26.025878999999804,119.35888699999941,117.94873000000007,111.9228520000006,103.3334960000002,115.89746099999957,102.05126999999993,96.41015599999992,96.41015599999992,104.48730499999965,100.0
337,119.61523400000078,96.9228520000006,105.89746099999957,22.43603499999972,110.25634799999989,117.56396500000028,109.23095699999976,95.25634799999989,112.05126999999993,103.46142599999985,89.48730499999965,91.79492200000004,99.61523400000078,94.48730499999965
338,114.87158199999976,88.7177729999994,101.41015599999992,16.282227000000603,98.84619099999964,116.41015599999992,105.0,87.17968800000017,102.56396500000028,98.7177729999994,83.46142599999985,88.3334960000002,91.6665039999998,87.43603499999972
339,110.0,84.10253900000043,97.56396500000028,11.922852000000603,93.46142599999985,115.0,100.51269500000035,84.23095699999976,92.17968800000017,87.82031300000017,81.79492200000004,88.0771479999994,84.74365200000011,82.82031300000017
340,108.0771479999994,85.76904300000024,95.51269500000035,11.538574000000153,96.79492200000004,114.35888699999941,97.69238299999961,87.30761700000039,86.15380900000036,76.41015599999992,85.51269500000035,90.12841800000024,81.9228520000006,82.30761700000039
341,109.87158199999976,91.9228520000006,96.15380900000036,15.0,105.76904300000024,114.87158199999976,97.94873000000007,93.84619099999964,87.69238299999961,71.79492200000004,92.69238299999961,92.43603499999972,83.9741210000002,85.38476599999922
342,114.74365200000011,99.35888699999941,99.74365200000011,20.51269500000035,115.25634799999989,116.53857400000015,101.6665039999998,100.0,96.2822270000006,77.94873000000007,100.12841800000024,93.84619099999964,90.38476599999922,90.76904300000024
343,120.38476599999922,104.87158199999976,105.0,26.794922000000042,121.41015599999992,117.94873000000007,107.69238299999961,103.7177729999994,107.43603499999972,92.43603499999972,104.48730499999965,94.61523400000078,98.58984400000008,97.05126999999993
344,124.35888699999941,106.2822270000006,108.9741210000002,31.025878999999804,122.05126999999993,118.0771479999994,112.82031300000017,104.10253900000043,115.76904300000024,107.43603499999972,104.23095699999976,95.38476599999922,104.48730499999965,102.05126999999993
345,124.74365200000011,103.0771479999994,108.7177729999994,30.384765999999217,116.79492200000004,116.41015599999992,114.35888699999941,102.17968800000017,116.79492200000004,114.48730499999965,99.48730499999965,96.2822270000006,104.74365200000011,102.94873000000007
346,121.0258789999998,97.43603499999972,103.7177729999994,23.846190999999635,108.58984400000008,114.10253900000043,111.53857400000015,99.74365200000011,110.51269500000035,110.12841800000024,92.30761700000039,96.15380900000036,99.10253900000043,99.10253900000043
347,115.38476599999922,92.69238299999961,96.2822270000006,14.615234000000783,102.05126999999993,111.9228520000006,107.05126999999993,98.20507799999996,101.41015599999992,98.20507799999996,86.15380900000036,94.48730499999965,90.64111300000059,92.69238299999961
348,111.0258789999998,92.05126999999993,90.89746099999957,8.077147999999397,101.41015599999992,111.0258789999998,103.46142599999985,97.94873000000007,94.61523400000078,87.17968800000017,83.58984400000008,91.15380900000036,83.7177729999994,87.30761700000039
349,109.35888699999941,95.0,90.76904300000024,7.56396500000028,106.15380900000036,111.9228520000006,102.17968800000017,98.3334960000002,93.3334960000002,84.10253900000043,84.48730499999965,87.43603499999972,81.0258789999998,84.48730499999965
350,110.12841800000024,98.58984400000008,95.38476599999922,12.051269999999931,112.05126999999993,113.9741210000002,102.30761700000039,98.20507799999996,97.05126999999993,89.48730499999965,86.6665039999998,85.51269500000035,81.79492200000004,83.0771479999994
351,111.41015599999992,99.48730499999965,100.76904300000024,17.69238299999961,113.7177729999994,115.12841800000024,102.56396500000028,96.9228520000006,103.58984400000008,98.20507799999996,87.30761700000039,86.9228520000006,83.9741210000002,81.6665039999998
352,111.9228520000006,96.15380900000036,102.94873000000007,20.51269500000035,109.48730499999965,113.9741210000002,102.05126999999993,95.51269500000035,110.12841800000024,103.84619099999964,86.0258789999998,91.15380900000036,86.15380900000036,80.64111300000059
353,112.17968800000017,90.64111300000059,100.89746099999957,19.615234000000783,102.69238299999961,111.53857400000015,101.15380900000036,95.38476599999922,114.35888699999941,103.84619099999964,85.25634799999989,96.0258789999998,88.46142599999985,81.79492200000004
354,113.3334960000002,86.6665039999998,97.82031300000017,17.43603499999972,98.7177729999994,110.38476599999922,101.41015599999992,98.0771479999994,116.0258789999998,100.89746099999957,87.17968800000017,99.35888699999941,92.43603499999972,86.6665039999998
355,115.89746099999957,87.43603499999972,97.69238299999961,17.30761700000039,100.76904300000024,111.6665039999998,104.23095699999976,103.58984400000008,116.15380900000036,100.0,92.17968800000017,100.25634799999989,97.94873000000007,93.9741210000002
356,119.10253900000043,91.9228520000006,101.0258789999998,20.0,106.41015599999992,114.23095699999976,107.94873000000007,110.0,116.6665039999998,103.9741210000002,98.20507799999996,99.61523400000078,102.43603499999972,100.0
357,120.38476599999922,95.64111300000059,104.10253900000043,22.56396500000028,110.25634799999989,115.38476599999922,109.23095699999976,113.20507799999996,117.56396500000028,109.74365200000011,101.0258789999998,98.84619099999964,102.30761700000039,100.76904300000024
358,117.94873000000007,93.84619099999964,103.58984400000008,20.641113000000587,108.20507799999996,113.9741210000002,106.0258789999998,110.38476599999922,117.17968800000017,111.2822270000006,98.3334960000002,98.20507799999996,96.2822270000006,95.25634799999989
359,113.46142599999985,86.41015599999992,100.0,12.948730000000069,102.05126999999993,110.51269500000035,100.51269500000035,103.46142599999985,114.48730499999965,106.2822270000006,92.30761700000039,97.82031300000017,87.17968800000017,87.43603499999972
360,110.89746099999957,79.35888699999941,97.69238299999961,4.102539000000434,97.56396500000028,107.82031300000017,98.20507799999996,98.3334960000002,111.53857400000015,99.10253900000043,88.58984400000008,98.7177729999994,81.15380900000036,83.58984400000008
361,113.46142599999985,79.61523400000078,100.64111300000059,1.4101559999999154,99.74365200000011,108.0771479999994,102.05126999999993,99.74365200000011,111.53857400000015,97.05126999999993,92.05126999999993,101.15380900000036,83.20507799999996,87.94873000000007
362,120.76904300000024,88.9741210000002,107.94873000000007,7.56396500000028,107.05126999999993,111.41015599999992,109.61523400000078,107.43603499999972,115.64111300000059,102.94873000000007,101.53857400000015,103.84619099999964,92.94873000000007,98.58984400000008
363,127.82031300000017,100.64111300000059,113.9741210000002,17.56396500000028,112.56396500000028,115.38476599999922,114.23095699999976,115.38476599999922,120.76904300000024,113.20507799999996,110.12841800000024,104.61523400000078,104.10253900000043,108.0771479999994
364,129.87158199999976,106.2822270000006,113.9741210000002,24.102539000000434,110.51269500000035,117.17968800000017,111.79492200000004,116.9228520000006,122.82031300000017,120.64111300000059,112.17968800000017,102.69238299999961,109.10253900000043,110.25634799999989
365,126.2822270000006,103.46142599999985,108.46142599999985,23.589844000000085,101.9228520000006,116.53857400000015,105.0,111.53857400000015,120.38476599999922,121.41015599999992,107.82031300000017,99.23095699999976,105.76904300000024,105.51269500000035
366,121.6665039999998,97.30761700000039,103.20507799999996,19.871581999999762,94.74365200000011,114.74365200000011,100.25634799999989,104.74365200000011,116.41015599999992,117.69238299999961,102.94873000000007,96.9228520000006,98.84619099999964,100.25634799999989
367,120.76904300000024,95.51269500000035,103.7177729999994,19.615234000000783,96.2822270000006,113.58984400000008,102.17968800000017,103.0771479999994,115.89746099999957,114.35888699999941,102.94873000000007,97.69238299999961,96.15380900000036,100.76904300000024
368,125.25634799999989,100.76904300000024,110.51269500000035,25.51269500000035,107.05126999999993,114.23095699999976,109.35888699999941,108.7177729999994,120.76904300000024,114.48730499999965,108.58984400000008,101.53857400000015,101.0258789999998,107.30761700000039
369,131.41015599999992,109.61523400000078,119.10253900000043,34.74365200000011,120.51269500000035,116.15380900000036,115.76904300000024,117.30761700000039,128.3334960000002,116.9228520000006,115.64111300000059,106.0258789999998,110.51269500000035,114.23095699999976
370,134.3588869999994,116.0258789999998,123.58984400000008,40.76904300000024,128.46142599999985,117.69238299999961,116.2822270000006,121.9228520000006,132.6923829999996,117.82031300000017,118.58984400000008,107.94873000000007,117.17968800000017,115.12841800000024
371,130.76904300000024,115.76904300000024,120.76904300000024,38.846190999999635,126.79492200000004,117.56396500000028,110.89746099999957,118.58984400000008,130.0,114.61523400000078,114.74365200000011,105.64111300000059,115.25634799999989,108.84619099999964
372,122.05126999999993,108.7177729999994,111.6665039999998,29.230956999999762,117.69238299999961,116.2822270000006,103.20507799999996,108.58984400000008,120.89746099999957,107.94873000000007,105.51269500000035,99.74365200000011,104.61523400000078,99.10253900000043
373,112.56396500000028,98.7177729999994,100.64111300000059,17.05126999999993,106.6665039999998,115.12841800000024,97.30761700000039,97.43603499999972,110.25634799999989,100.51269500000035,95.76904300000024,93.0771479999994,91.41015599999992,91.53857400000015
374,107.56396500000028,91.15380900000036,93.7177729999994,8.846190999999635,99.87158199999976,114.61523400000078,95.12841800000024,90.89746099999957,103.3334960000002,95.89746099999957,90.89746099999957,89.35888699999941,84.23095699999976,90.51269500000035
375,110.51269500000035,90.51269500000035,94.35888699999941,8.589844000000085,100.64111300000059,114.23095699999976,96.2822270000006,91.15380900000036,103.0771479999994,96.53857400000015,94.35888699999941,90.76904300000024,88.9741210000002,96.41015599999992
376,120.25634799999989,96.53857400000015,101.6665039999998,15.256347999999889,108.0771479999994,113.9741210000002,99.74365200000011,96.9228520000006,108.84619099999964,103.20507799999996,105.38476599999922,96.9228520000006,104.35888699999941,106.9228520000006
377,132.05126999999993,105.64111300000059,111.2822270000006,24.230956999999762,118.20507799999996,114.35888699999941,104.35888699999941,103.58984400000008,116.9228520000006,112.94873000000007,118.20507799999996,103.84619099999964,122.94873000000007,117.30761700000039
378,140.2563479999999,113.0771479999994,117.94873000000007,30.25634799999989,124.74365200000011,115.64111300000059,108.9741210000002,107.43603499999972,122.56396500000028,120.76904300000024,125.25634799999989,107.05126999999993,134.7436520000001,123.0771479999994
379,141.15380900000036,115.51269500000035,118.3334960000002,30.897460999999566,123.0771479999994,116.79492200000004,111.41015599999992,106.6665039999998,122.43603499999972,121.53857400000015,121.6665039999998,104.23095699999976,134.3588869999994,122.05126999999993
380,134.7436520000001,111.6665039999998,111.9228520000006,26.666503999999804,113.46142599999985,116.53857400000015,109.61523400000078,101.41015599999992,115.89746099999957,114.35888699999941,108.9741210000002,96.9228520000006,123.0771479999994,114.74365200000011
381,124.35888699999941,103.3334960000002,102.17968800000017,20.897460999999566,101.53857400000015,115.0,103.84619099999964,94.35888699999941,106.53857400000015,102.94873000000007,94.10253900000043,89.23095699999976,107.82031300000017,104.87158199999976
382,115.38476599999922,95.38476599999922,94.48730499999965,17.17968800000017,95.38476599999922,113.7177729999994,98.20507799999996,89.35888699999941,99.35888699999941,94.35888699999941,85.0,85.64111300000059,96.79492200000004,97.17968800000017
383,112.56396500000028,92.94873000000007,93.0771479999994,17.94873000000007,99.10253900000043,114.10253900000043,97.17968800000017,90.25634799999989,99.10253900000043,93.84619099999964,85.89746099999957,88.46142599999985,94.61523400000078,95.0
