,EEG.AF3,EEG.F7,EEG.F3,EEG.FC5,EEG.T7,EEG.P7,EEG.O1,EEG.O2,EEG.P8,EEG.T8,EEG.FC6,EEG.F4,EEG.F8,EEG.AF4
0,112.30761700000039,86.79492200000004,141.9228520000006,-118.46142599999985,104.10253900000043,113.9741210000002,108.9741210000002,92.43603499999972,86.2822270000006,93.58984400000008,78.7177729999994,113.46142599999985,108.84619099999964,123.58984400000008
1,115.12841800000024,86.41015599999992,141.9228520000006,-115.64111300000013,113.58984400000008,116.6665039999998,110.0,89.10253900000043,83.20507799999996,93.84619099999964,78.46142599999985,111.9228520000006,107.94873000000007,122.82031300000017
2,123.20507799999996,92.30761700000039,146.41015599999992,-104.35888699999987,121.6665039999998,118.0771479999994,115.64111300000059,97.82031300000017,91.2822270000006,105.64111300000059,85.51269500000035,114.87158199999976,114.10253900000043,128.0771479999994
3,131.6665039999998,100.12841800000024,153.0771479999994,-88.97436500000003,122.82031300000017,117.56396500000028,123.0771479999994,114.23095699999976,106.9228520000006,122.82031300000017,96.9228520000006,120.38476599999922,126.2822270000006,136.9228520000006
4,135.89746099999957,104.48730499999965,158.0771479999994,-76.79492200000004,116.0258789999998,115.25634799999989,127.43603499999972,129.3588869999994,122.56396500000028,136.41015599999992,106.9228520000006,124.87158199999976,139.7436520000001,144.10253900000043
5,134.87158199999976,103.20507799999996,158.0771479999994,-71.79492200000004,106.0258789999998,111.9228520000006,126.0258789999998,135.38476599999922,130.51269500000035,140.6411130000006,110.89746099999957,125.64111300000059,148.20507799999996,145.38476599999922
6,130.51269500000035,98.20507799999996,152.6923829999996,-72.56420900000057,99.23095699999976,108.20507799999996,120.51269500000035,130.2563479999999,128.58984400000008,136.6665039999998,107.94873000000007,122.30761700000039,148.84619099999964,140.38476599999922
7,125.64111300000059,92.82031300000017,145.0,-74.35888699999987,98.7177729999994,104.74365200000011,114.74365200000011,119.23095699999976,120.0,130.0,101.2822270000006,116.79492200000004,144.23095699999976,132.94873000000007
8,122.82031300000017,89.61523400000078,139.61523400000078,-71.66674799999964,102.94873000000007,102.30761700000039,112.43603499999972,110.64111300000059,112.17968800000017,126.2822270000006,96.41015599999992,112.69238299999961,140.89746099999957,128.0771479999994
9,123.9741210000002,90.12841800000024,140.38476599999922,-61.28198199999997,108.0771479999994,101.9228520000006,114.10253900000043,109.74365200000011,110.64111300000059,128.20507799999996,97.56396500000028,112.82031300000017,144.61523400000078,128.84619099999964
10,129.10253900000043,94.35888699999941,146.6665039999998,-43.33325200000036,111.0258789999998,103.9741210000002,117.94873000000007,115.38476599999922,116.15380900000036,135.12841800000024,104.87158199999976,116.9228520000006,157.3076170000004,135.51269500000035
11,137.05126999999993,100.38476599999922,154.48730499999965,-22.179442999999992,110.89746099999957,106.9228520000006,120.89746099999957,122.17968800000017,124.74365200000011,143.20507799999996,115.25634799999989,122.05126999999993,175.76904300000024,145.89746099999957
12,145.12841800000024,103.84619099999964,159.10253900000043,-3.717772999999397,108.0771479999994,109.23095699999976,121.15380900000036,125.25634799999989,131.2822270000006,149.10253900000043,125.38476599999922,125.38476599999922,193.9741210000002,156.41015599999992
13,151.53857400000015,101.41015599999992,159.23095699999976,7.692382999999609,104.35888699999941,109.23095699999976,119.23095699999976,124.48730499999965,133.0771479999994,151.79492200000004,133.46142599999985,126.2822270000006,207.82031300000017,164.48730499999965
14,155.0,92.56396500000028,157.05126999999993,13.077147999999397,101.2822270000006,107.30761700000039,117.05126999999993,122.30761700000039,131.15380900000036,152.3076170000004,138.7177729999994,126.15380900000036,216.79492200000004,169.23095699999976
15,155.38476599999922,81.15380900000036,155.12841800000024,16.410155999999915,100.12841800000024,104.61523400000078,116.0258789999998,120.51269500000035,126.6665039999998,151.0258789999998,141.79492200000004,125.89746099999957,222.82031300000017,171.2822270000006
16,153.46142599999985,73.84619099999964,153.9741210000002,22.82031300000017,101.2822270000006,103.0771479999994,115.64111300000059,118.0771479999994,119.74365200000011,146.41015599999992,142.43603499999972,125.64111300000059,228.0771479999994,171.9228520000006
17,152.3076170000004,76.41015599999992,153.9741210000002,34.48730499999965,104.87158199999976,103.9741210000002,114.74365200000011,112.94873000000007,110.64111300000059,137.6923829999996,141.2822270000006,124.74365200000011,233.3334960000002,172.82031300000017
18,155.76904300000024,91.53857400000015,155.6411130000006,50.897460999999566,110.12841800000024,106.53857400000015,113.3334960000002,105.76904300000024,102.30761700000039,127.43603499999972,140.0,123.46142599999985,238.58984400000008,175.89746099999957
19,166.0258789999998,116.53857400000015,159.87158199999976,69.74365200000011,115.12841800000024,109.35888699999941,112.94873000000007,100.51269500000035,98.84619099999964,120.12841800000024,140.51269500000035,123.20507799999996,244.48730499999965,183.20507799999996
20,181.6665039999998,144.61523400000078,166.53857400000015,88.9741210000002,117.82031300000017,111.0258789999998,114.48730499999965,101.53857400000015,102.43603499999972,119.35888699999941,144.10253900000043,125.12841800000024,250.51269500000035,195.2563479999999
21,197.3076170000004,168.0771479999994,173.20507799999996,106.6665039999998,117.17968800000017,111.15380900000036,117.17968800000017,108.0771479999994,110.51269500000035,124.35888699999941,149.23095699999976,129.3588869999994,255.12841800000024,209.61523400000078
22,208.0771479999994,182.94873000000007,177.56396500000028,121.9228520000006,114.61523400000078,110.12841800000024,118.9741210000002,115.25634799999989,117.56396500000028,130.6411130000006,153.46142599999985,133.7177729999994,255.51269500000035,221.9228520000006
23,212.6923829999996,191.15380900000036,178.3334960000002,134.48730499999965,112.69238299999961,107.94873000000007,118.20507799999996,117.05126999999993,118.58984400000008,132.94873000000007,154.3588869999994,135.6411130000006,250.12841800000024,228.7177729999994
24,213.9741210000002,198.3334960000002,176.53857400000015,145.2563479999999,112.94873000000007,104.61523400000078,114.87158199999976,112.30761700000039,113.46142599999985,129.61523400000078,151.15380900000036,134.7436520000001,240.0,230.0
25,215.6411130000006,209.48730499999965,173.9741210000002,155.76904300000024,115.12841800000024,101.41015599999992,110.12841800000024,104.74365200000011,105.64111300000059,122.69238299999961,144.87158199999976,132.6923829999996,227.6923829999996,229.10253900000043
26,219.3588869999994,225.12841800000024,171.79492200000004,166.9228520000006,117.17968800000017,99.74365200000011,105.76904300000024,99.35888699999941,99.23095699999976,115.38476599999922,137.94873000000007,131.6665039999998,215.76904300000024,229.23095699999976
27,223.3334960000002,241.0258789999998,170.6411130000006,178.20507799999996,117.30761700000039,100.38476599999922,103.46142599999985,98.46142599999985,95.76904300000024,109.74365200000011,131.9228520000006,131.79492200000004,204.48730499999965,230.6411130000006
28,224.7436520000001,253.3334960000002,170.0,187.56396500000028,114.74365200000011,102.69238299999961,103.20507799999996,99.35888699999941,92.69238299999961,105.0,126.0258789999998,131.6665039999998,192.43603499999972,230.76904300000024
29,221.79492200000004,260.51269500000035,168.9741210000002,193.58984400000008,110.51269500000035,105.12841800000024,103.84619099999964,97.69238299999961,87.43603499999972,99.48730499999965,117.94873000000007,129.10253900000043,178.20507799999996,227.05126999999993
30,215.6411130000006,264.23095699999976,167.05126999999993,196.53857400000015,106.15380900000036,106.41015599999992,104.10253900000043,91.9228520000006,80.12841800000024,93.0771479999994,107.30761700000039,123.9741210000002,163.3334960000002,220.38476599999922
31,209.61523400000078,267.94873000000007,164.87158199999976,199.48730499999965,103.58984400000008,106.2822270000006,103.84619099999964,85.25634799999989,75.0,87.30761700000039,97.17968800000017,118.58984400000008,150.51269500000035,214.10253900000043
32,206.9228520000006,274.3588869999994,163.7177729999994,205.51269500000035,104.10253900000043,105.64111300000059,103.3334960000002,82.43603499999972,75.12841800000024,83.7177729999994,90.25634799999989,116.2822270000006,141.2822270000006,211.0258789999998
33,208.58984400000008,284.23095699999976,163.9741210000002,216.0258789999998,107.94873000000007,105.38476599999922,103.0771479999994,84.61523400000078,79.48730499999965,82.05126999999993,86.2822270000006,118.0771479999994,133.7177729999994,210.51269500000035
34,212.43603499999972,295.89746099999957,164.87158199999976,228.20507799999996,114.35888699999941,105.89746099999957,102.82031300000017,88.3334960000002,82.82031300000017,79.87158199999976,82.82031300000017,121.6665039999998,124.74365200000011,210.12841800000024
35,215.2563479999999,306.79492200000004,165.0,238.20507799999996,121.0258789999998,106.6665039999998,102.17968800000017,89.61523400000078,81.41015599999992,75.89746099999957,78.3334960000002,123.46142599999985,112.56396500000028,207.94873000000007
36,215.0,315.76904300000024,163.9741210000002,243.84619099999964,125.38476599999922,107.56396500000028,101.53857400000015,87.43603499999972,76.2822270000006,71.53857400000015,73.46142599999985,121.41015599999992,98.84619099999964,204.10253900000043
37,211.6665039999998,323.7177729999994,162.3076170000004,245.89746099999957,126.2822270000006,108.7177729999994,101.53857400000015,84.61523400000078,71.9228520000006,68.7177729999994,69.61523400000078,116.9228520000006,86.79492200000004,199.7436520000001
38,206.53857400000015,331.79492200000004,159.7436520000001,247.17968800000017,123.7177729999994,110.25634799999989,102.17968800000017,83.46142599999985,71.41015599999992,68.46142599999985,67.17968800000017,112.56396500000028,77.43603499999972,195.6411130000006
39,201.2822270000006,339.23095699999976,156.15380900000036,249.3588869999994,119.87158199999976,111.79492200000004,102.69238299999961,83.3334960000002,73.0771479999994,68.20507799999996,65.12841800000024,110.38476599999922,69.10253900000043,191.9228520000006
40,197.17968800000017,344.10253900000043,152.05126999999993,252.6923829999996,117.69238299999961,112.82031300000017,102.82031300000017,81.79492200000004,72.56396500000028,65.0,62.30761700000039,110.25634799999989,58.974121000000196,188.20507799999996
41,195.0,346.53857400000015,149.61523400000078,256.9228520000006,119.87158199999976,113.46142599999985,102.82031300000017,77.17968800000017,67.05126999999993,57.82031300000017,58.333496000000196,110.25634799999989,46.025878999999804,184.7436520000001
42,194.7436520000001,348.9741210000002,150.2563479999999,261.0258789999998,126.53857400000015,114.23095699999976,102.69238299999961,70.76904300000024,57.56396500000028,49.102539000000434,54.48730499999965,109.23095699999976,32.05126999999993,181.53857400000015
43,195.0,353.7177729999994,153.20507799999996,263.9741210000002,134.3588869999994,115.0,102.17968800000017,66.2822270000006,49.48730499999965,42.43603499999972,52.30761700000039,107.30761700000039,20.769043000000238,178.84619099999964
44,193.84619099999964,361.0258789999998,155.38476599999922,265.6411130000006,138.58984400000008,115.38476599999922,101.0258789999998,65.76904300000024,47.30761700000039,40.12841800000024,52.30761700000039,105.25634799999989,14.358886999999413,176.15380900000036
45,189.61523400000078,368.20507799999996,154.10253900000043,266.15380900000036,136.9228520000006,115.25634799999989,99.74365200000011,68.3334960000002,50.64111300000059,40.76904300000024,53.0771479999994,103.46142599999985,11.025878999999804,173.20507799999996
46,183.46142599999985,373.3334960000002,149.48730499999965,266.6665039999998,131.15380900000036,114.87158199999976,98.46142599999985,70.89746099999957,55.38476599999922,41.2822270000006,51.9228520000006,102.43603499999972,6.922852000000603,169.48730499999965
47,178.20507799999996,376.6665039999998,144.48730499999965,268.0771479999994,126.0258789999998,114.74365200000011,97.17968800000017,71.15380900000036,57.56396500000028,40.25634799999989,47.43603499999972,102.05126999999993,-0.769043000000238,165.2563479999999
48,177.17968800000017,380.76904300000024,142.56396500000028,271.53857400000015,125.89746099999957,114.74365200000011,96.6665039999998,70.76904300000024,57.05126999999993,38.974121000000196,41.666503999999804,102.94873000000007,-10.897461000000021,162.05126999999993
49,180.6411130000006,387.6923829999996,144.61523400000078,276.4101559999999,130.38476599999922,114.87158199999976,97.69238299999961,72.69238299999961,57.17968800000017,39.74365200000011,38.333496000000196,104.87158199999976,-19.61547900000005,161.15380900000036
50,185.12841800000024,395.51269500000035,147.82031300000017,281.15380900000036,134.87158199999976,115.38476599999922,100.0,77.56396500000028,59.48730499999965,42.69238299999961,38.846190999999635,106.6665039999998,-24.10253899999998,160.6411130000006
51,185.38476599999922,400.0,147.6923829999996,282.94873000000007,133.9741210000002,115.64111300000059,101.79492200000004,82.43603499999972,62.17968800000017,45.64111300000059,41.025878999999804,107.17968800000017,-25.512939000000188,156.79492200000004
52,178.3334960000002,398.3334960000002,141.79492200000004,280.89746099999957,126.41015599999992,115.12841800000024,101.0258789999998,83.3334960000002,62.56396500000028,46.025878999999804,40.38476599999922,105.64111300000059,-27.051270000000386,147.56396500000028
53,166.41015599999992,391.79492200000004,131.6665039999998,276.4101559999999,116.79492200000004,114.23095699999976,97.17968800000017,79.23095699999976,60.38476599999922,43.589844000000085,35.25634799999989,102.43603499999972,-31.538574000000153,135.2563479999999
54,154.87158199999976,384.48730499999965,121.9228520000006,272.4360349999997,111.0258789999998,113.7177729999994,91.6665039999998,73.0771479999994,57.82031300000017,39.74365200000011,27.69238299999961,99.23095699999976,-39.35888699999987,124.61523400000078
55,147.82031300000017,380.51269500000035,116.53857400000015,271.0258789999998,112.56396500000028,113.84619099999964,87.05126999999993,68.46142599999985,56.53857400000015,36.410155999999915,21.666503999999804,97.30761700000039,-49.23071300000038,118.84619099999964
56,145.38476599999922,380.51269500000035,116.15380900000036,270.89746099999957,119.61523400000078,114.10253900000043,85.12841800000024,66.53857400000015,56.025878999999804,33.7177729999994,18.974121000000196,96.0258789999998,-59.35888699999987,116.53857400000015
57,144.61523400000078,382.3076170000004,117.56396500000028,269.7436520000001,127.69238299999961,114.23095699999976,85.25634799999989,65.12841800000024,53.846190999999635,30.128418000000238,18.846190999999635,94.35888699999941,-68.07690400000001,114.35888699999941
58,141.9228520000006,383.7177729999994,117.82031300000017,266.79492200000004,133.3334960000002,114.35888699999941,86.0258789999998,62.30761700000039,48.974121000000196,25.0,20.0,92.05126999999993,-74.23071300000038,110.76904300000024
59,135.76904300000024,383.84619099999964,115.76904300000024,263.3334960000002,135.76904300000024,114.87158199999976,86.6665039999998,58.333496000000196,42.94873000000007,18.333496000000196,20.641113000000587,89.74365200000011,-77.30761700000039,106.15380900000036
60,127.17968800000017,382.6923829999996,112.17968800000017,260.6411130000006,136.0258789999998,115.25634799999989,86.79492200000004,55.0,37.69238299999961,11.153809000000365,20.25634799999989,87.69238299999961,-78.84619099999964,101.15380900000036
61,118.58984400000008,380.51269500000035,108.58984400000008,258.0771479999994,135.51269500000035,114.87158199999976,86.9228520000006,54.35888699999941,34.74365200000011,5.128418000000238,18.589844000000085,86.0258789999998,-80.25634799999989,96.0258789999998
62,112.94873000000007,376.6665039999998,106.79492200000004,254.23095699999976,134.87158199999976,114.23095699999976,87.56396500000028,56.666503999999804,34.35888699999941,2.4360349999997197,17.17968800000017,84.35888699999941,-82.43579099999943,91.41015599999992
63,111.6665039999998,370.76904300000024,107.69238299999961,248.46142599999985,133.3334960000002,113.7177729999994,89.61523400000078,60.897460999999566,36.2822270000006,4.6152340000007825,17.30761700000039,83.58984400000008,-83.97436500000003,88.0771479999994
64,113.0771479999994,363.9741210000002,110.38476599999922,242.3076170000004,130.89746099999957,113.84619099999964,93.20507799999996,65.0,39.61523400000078,11.282227000000603,19.74365200000011,84.61523400000078,-82.82055700000001,87.17968800000017
65,114.74365200000011,358.84619099999964,113.0771479999994,239.23095699999976,128.46142599999985,114.48730499999965,97.43603499999972,68.20507799999996,43.974121000000196,20.128418000000238,24.102539000000434,87.82031300000017,-77.94872999999961,89.35888699999941
66,115.64111300000059,356.6665039999998,114.87158199999976,240.38476599999922,128.0771479999994,115.25634799999989,100.89746099999957,71.9228520000006,50.76904300000024,29.48730499999965,30.128418000000238,92.17968800000017,-68.97436500000003,94.10253900000043
67,116.2822270000006,356.0258789999998,116.15380900000036,244.3588869999994,130.2563479999999,115.51269500000035,102.43603499999972,77.30761700000039,60.64111300000059,38.0771479999994,37.05126999999993,95.76904300000024,-57.82055700000001,99.74365200000011
68,117.17968800000017,352.4360349999997,117.17968800000017,247.43603499999972,133.46142599999985,115.38476599999922,102.69238299999961,83.20507799999996,71.2822270000006,44.61523400000078,43.333496000000196,96.79492200000004,-47.82055700000001,104.23095699999976
69,117.30761700000039,342.94873000000007,117.17968800000017,246.9228520000006,136.0258789999998,115.0,102.94873000000007,86.41015599999992,77.30761700000039,47.05126999999993,46.666503999999804,95.25634799999989,-42.051270000000386,105.64111300000059
70,116.0258789999998,328.3334960000002,116.15380900000036,243.7177729999994,137.3076170000004,114.87158199999976,104.23095699999976,85.12841800000024,75.0,44.87158199999976,46.79492200000004,92.56396500000028,-41.41015600000037,103.84619099999964
71,114.23095699999976,313.46142599999985,115.25634799999989,241.15380900000036,137.3076170000004,115.12841800000024,107.17968800000017,80.64111300000059,66.53857400000015,40.0,46.153809000000365,91.79492200000004,-42.82055700000001,100.51269500000035
72,113.9741210000002,303.7177729999994,115.89746099999957,241.53857400000015,135.89746099999957,115.38476599999922,111.0258789999998,77.17968800000017,58.846190999999635,36.9228520000006,48.0771479999994,94.74365200000011,-41.79492200000004,98.84619099999964
73,115.76904300000024,300.0,118.20507799999996,244.3588869999994,132.82031300000017,115.38476599999922,113.9741210000002,77.94873000000007,57.56396500000028,38.974121000000196,54.48730499999965,100.0,-35.64111300000013,100.51269500000035
74,117.69238299999961,298.46142599999985,119.87158199999976,245.12841800000024,128.20507799999996,115.12841800000024,113.58984400000008,82.69238299999961,62.94873000000007,45.76904300000024,62.94873000000007,104.10253900000043,-26.538574000000153,104.10253900000043
75,116.15380900000036,293.46142599999985,117.94873000000007,239.3588869999994,123.20507799999996,114.74365200000011,108.9741210000002,87.05126999999993,69.61523400000078,52.82031300000017,68.9741210000002,104.35888699999941,-20.38452099999995,106.0258789999998
76,110.12841800000024,282.05126999999993,111.6665039999998,227.05126999999993,120.0,114.35888699999941,101.79492200000004,87.56396500000028,72.69238299999961,55.51269500000035,69.10253900000043,100.64111300000059,-20.769286999999622,103.9741210000002
77,102.05126999999993,267.3076170000004,103.3334960000002,213.9741210000002,120.89746099999957,114.23095699999976,95.89746099999957,84.23095699999976,71.15380900000036,52.69238299999961,64.23095699999976,95.51269500000035,-25.769286999999622,98.7177729999994
78,96.9228520000006,255.6411130000006,97.56396500000028,207.17968800000017,126.6665039999998,114.61523400000078,94.35888699999941,81.6665039999998,68.84619099999964,48.20507799999996,59.23095699999976,92.56396500000028,-29.230713000000378,93.7177729999994
79,98.3334960000002,251.41015599999992,98.20507799999996,209.61523400000078,133.9741210000002,115.25634799999989,97.82031300000017,84.35888699999941,70.51269500000035,48.333496000000196,60.25634799999989,93.7177729999994,-25.512939000000188,92.94873000000007
80,105.64111300000059,254.10253900000043,105.0,217.56396500000028,137.43603499999972,115.64111300000059,103.58984400000008,93.7177729999994,78.9741210000002,56.025878999999804,69.87158199999976,97.69238299999961,-13.846190999999635,98.0771479999994
81,114.74365200000011,259.10253900000043,114.61523400000078,224.3588869999994,133.9741210000002,115.89746099999957,108.84619099999964,106.0258789999998,92.05126999999993,68.9741210000002,85.51269500000035,102.30761700000039,1.5385740000001533,107.05126999999993
82,120.25634799999989,260.51269500000035,122.43603499999972,225.51269500000035,126.0258789999998,115.89746099999957,112.56396500000028,115.25634799999989,104.35888699999941,80.76904300000024,100.25634799999989,105.12841800000024,13.846190999999635,115.51269500000035
83,118.84619099999964,254.87158199999976,125.64111300000059,220.51269500000035,118.84619099999964,115.76904300000024,115.25634799999989,117.17968800000017,109.48730499999965,85.51269500000035,107.43603499999972,105.64111300000059,18.077147999999397,119.35888699999941
84,111.2822270000006,243.0771479999994,123.58984400000008,213.0771479999994,116.2822270000006,115.64111300000059,117.05126999999993,112.30761700000039,105.89746099999957,81.9228520000006,105.0,104.74365200000011,14.358886999999413,117.30761700000039
85,101.41015599999992,228.7177729999994,118.46142599999985,207.3076170000004,117.30761700000039,115.51269500000035,117.17968800000017,105.25634799999989,97.56396500000028,73.9741210000002,96.79492200000004,102.94873000000007,7.948730000000069,111.2822270000006
86,92.94873000000007,216.79492200000004,113.46142599999985,205.0,117.69238299999961,115.25634799999989,114.74365200000011,101.15380900000036,91.15380900000036,67.94873000000007,88.84619099999964,100.89746099999957,4.230956999999762,104.35888699999941
87,87.43603499999972,209.7436520000001,110.25634799999989,205.0,114.61523400000078,114.74365200000011,110.12841800000024,101.2822270000006,90.38476599999922,67.05126999999993,84.74365200000011,99.10253900000043,5.641113000000587,98.9741210000002
88,84.87158199999976,207.82031300000017,109.48730499999965,204.87158199999976,109.74365200000011,114.35888699999941,105.38476599999922,103.3334960000002,93.7177729999994,69.87158199999976,85.0,98.3334960000002,10.384765999999217,96.79492200000004
89,85.51269500000035,209.48730499999965,110.64111300000059,204.10253900000043,108.20507799999996,114.61523400000078,103.9741210000002,104.23095699999976,97.56396500000028,73.46142599999985,88.0771479999994,98.7177729999994,16.538574000000153,98.84619099999964
90,89.48730499999965,212.05126999999993,113.58984400000008,204.23095699999976,112.43603499999972,115.76904300000024,107.05126999999993,103.3334960000002,99.87158199999976,75.89746099999957,92.82031300000017,99.87158199999976,22.82031300000017,104.61523400000078
91,95.76904300000024,211.9228520000006,117.05126999999993,206.53857400000015,119.61523400000078,116.6665039999998,112.82031300000017,102.43603499999972,100.76904300000024,78.46142599999985,97.69238299999961,101.2822270000006,29.230956999999762,111.79492200000004
92,101.0258789999998,207.3076170000004,119.35888699999941,210.2563479999999,123.7177729999994,116.41015599999992,117.30761700000039,103.7177729999994,101.15380900000036,81.9228520000006,101.0258789999998,102.82031300000017,34.48730499999965,116.79492200000004
93,102.43603499999972,198.84619099999964,118.84619099999964,212.82031300000017,121.15380900000036,115.25634799999989,117.30761700000039,107.05126999999993,100.76904300000024,85.64111300000059,102.05126999999993,104.10253900000043,36.79492200000004,117.17968800000017
94,98.9741210000002,189.48730499999965,115.12841800000024,211.6665039999998,113.20507799999996,114.61523400000078,113.0771479999994,109.35888699999941,98.9741210000002,87.05126999999993,100.51269500000035,104.10253900000043,34.87158199999976,112.56396500000028
95,91.53857400000015,181.6665039999998,109.23095699999976,206.53857400000015,104.10253900000043,115.25634799999989,107.05126999999993,107.56396500000028,94.87158199999976,83.84619099999964,96.0258789999998,102.05126999999993,29.871581999999762,105.12841800000024
96,82.69238299999961,176.2822270000006,103.0771479999994,199.48730499999965,98.20507799999996,116.53857400000015,102.30761700000039,101.2822270000006,88.7177729999994,76.2822270000006,89.23095699999976,98.46142599999985,24.871581999999762,97.56396500000028
97,75.51269500000035,172.94873000000007,99.35888699999941,193.7177729999994,97.17968800000017,116.6665039999998,100.12841800000024,93.58984400000008,82.69238299999961,68.7177729999994,82.17968800000017,95.64111300000059,23.846190999999635,92.69238299999961
98,73.0771479999994,170.6411130000006,99.74365200000011,191.79492200000004,100.12841800000024,114.48730499999965,100.25634799999989,89.61523400000078,80.51269500000035,66.0258789999998,77.30761700000039,95.25634799999989,28.846190999999635,91.9228520000006
99,74.87158199999976,167.94873000000007,103.20507799999996,193.46142599999985,103.7177729999994,110.89746099999957,101.53857400000015,91.79492200000004,83.58984400000008,70.0,75.76904300000024,97.17968800000017,37.56396500000028,93.3334960000002
100,77.69238299999961,164.23095699999976,106.53857400000015,195.76904300000024,104.48730499999965,108.0771479999994,102.94873000000007,97.94873000000007,89.74365200000011,76.9228520000006,75.76904300000024,98.84619099999964,44.61523400000078,93.46142599999985
101,77.82031300000017,159.10253900000043,106.6665039999998,196.15380900000036,101.2822270000006,108.0771479999994,104.74365200000011,103.0771479999994,93.7177729999994,80.51269500000035,74.87158199999976,98.20507799999996,45.51269500000035,90.12841800000024
102,74.74365200000011,153.58984400000008,103.9741210000002,194.7436520000001,97.43603499999972,111.15380900000036,106.9228520000006,103.3334960000002,91.9228520000006,77.69238299999961,72.56396500000028,95.0,40.897460999999566,85.0
103,71.0258789999998,149.10253900000043,101.2822270000006,193.84619099999964,96.6665039999998,115.38476599999922,109.74365200000011,99.74365200000011,86.15380900000036,70.76904300000024,70.51269500000035,91.41015599999992,36.53857400000015,82.05126999999993
104,70.64111300000059,147.05126999999993,101.9228520000006,195.76904300000024,100.25634799999989,118.20507799999996,112.94873000000007,97.30761700000039,82.43603499999972,66.53857400000015,71.79492200000004,90.0,38.846190999999635,83.46142599999985
105,75.12841800000024,147.82031300000017,106.6665039999998,200.0,106.2822270000006,118.58984400000008,116.15380900000036,100.51269500000035,85.76904300000024,70.38476599999922,77.30761700000039,92.69238299999961,49.102539000000434,88.0771479999994
106,82.56396500000028,150.38476599999922,113.0771479999994,204.10253900000043,111.79492200000004,116.9228520000006,118.46142599999985,109.74365200000011,96.0258789999998,82.17968800000017,84.74365200000011,98.58984400000008,62.05126999999993,93.20507799999996
107,88.58984400000008,152.56396500000028,117.30761700000039,205.6411130000006,114.61523400000078,114.87158199999976,119.10253900000043,119.35888699999941,107.69238299999961,96.15380900000036,90.12841800000024,104.23095699999976,70.51269500000035,96.0258789999998
108,89.87158199999976,152.05126999999993,116.15380900000036,203.46142599999985,113.46142599999985,113.9741210000002,118.0771479999994,122.94873000000007,114.35888699999941,104.48730499999965,90.51269500000035,105.89746099999957,70.76904300000024,95.25634799999989
109,85.25634799999989,147.3076170000004,110.12841800000024,198.7177729999994,107.82031300000017,114.10253900000043,115.89746099999957,117.82031300000017,112.43603499999972,103.20507799999996,85.64111300000059,102.69238299999961,64.23095699999976,91.0258789999998
110,76.53857400000015,138.9741210000002,102.43603499999972,193.46142599999985,98.9741210000002,114.61523400000078,113.58984400000008,107.17968800000017,103.58984400000008,94.48730499999965,77.30761700000039,96.53857400000015,55.38476599999922,84.61523400000078
111,67.94873000000007,129.7436520000001,96.9228520000006,189.3588869999994,90.76904300000024,114.74365200000011,111.79492200000004,97.56396500000028,92.43603499999972,84.23095699999976,69.10253900000043,90.89746099999957,48.333496000000196,78.46142599999985
112,63.7177729999994,124.10253900000043,95.64111300000059,188.0771479999994,87.43603499999972,114.48730499999965,111.15380900000036,94.35888699999941,84.61523400000078,78.3334960000002,64.35888699999941,87.43603499999972,45.897460999999566,75.89746099999957
113,65.76904300000024,124.87158199999976,97.82031300000017,190.12841800000024,90.12841800000024,114.74365200000011,111.53857400000015,97.56396500000028,83.46142599999985,79.10253900000043,65.0,85.76904300000024,48.974121000000196,77.82031300000017
114,72.30761700000039,130.2563479999999,101.0258789999998,195.0,96.53857400000015,115.76904300000024,112.56396500000028,102.94873000000007,88.0771479999994,84.61523400000078,69.61523400000078,85.25634799999989,55.897460999999566,82.43603499999972
115,79.23095699999976,135.6411130000006,103.0771479999994,200.51269500000035,102.56396500000028,116.9228520000006,113.3334960000002,105.76904300000024,94.61523400000078,90.89746099999957,74.87158199999976,86.2822270000006,63.333496000000196,86.6665039999998
116,83.58984400000008,137.3076170000004,103.46142599999985,204.61523400000078,105.76904300000024,117.30761700000039,113.58984400000008,104.10253900000043,98.84619099999964,95.0,77.94873000000007,89.23095699999976,68.3334960000002,88.9741210000002
117,84.87158199999976,134.7436520000001,103.20507799999996,206.9228520000006,106.53857400000015,116.79492200000004,114.35888699999941,100.89746099999957,99.87158199999976,96.6665039999998,79.23095699999976,93.20507799999996,69.87158199999976,89.61523400000078
118,84.48730499999965,131.0258789999998,102.82031300000017,208.7177729999994,106.15380900000036,116.15380900000036,116.2822270000006,100.51269500000035,99.35888699999941,97.30761700000039,80.64111300000059,96.6665039999998,69.10253900000043,90.25634799999989
119,83.9741210000002,129.48730499999965,102.69238299999961,211.79492200000004,105.38476599999922,116.0258789999998,118.84619099999964,105.38476599999922,100.12841800000024,98.84619099999964,83.46142599999985,98.0771479999994,67.94873000000007,92.17968800000017
120,84.35888699999941,131.53857400000015,102.17968800000017,216.9228520000006,104.61523400000078,116.2822270000006,120.64111300000059,113.84619099999964,103.7177729999994,101.79492200000004,86.6665039999998,97.56396500000028,67.82031300000017,95.51269500000035
121,85.64111300000059,135.51269500000035,102.05126999999993,222.6923829999996,104.35888699999941,116.0258789999998,120.76904300000024,121.15380900000036,108.84619099999964,105.51269500000035,88.7177729999994,96.41015599999992,69.48730499999965,99.61523400000078
122,87.05126999999993,137.6923829999996,102.94873000000007,226.15380900000036,104.87158199999976,115.64111300000059,119.48730499999965,123.0771479999994,112.69238299999961,108.58984400000008,88.20507799999996,95.38476599999922,72.43603499999972,102.43603499999972
123,86.41015599999992,135.2563479999999,104.61523400000078,225.12841800000024,104.23095699999976,115.76904300000024,116.9228520000006,117.69238299999961,111.6665039999998,108.9741210000002,85.12841800000024,95.12841800000024,74.61523400000078,102.05126999999993
124,81.79492200000004,128.46142599999985,104.87158199999976,219.87158199999976,101.0258789999998,116.6665039999998,113.58984400000008,107.43603499999972,104.10253900000043,105.38476599999922,80.76904300000024,94.87158199999976,73.46142599999985,97.05126999999993
125,73.58984400000008,120.38476599999922,102.17968800000017,213.9741210000002,96.0258789999998,116.6665039999998,109.87158199999976,97.05126999999993,92.30761700000039,98.3334960000002,76.41015599999992,94.23095699999976,68.0771479999994,89.61523400000078
126,65.38476599999922,115.51269500000035,97.94873000000007,211.79492200000004,92.94873000000007,114.35888699999941,107.30761700000039,91.9228520000006,82.56396500000028,91.0258789999998,74.74365200000011,93.3334960000002,61.79492200000004,84.23095699999976
127,62.43603499999972,116.9228520000006,96.15380900000036,215.6411130000006,95.0,110.89746099999957,107.43603499999972,95.12841800000024,81.79492200000004,88.7177729999994,77.82031300000017,93.84619099999964,60.0,84.87158199999976
128,67.69238299999961,124.48730499999965,99.74365200000011,223.84619099999964,102.43603499999972,108.7177729999994,111.2822270000006,105.64111300000059,92.56396500000028,95.12841800000024,86.41015599999992,96.6665039999998,66.15380900000036,92.56396500000028
129,78.58984400000008,134.23095699999976,107.30761700000039,231.79492200000004,110.51269500000035,109.35888699999941,117.05126999999993,118.20507799999996,109.87158199999976,108.3334960000002,97.05126999999993,100.64111300000059,77.43603499999972,102.94873000000007
130,88.0771479999994,140.12841800000024,114.10253900000043,235.0,113.58984400000008,111.79492200000004,121.53857400000015,126.15380900000036,123.58984400000008,120.76904300000024,103.7177729999994,102.82031300000017,86.79492200000004,109.74365200000011
131,90.0,138.3334960000002,115.64111300000059,231.9228520000006,108.7177729999994,113.7177729999994,122.05126999999993,125.0,125.51269500000035,124.10253900000043,102.17968800000017,100.89746099999957,87.82031300000017,108.7177729999994
132,83.58984400000008,130.2563479999999,111.41015599999992,225.76904300000024,98.3334960000002,113.0771479999994,118.0771479999994,115.76904300000024,115.0,115.25634799999989,93.58984400000008,95.64111300000059,79.74365200000011,100.51269500000035
133,73.9741210000002,121.53857400000015,105.38476599999922,221.2822270000006,88.20507799999996,110.25634799999989,112.94873000000007,104.61523400000078,99.23095699999976,99.87158199999976,84.10253900000043,90.89746099999957,67.69238299999961,90.51269500000035
134,68.20507799999996,118.0771479999994,102.94873000000007,221.53857400000015,84.23095699999976,107.43603499999972,110.38476599999922,97.82031300000017,87.69238299999961,86.9228520000006,80.51269500000035,90.25634799999989,59.102539000000434,85.76904300000024
135,70.25634799999989,122.05126999999993,107.30761700000039,225.51269500000035,88.3334960000002,106.6665039999998,112.30761700000039,97.82031300000017,86.41015599999992,83.7177729999994,85.64111300000059,94.35888699999941,58.974121000000196,89.61523400000078
136,78.3334960000002,130.51269500000035,116.0258789999998,229.10253900000043,96.79492200000004,109.23095699999976,117.05126999999993,101.6665039999998,94.10253900000043,91.0258789999998,95.89746099999957,99.74365200000011,67.17968800000017,99.10253900000043
137,86.41015599999992,137.3076170000004,122.82031300000017,228.0771479999994,103.9741210000002,113.58984400000008,120.51269500000035,104.61523400000078,104.10253900000043,102.30761700000039,104.61523400000078,102.69238299999961,78.3334960000002,107.30761700000039
138,89.48730499999965,138.0771479999994,122.69238299999961,222.05126999999993,105.89746099999957,117.30761700000039,120.38476599999922,104.87158199999976,108.9741210000002,109.87158199999976,106.9228520000006,101.9228520000006,86.15380900000036,108.9741210000002
139,87.30761700000039,133.7177729999994,117.30761700000039,214.10253900000043,103.58984400000008,118.58984400000008,116.9228520000006,103.9741210000002,106.2822270000006,109.48730499999965,104.10253900000043,99.61523400000078,87.43603499999972,104.48730499999965
140,83.0771479999994,128.58984400000008,112.94873000000007,208.46142599999985,100.64111300000059,117.30761700000039,113.58984400000008,104.74365200000011,99.61523400000078,103.58984400000008,101.79492200000004,98.0771479999994,84.23095699999976,99.10253900000043
141,81.0258789999998,127.43603499999972,114.35888699999941,207.43603499999972,100.25634799999989,115.25634799999989,112.82031300000017,106.9228520000006,95.0,98.46142599999985,105.12841800000024,98.46142599999985,81.0258789999998,97.82031300000017
142,82.43603499999972,132.17968800000017,120.76904300000024,209.7436520000001,102.17968800000017,114.61523400000078,114.61523400000078,109.23095699999976,96.41015599999992,98.7177729999994,114.10253900000043,100.25634799999989,81.41015599999992,101.79492200000004
143,86.0258789999998,140.38476599999922,127.30761700000039,212.6923829999996,104.61523400000078,115.76904300000024,117.05126999999993,110.0,103.7177729999994,105.0,123.58984400000008,101.9228520000006,85.12841800000024,108.46142599999985
144,89.35888699999941,147.82031300000017,130.0,213.3334960000002,106.53857400000015,117.05126999999993,118.3334960000002,110.12841800000024,113.20507799999996,113.7177729999994,127.69238299999961,102.94873000000007,89.35888699999941,114.23095699999976
145,91.15380900000036,150.89746099999957,128.20507799999996,210.6411130000006,108.0771479999994,116.6665039999998,118.3334960000002,110.64111300000059,119.61523400000078,119.87158199999976,126.0258789999998,103.20507799999996,91.53857400000015,116.53857400000015
146,91.2822270000006,148.84619099999964,124.87158199999976,204.7436520000001,109.48730499999965,115.12841800000024,117.82031300000017,111.9228520000006,119.48730499999965,120.38476599999922,122.69238299999961,102.82031300000017,91.0258789999998,115.38476599999922
147,91.0258789999998,144.10253900000043,122.82031300000017,197.43603499999972,109.48730499999965,114.10253900000043,117.43603499999972,112.94873000000007,113.0771479999994,115.12841800000024,122.05126999999993,102.43603499999972,88.84619099999964,112.30761700000039
148,90.64111300000059,139.3588869999994,122.43603499999972,190.38476599999922,106.53857400000015,114.87158199999976,117.56396500000028,112.17968800000017,103.7177729999994,106.53857400000015,125.0,102.05126999999993,86.0258789999998,109.10253900000043
149,89.23095699999976,135.6411130000006,121.53857400000015,184.3588869999994,100.25634799999989,116.2822270000006,117.05126999999993,109.10253900000043,95.76904300000024,97.82031300000017,128.20507799999996,101.2822270000006,82.43603499999972,106.0258789999998
150,86.15380900000036,133.20507799999996,118.46142599999985,179.87158199999976,92.56396500000028,117.05126999999993,115.0,104.74365200000011,92.17968800000017,91.41015599999992,127.94873000000007,99.35888699999941,78.3334960000002,103.20507799999996
151,82.43603499999972,132.56396500000028,113.58984400000008,176.79492200000004,87.30761700000039,116.6665039999998,111.79492200000004,101.2822270000006,93.84619099999964,89.23095699999976,124.23095699999976,97.05126999999993,74.61523400000078,100.76904300000024
152,79.61523400000078,134.23095699999976,109.61523400000078,175.51269500000035,87.17968800000017,115.76904300000024,109.74365200000011,100.76904300000024,98.58984400000008,91.41015599999992,120.51269500000035,95.51269500000035,72.17968800000017,99.48730499999965
153,78.7177729999994,137.6923829999996,108.58984400000008,176.0258789999998,91.79492200000004,115.12841800000024,110.89746099999957,103.0771479999994,102.82031300000017,95.64111300000059,120.38476599999922,95.64111300000059,71.15380900000036,99.48730499999965
154,79.23095699999976,141.41015599999992,110.64111300000059,177.3076170000004,97.30761700000039,114.61523400000078,114.61523400000078,105.76904300000024,103.58984400000008,98.9741210000002,124.23095699999976,96.6665039999998,71.15380900000036,100.25634799999989
155,80.25634799999989,144.48730499999965,114.35888699999941,177.82031300000017,100.89746099999957,114.23095699999976,117.94873000000007,106.6665039999998,101.41015599999992,100.12841800000024,129.48730499999965,97.43603499999972,71.53857400000015,101.2822270000006
156,81.15380900000036,146.0258789999998,117.82031300000017,176.9228520000006,101.53857400000015,114.35888699999941,117.94873000000007,105.76904300000024,99.10253900000043,99.87158199999976,132.82031300000017,97.56396500000028,72.43603499999972,102.56396500000028
157,81.6665039999998,145.6411130000006,119.74365200000011,175.0,100.25634799999989,114.61523400000078,114.10253900000043,104.35888699999941,98.9741210000002,99.61523400000078,132.3076170000004,97.82031300000017,73.58984400000008,103.46142599999985
158,81.53857400000015,144.10253900000043,119.87158199999976,172.6923829999996,98.20507799999996,114.74365200000011,108.84619099999964,103.58984400000008,101.15380900000036,99.48730499999965,127.94873000000007,98.20507799999996,73.9741210000002,103.20507799999996
159,81.0258789999998,142.94873000000007,118.9741210000002,170.89746099999957,96.41015599999992,114.48730499999965,105.89746099999957,103.46142599999985,103.9741210000002,98.84619099999964,121.2822270000006,97.69238299999961,72.17968800000017,101.79492200000004
160,80.76904300000024,144.48730499999965,117.69238299999961,170.89746099999957,96.15380900000036,114.23095699999976,107.69238299999961,103.58984400000008,105.64111300000059,96.9228520000006,115.0,95.89746099999957,67.94873000000007,99.74365200000011
161,81.15380900000036,149.87158199999976,116.53857400000015,172.94873000000007,98.3334960000002,114.48730499999965,113.0771479999994,103.9741210000002,105.12841800000024,94.23095699999976,111.79492200000004,94.10253900000043,63.46142599999985,98.84619099999964
162,82.30761700000039,158.58984400000008,115.76904300000024,176.6665039999998,101.6665039999998,115.38476599999922,117.94873000000007,104.48730499999965,102.69238299999961,91.53857400000015,112.82031300000017,93.20507799999996,62.05126999999993,100.64111300000059
163,83.7177729999994,168.7177729999994,115.51269500000035,180.51269500000035,103.3334960000002,115.64111300000059,118.3334960000002,104.10253900000043,98.84619099999964,89.10253900000043,116.79492200000004,93.46142599999985,65.38476599999922,105.0
164,84.61523400000078,177.56396500000028,115.25634799999989,182.3076170000004,102.05126999999993,114.87158199999976,113.58984400000008,101.9228520000006,94.35888699999941,86.15380900000036,119.48730499999965,94.23095699999976,70.76904300000024,109.61523400000078
165,85.38476599999922,183.46142599999985,114.74365200000011,181.2822270000006,98.20507799999996,114.35888699999941,106.79492200000004,98.20507799999996,89.35888699999941,81.9228520000006,117.43603499999972,94.35888699999941,72.69238299999961,111.9228520000006
166,87.05126999999993,187.3076170000004,114.48730499999965,178.7177729999994,93.7177729999994,115.38476599999922,101.9228520000006,94.74365200000011,84.74365200000011,76.2822270000006,110.38476599999922,93.7177729999994,67.56396500000028,111.15380900000036
167,90.64111300000059,190.76904300000024,115.25634799999989,177.17968800000017,90.12841800000024,117.56396500000028,101.15380900000036,93.84619099999964,81.41015599999992,70.51269500000035,101.9228520000006,93.0771479999994,57.56396500000028,109.23095699999976
168,96.9228520000006,195.2563479999999,117.94873000000007,178.58984400000008,88.20507799999996,118.84619099999964,102.94873000000007,95.25634799999989,79.35888699999941,66.53857400000015,97.69238299999961,93.3334960000002,50.51269500000035,110.25634799999989
169,105.38476599999922,200.89746099999957,122.69238299999961,182.56396500000028,87.82031300000017,117.30761700000039,104.61523400000078,97.56396500000028,78.84619099999964,66.0258789999998,102.05126999999993,95.25634799999989,55.38476599999922,117.56396500000028
170,115.51269500000035,206.2822270000006,128.46142599999985,186.79492200000004,88.20507799999996,113.58984400000008,104.87158199999976,99.35888699999941,79.48730499999965,69.74365200000011,115.12841800000024,98.58984400000008,75.38476599999922,131.15380900000036
171,126.0258789999998,209.61523400000078,133.46142599999985,188.0771479999994,88.46142599999985,109.61523400000078,103.46142599999985,100.0,81.6665039999998,76.6665039999998,132.56396500000028,102.17968800000017,106.15380900000036,147.82031300000017
172,135.38476599999922,208.84619099999964,136.0258789999998,185.12841800000024,88.0771479999994,107.56396500000028,101.2822270000006,100.0,85.51269500000035,84.35888699999941,148.58984400000008,105.12841800000024,138.0771479999994,162.56396500000028
173,142.56396500000028,202.94873000000007,136.79492200000004,179.7436520000001,86.79492200000004,108.46142599999985,99.35888699999941,99.74365200000011,90.25634799999989,90.89746099999957,159.61523400000078,107.56396500000028,163.20507799999996,172.6923829999996
174,147.94873000000007,193.0771479999994,137.82031300000017,175.12841800000024,85.51269500000035,111.53857400000015,98.20507799999996,99.61523400000078,94.61523400000078,95.51269500000035,166.9228520000006,110.12841800000024,180.76904300000024,178.84619099999964
175,152.94873000000007,182.56396500000028,141.2822270000006,173.9741210000002,85.12841800000024,114.87158199999976,98.9741210000002,100.64111300000059,97.56396500000028,99.35888699999941,173.9741210000002,113.3334960000002,195.51269500000035,184.61523400000078
176,159.7436520000001,174.48730499999965,147.17968800000017,176.53857400000015,85.89746099999957,116.9228520000006,101.79492200000004,103.3334960000002,99.23095699999976,103.58984400000008,183.3334960000002,117.17968800000017,213.20507799999996,193.20507799999996
177,168.7177729999994,170.2563479999999,153.3334960000002,179.87158199999976,86.79492200000004,116.9228520000006,105.64111300000059,107.43603499999972,100.76904300000024,108.3334960000002,194.3588869999994,121.0258789999998,234.87158199999976,204.48730499999965
178,177.94873000000007,167.94873000000007,157.56396500000028,180.51269500000035,87.17968800000017,115.89746099999957,108.58984400000008,111.6665039999998,103.58984400000008,112.94873000000007,204.7436520000001,123.58984400000008,258.0771479999994,216.15380900000036
179,184.7436520000001,164.48730499999965,158.7177729999994,176.9228520000006,86.9228520000006,115.0,109.10253900000043,114.61523400000078,108.46142599999985,117.43603499999972,212.82031300000017,124.35888699999941,278.9741210000002,225.0
180,186.9228520000006,156.79492200000004,157.94873000000007,170.6411130000006,86.9228520000006,115.12841800000024,107.05126999999993,115.38476599999922,114.61523400000078,122.30761700000039,218.84619099999964,123.7177729999994,295.89746099999957,229.87158199999976
181,184.87158199999976,144.87158199999976,157.3076170000004,165.0,87.05126999999993,115.89746099999957,104.10253900000043,114.61523400000078,119.61523400000078,128.0771479999994,224.3588869999994,122.82031300000017,309.6152340000008,231.6665039999998
182,181.53857400000015,131.2822270000006,158.3334960000002,162.94873000000007,85.76904300000024,116.41015599999992,102.56396500000028,113.46142599999985,121.2822270000006,134.3588869999994,229.87158199999976,122.56396500000028,322.17968800000017,233.0771479999994
183,180.2563479999999,118.58984400000008,161.15380900000036,164.10253900000043,81.53857400000015,115.89746099999957,103.58984400000008,113.46142599999985,119.23095699999976,139.61523400000078,234.23095699999976,123.20507799999996,334.6152340000008,236.41015599999992
184,182.05126999999993,107.69238299999961,163.9741210000002,166.41015599999992,74.74365200000011,114.87158199999976,105.89746099999957,114.87158199999976,115.51269500000035,142.82031300000017,236.9228520000006,124.74365200000011,346.79492200000004,241.53857400000015
185,186.2822270000006,97.82031300000017,165.76904300000024,167.17968800000017,68.58984400000008,114.10253900000043,106.79492200000004,116.9228520000006,113.7177729999994,144.23095699999976,238.84619099999964,127.43603499999972,358.3334960000002,247.05126999999993
186,190.89746099999957,88.7177729999994,166.0258789999998,165.89746099999957,65.64111300000059,114.48730499999965,105.12841800000024,118.3334960000002,116.2822270000006,145.38476599999922,242.43603499999972,130.76904300000024,369.6152340000008,251.2822270000006
187,194.23095699999976,80.89746099999957,165.6411130000006,162.82031300000017,67.43603499999972,116.0258789999998,102.17968800000017,118.9741210000002,122.82031300000017,147.6923829999996,248.3334960000002,133.46142599999985,380.3847659999992,253.3334960000002
188,194.87158199999976,74.23095699999976,164.87158199999976,158.20507799999996,72.94873000000007,117.82031300000017,101.2822270000006,120.12841800000024,130.38476599999922,151.41015599999992,254.61523400000078,134.23095699999976,389.87158199999976,253.46142599999985
189,192.56396500000028,67.82031300000017,163.84619099999964,151.53857400000015,78.9741210000002,118.7177729999994,104.48730499999965,123.20507799999996,135.51269500000035,155.76904300000024,258.3334960000002,133.20507799999996,396.6665039999998,252.3076170000004
190,188.0771479999994,60.64111300000059,162.6923829999996,143.3334960000002,82.30761700000039,118.3334960000002,110.51269500000035,127.82031300000017,136.9228520000006,159.3588869999994,258.20507799999996,131.53857400000015,400.51269500000035,250.38476599999922
191,183.7177729999994,52.43603499999972,162.05126999999993,135.51269500000035,81.53857400000015,117.69238299999961,116.0258789999998,131.53857400000015,135.51269500000035,162.05126999999993,256.15380900000036,130.6411130000006,402.5639650000003,249.23095699999976
192,181.9228520000006,44.23095699999976,163.0771479999994,130.89746099999957,78.58984400000008,116.9228520000006,117.69238299999961,132.82031300000017,133.84619099999964,164.61523400000078,256.15380900000036,130.76904300000024,405.3847659999992,249.7436520000001
193,184.48730499999965,37.43603499999972,167.43603499999972,130.51269500000035,77.69238299999961,115.76904300000024,116.15380900000036,132.05126999999993,134.3588869999994,167.94873000000007,261.6665039999998,132.05126999999993,411.79492200000004,252.56396500000028
194,190.6411130000006,33.20507799999996,174.48730499999965,132.56396500000028,81.41015599999992,113.58984400000008,114.35888699999941,131.41015599999992,138.46142599999985,172.94873000000007,272.3076170000004,134.10253900000043,422.6923829999996,257.05126999999993
195,197.56396500000028,31.410155999999915,181.2822270000006,133.3334960000002,88.20507799999996,111.15380900000036,114.48730499999965,132.6923829999996,144.87158199999976,178.58984400000008,284.10253900000043,136.0258789999998,435.51269500000035,261.9228520000006
196,201.15380900000036,29.358886999999413,183.84619099999964,130.2563479999999,92.82031300000017,108.9741210000002,116.41015599999992,135.38476599999922,150.89746099999957,183.0771479999994,291.0258789999998,136.6665039999998,445.0,265.0
197,198.3334960000002,23.333496000000196,180.12841800000024,122.94873000000007,89.87158199999976,107.17968800000017,118.20507799999996,137.43603499999972,153.20507799999996,184.48730499999965,290.12841800000024,135.0,446.0258789999998,264.48730499999965
198,188.9741210000002,11.282227000000603,172.17968800000017,114.10253900000043,79.23095699999976,105.76904300000024,118.0771479999994,137.05126999999993,150.51269500000035,182.3076170000004,282.5639650000003,131.6665039999998,437.6923829999996,259.23095699999976
199,176.9228520000006,-5.0,163.84619099999964,107.69238299999961,66.6665039999998,105.25634799999989,116.2822270000006,134.23095699999976,144.61523400000078,178.20507799999996,272.6923829999996,127.82031300000017,424.48730499999965,250.12841800000024
200,167.94873000000007,-20.25634799999989,158.7177729999994,106.53857400000015,60.0,106.41015599999992,114.48730499999965,131.2822270000006,139.48730499999965,175.0,266.0258789999998,125.51269500000035,413.0771479999994,240.2563479999999
201,165.51269500000035,-29.358886999999868,158.20507799999996,111.2822270000006,63.0771479999994,108.46142599999985,114.61523400000078,130.51269500000035,138.46142599999985,175.0,264.6152340000008,125.38476599999922,408.46142599999985,233.0771479999994
202,168.46142599999985,-31.666747999999643,160.89746099999957,119.10253900000043,73.20507799999996,109.87158199999976,116.53857400000015,132.17968800000017,142.05126999999993,178.3334960000002,267.05126999999993,126.53857400000015,411.4101559999999,230.2563479999999
203,171.9228520000006,-31.153809000000365,163.84619099999964,125.89746099999957,83.46142599999985,110.51269500000035,117.94873000000007,133.84619099999964,148.3334960000002,183.20507799999996,269.48730499999965,126.9228520000006,418.46142599999985,230.38476599999922
204,172.3076170000004,-31.666747999999643,164.7436520000001,129.23095699999976,88.46142599999985,110.89746099999957,117.30761700000039,133.0771479999994,154.10253900000043,188.20507799999996,269.3588869999994,125.51269500000035,424.6152340000008,230.89746099999957
205,170.0,-34.74365200000011,163.9741210000002,130.38476599999922,88.20507799999996,111.41015599999992,115.89746099999957,130.76904300000024,158.20507799999996,193.58984400000008,268.3334960000002,123.3334960000002,427.17968800000017,230.6411130000006
206,168.0771479999994,-38.846190999999635,163.46142599999985,132.05126999999993,86.0258789999998,111.53857400000015,116.79492200000004,130.38476599999922,161.15380900000036,200.2563479999999,269.3588869999994,122.69238299999961,426.9228520000006,230.76904300000024
207,167.56396500000028,-42.948729999999614,164.3588869999994,135.12841800000024,84.74365200000011,110.76904300000024,121.41015599999992,133.3334960000002,163.3334960000002,206.9228520000006,272.82031300000017,125.0,426.4101559999999,231.41015599999992
208,166.0258789999998,-47.30761700000039,165.51269500000035,138.20507799999996,84.23095699999976,109.48730499999965,127.69238299999961,137.82031300000017,164.3588869999994,210.6411130000006,275.2563479999999,128.9741210000002,426.4101559999999,231.15380900000036
209,161.0258789999998,-52.69238299999961,165.51269500000035,138.9741210000002,82.43603499999972,108.3334960000002,130.76904300000024,140.76904300000024,163.3334960000002,209.61523400000078,273.7177729999994,132.17968800000017,425.89746099999957,227.94873000000007
210,152.56396500000028,-58.46142599999985,163.58984400000008,137.3076170000004,77.94873000000007,107.56396500000028,127.94873000000007,140.51269500000035,161.53857400000015,205.6411130000006,268.46142599999985,132.6923829999996,423.9741210000002,222.17968800000017
211,143.9741210000002,-62.948729999999614,161.53857400000015,135.12841800000024,72.94873000000007,107.56396500000028,121.41015599999992,138.9741210000002,161.6665039999998,203.20507799999996,263.7177729999994,131.15380900000036,421.9228520000006,216.15380900000036
212,139.48730499999965,-65.64111300000013,161.41015599999992,135.12841800000024,71.2822270000006,108.46142599999985,116.15380900000036,139.7436520000001,165.6411130000006,206.2822270000006,263.5898440000001,130.12841800000024,422.05126999999993,212.3076170000004
213,140.51269500000035,-67.69238299999961,163.84619099999964,138.0771479999994,75.0,109.35888699999941,116.0258789999998,144.61523400000078,172.82031300000017,214.7436520000001,268.20507799999996,131.2822270000006,424.3588869999994,211.41015599999992
214,144.3588869999994,-70.64111300000013,166.2822270000006,143.0771479999994,82.17968800000017,108.84619099999964,120.12841800000024,151.79492200000004,179.3588869999994,224.10253900000043,273.5898440000001,133.84619099999964,426.53857400000015,211.6665039999998
215,145.38476599999922,-75.89746100000002,166.0258789999998,147.6923829999996,88.20507799999996,106.9228520000006,124.23095699999976,156.6665039999998,181.41015599999992,228.84619099999964,273.84619099999964,135.51269500000035,425.12841800000024,210.38476599999922
216,140.0,-83.58984399999963,162.82031300000017,149.61523400000078,89.23095699999976,105.0,125.12841800000024,155.6411130000006,177.56396500000028,226.15380900000036,266.4101559999999,134.61523400000078,418.84619099999964,205.6411130000006
217,130.12841800000024,-92.05127000000039,159.48730499999965,148.58984400000008,85.51269500000035,104.87158199999976,123.3334960000002,150.12841800000024,171.41015599999992,219.10253900000043,254.48730499999965,131.6665039999998,409.7436520000001,198.0771479999994
218,121.53857400000015,-98.46142599999985,158.46142599999985,146.53857400000015,80.89746099999957,107.17968800000017,121.6665039999998,144.87158199999976,168.20507799999996,213.58984400000008,244.10253900000043,128.9741210000002,400.89746099999957,190.51269500000035
219,118.20507799999996,-101.02563499999997,159.3588869999994,145.76904300000024,78.58984400000008,110.51269500000035,122.43603499999972,144.10253900000043,170.38476599999922,213.58984400000008,238.58984400000008,128.3334960000002,392.82031300000017,185.2563479999999
220,118.20507799999996,-100.76928699999962,159.10253900000043,146.6665039999998,77.69238299999961,112.43603499999972,124.74365200000011,147.43603499999972,174.7436520000001,216.79492200000004,235.51269500000035,128.46142599999985,382.17968800000017,181.15380900000036
221,115.12841800000024,-100.64111300000013,154.3588869999994,147.43603499999972,75.0,111.79492200000004,125.25634799999989,150.6411130000006,175.12841800000024,216.53857400000015,229.10253900000043,126.79492200000004,366.15380900000036,175.0
222,105.76904300000024,-102.30761700000039,145.2563479999999,146.79492200000004,69.74365200000011,109.10253900000043,121.9228520000006,149.87158199999976,168.84619099999964,208.9741210000002,216.6665039999998,122.17968800000017,345.3847659999992,165.12841800000024
223,93.46142599999985,-103.71801800000003,135.6411130000006,145.2563479999999,65.0,106.6665039999998,116.9228520000006,145.0,159.23095699999976,196.9228520000006,201.15380900000036,116.9228520000006,325.0,153.7177729999994
224,85.64111300000059,-101.15380900000036,130.38476599999922,145.6411130000006,65.0,106.2822270000006,115.25634799999989,140.51269500000035,153.0771479999994,186.9228520000006,188.9741210000002,113.84619099999964,311.0258789999998,145.6411130000006
225,87.05126999999993,-93.20507799999996,131.79492200000004,149.7436520000001,70.64111300000059,107.94873000000007,119.87158199999976,140.51269500000035,153.84619099999964,183.46142599999985,184.48730499999965,114.23095699999976,305.2563479999999,143.9741210000002
226,95.51269500000035,-82.94872999999961,137.3076170000004,156.9228520000006,78.58984400000008,110.25634799999989,128.46142599999985,145.38476599999922,159.23095699999976,185.2563479999999,186.0258789999998,116.2822270000006,304.48730499999965,147.17968800000017
227,103.9741210000002,-74.48706099999981,141.9228520000006,164.48730499999965,83.9741210000002,112.17968800000017,135.38476599999922,150.6411130000006,163.58984400000008,187.82031300000017,187.43603499999972,117.82031300000017,301.9228520000006,150.12841800000024
228,106.53857400000015,-70.0,142.94873000000007,170.6411130000006,84.87158199999976,112.69238299999961,136.9228520000006,151.79492200000004,162.17968800000017,187.56396500000028,184.23095699999976,117.43603499999972,293.0771479999994,149.48730499999965
229,103.0771479999994,-68.07690400000001,142.17968800000017,176.15380900000036,83.7177729999994,111.6665039999998,134.3588869999994,148.84619099999964,155.6411130000006,184.61523400000078,176.79492200000004,116.15380900000036,278.3334960000002,146.53857400000015
230,98.20507799999996,-66.02563499999997,142.6923829999996,182.94873000000007,83.7177729999994,109.10253900000043,131.41015599999992,144.23095699999976,147.6923829999996,181.0258789999998,169.48730499999965,115.25634799999989,262.17968800000017,144.87158199999976
231,96.15380900000036,-63.33325200000036,145.89746099999957,190.76904300000024,85.76904300000024,106.0258789999998,130.51269500000035,139.87158199999976,141.6665039999998,177.6923829999996,164.7436520000001,115.64111300000059,248.46142599999985,146.15380900000036
232,97.56396500000028,-60.89746100000002,149.7436520000001,197.3076170000004,87.30761700000039,103.3334960000002,130.6411130000006,135.38476599999922,137.56396500000028,173.7177729999994,160.76904300000024,116.6665039999998,237.6923829999996,147.82031300000017
233,99.61523400000078,-59.74365200000011,150.76904300000024,200.76904300000024,85.89746099999957,101.9228520000006,129.3588869999994,130.12841800000024,133.58984400000008,167.82031300000017,153.9741210000002,117.30761700000039,228.46142599999985,146.0258789999998
234,99.48730499999965,-58.20507799999996,148.0771479999994,202.3076170000004,82.30761700000039,101.79492200000004,126.0258789999998,124.35888699999941,129.3588869999994,161.2822270000006,143.9741210000002,116.41015599999992,219.7436520000001,140.0
235,97.43603499999972,-53.974365000000034,144.3588869999994,205.2563479999999,80.12841800000024,102.82031300000017,122.56396500000028,120.38476599999922,126.79492200000004,157.17968800000017,134.23095699999976,114.48730499999965,212.94873000000007,133.0771479999994
236,96.2822270000006,-46.28198199999997,143.58984400000008,212.3076170000004,83.3334960000002,105.12841800000024,122.05126999999993,120.25634799999989,127.94873000000007,157.6923829999996,128.9741210000002,113.46142599999985,209.23095699999976,129.7436520000001
237,98.20507799999996,-37.30761700000039,147.3076170000004,222.3076170000004,91.53857400000015,107.69238299999961,125.12841800000024,123.84619099999964,132.56396500000028,161.41015599999992,129.3588869999994,114.61523400000078,207.82031300000017,131.53857400000015
238,101.41015599999992,-31.41015600000037,152.3076170000004,230.38476599999922,100.25634799999989,109.10253900000043,129.3588869999994,127.43603499999972,137.17968800000017,163.46142599999985,131.79492200000004,116.79492200000004,205.0,135.12841800000024
239,101.6665039999998,-31.538574000000153,153.0771479999994,231.41015599999992,103.58984400000008,109.35888699999941,131.2822270000006,126.6665039999998,137.3076170000004,159.87158199999976,131.2822270000006,117.43603499999972,197.56396500000028,134.7436520000001
240,97.17968800000017,-36.153809000000365,147.6923829999996,225.51269500000035,100.12841800000024,109.61523400000078,129.23095699999976,120.25634799999989,131.6665039999998,150.89746099999957,125.12841800000024,115.12841800000024,186.2822270000006,128.46142599999985
241,90.89746099999957,-40.1281740000004,140.51269500000035,218.46142599999985,94.48730499999965,111.6665039999998,125.38476599999922,112.69238299999961,123.9741210000002,142.43603499999972,116.15380900000036,111.41015599999992,175.2563479999999,119.87158199999976
242,88.7177729999994,-38.58984399999963,137.94873000000007,217.82031300000017,93.0771479999994,114.61523400000078,123.84619099999964,110.0,120.38476599999922,141.0258789999998,109.87158199999976,109.23095699999976,168.9741210000002,115.64111300000059
243,93.84619099999964,-29.8718259999996,143.0771479999994,226.9228520000006,98.46142599999985,116.6665039999998,127.17968800000017,115.76904300000024,124.74365200000011,148.3334960000002,109.61523400000078,110.64111300000059,168.7177729999994,119.48730499999965
244,103.84619099999964,-17.051270000000386,152.6923829999996,241.79492200000004,108.20507799999996,116.15380900000036,133.3334960000002,127.56396500000028,134.87158199999976,159.48730499999965,114.48730499999965,114.61523400000078,171.0258789999998,128.7177729999994
245,112.43603499999972,-5.512939000000188,159.87158199999976,253.7177729999994,116.79492200000004,113.20507799999996,137.82031300000017,138.7177729999994,144.23095699999976,166.53857400000015,119.61523400000078,118.3334960000002,170.38476599999922,135.76904300000024
246,113.46142599999985,0.256347999999889,159.10253900000043,255.38476599999922,118.84619099999964,109.23095699999976,136.41015599999992,142.6923829999996,146.15380900000036,163.9741210000002,119.10253900000043,118.46142599999985,163.46142599999985,134.10253900000043
247,104.74365200000011,-1.4101559999999154,150.0,245.89746099999957,112.94873000000007,105.51269500000035,129.23095699999976,138.20507799999996,139.23095699999976,152.82031300000017,110.76904300000024,113.46142599999985,151.0258789999998,123.58984400000008
248,90.38476599999922,-7.948729999999614,137.43603499999972,231.15380900000036,101.6665039999998,103.3334960000002,120.38476599999922,129.48730499999965,127.43603499999972,138.9741210000002,98.20507799999996,105.64111300000059,137.43603499999972,110.12841800000024
249,77.43603499999972,-15.1281740000004,127.94873000000007,219.3588869999994,91.0258789999998,103.58984400000008,114.61523400000078,123.3334960000002,118.0771479999994,128.84619099999964,87.17968800000017,98.84619099999964,126.53857400000015,100.25634799999989
250,70.51269500000035,-19.74365200000011,124.74365200000011,215.12841800000024,86.41015599999992,105.76904300000024,113.84619099999964,123.3334960000002,116.2822270000006,125.64111300000059,81.53857400000015,96.15380900000036,118.9741210000002,96.0258789999998
251,69.23095699999976,-20.641113000000132,126.15380900000036,217.6923829999996,88.46142599999985,107.82031300000017,116.0258789999998,127.56396500000028,121.41015599999992,127.82031300000017,80.25634799999989,97.43603499999972,112.94873000000007,94.87158199999976
252,69.23095699999976,-18.076904000000013,128.3334960000002,222.3076170000004,94.35888699999941,107.69238299999961,117.94873000000007,131.53857400000015,128.58984400000008,131.2822270000006,80.76904300000024,100.12841800000024,107.17968800000017,92.56396500000028
253,67.56396500000028,-13.461425999999847,128.46142599999985,225.2563479999999,99.74365200000011,105.51269500000035,118.0771479999994,132.94873000000007,132.94873000000007,132.94873000000007,81.6665039999998,101.79492200000004,102.43603499999972,88.3334960000002
254,65.12841800000024,-7.435790999999426,127.82031300000017,226.9228520000006,102.56396500000028,103.46142599999985,117.43603499999972,132.17968800000017,133.0771479999994,133.9741210000002,83.84619099999964,101.79492200000004,100.76904300000024,85.51269500000035
255,65.38476599999922,-0.769043000000238,129.3588869999994,230.0,103.0771479999994,103.9741210000002,118.0771479999994,131.79492200000004,131.41015599999992,137.05126999999993,88.20507799999996,101.79492200000004,103.20507799999996,87.94873000000007
256,69.74365200000011,5.3847659999992175,134.23095699999976,236.0258789999998,102.94873000000007,106.53857400000015,121.2822270000006,133.46142599999985,131.2822270000006,143.46142599999985,93.84619099999964,103.0771479999994,107.69238299999961,95.89746099999957
257,75.51269500000035,9.358886999999413,139.48730499999965,242.6923829999996,102.82031300000017,108.9741210000002,125.12841800000024,136.2822270000006,133.3334960000002,150.38476599999922,97.43603499999972,105.51269500000035,109.61523400000078,104.10253900000043
258,78.20507799999996,10.0,141.2822270000006,245.51269500000035,102.05126999999993,109.48730499999965,126.79492200000004,137.6923829999996,135.38476599999922,152.6923829999996,96.53857400000015,106.9228520000006,106.15380900000036,106.53857400000015
259,75.51269500000035,8.461425999999847,138.3334960000002,243.0771479999994,100.51269500000035,108.46142599999985,124.87158199999976,136.0258789999998,135.0,148.0771479999994,90.89746099999957,106.0258789999998,98.7177729999994,101.2822270000006
260,70.76904300000024,7.56396500000028,134.10253900000043,238.0771479999994,99.87158199999976,108.0771479999994,121.2822270000006,132.94873000000007,132.82031300000017,139.87158199999976,84.61523400000078,103.3334960000002,92.69238299999961,92.82031300000017
261,68.7177729999994,10.256347999999889,132.94873000000007,235.12841800000024,101.53857400000015,109.35888699999941,119.87158199999976,131.53857400000015,131.2822270000006,134.23095699999976,82.17968800000017,100.76904300000024,92.56396500000028,87.82031300000017
262,71.9228520000006,16.410155999999915,136.15380900000036,236.15380900000036,105.38476599999922,111.53857400000015,122.05126999999993,133.3334960000002,131.9228520000006,134.61523400000078,85.0,99.87158199999976,97.69238299999961,89.87158199999976
263,78.58984400000008,23.461425999999847,140.76904300000024,239.10253900000043,108.84619099999964,112.82031300000017,125.89746099999957,135.76904300000024,133.7177729999994,138.46142599999985,89.48730499999965,100.64111300000059,102.43603499999972,96.53857400000015
264,84.87158199999976,28.077147999999397,142.6923829999996,240.38476599999922,111.0258789999998,112.17968800000017,127.17968800000017,135.38476599999922,133.58984400000008,140.2563479999999,90.89746099999957,101.9228520000006,101.41015599999992,101.9228520000006
265,87.43603499999972,28.461425999999847,140.2563479999999,238.0771479999994,112.05126999999993,110.51269500000035,124.23095699999976,130.6411130000006,130.12841800000024,136.41015599999992,86.6665039999998,102.69238299999961,93.58984400000008,101.53857400000015
266,85.38476599999922,26.153809000000365,135.6411130000006,232.6923829999996,112.82031300000017,109.35888699999941,118.7177729999994,123.3334960000002,123.7177729999994,127.94873000000007,79.48730499999965,102.82031300000017,82.82031300000017,95.51269500000035
267,80.51269500000035,24.48730499999965,131.9228520000006,226.2822270000006,113.58984400000008,109.74365200000011,114.35888699999941,117.69238299999961,117.30761700000039,120.0,74.48730499999965,102.56396500000028,74.35888699999941,87.56396500000028
268,76.2822270000006,26.153809000000365,130.6411130000006,221.0258789999998,113.58984400000008,111.15380900000036,113.84619099999964,116.2822270000006,113.7177729999994,117.43603499999972,74.74365200000011,102.30761700000039,71.53857400000015,82.17968800000017
269,75.25634799999989,31.538574000000153,131.2822270000006,217.82031300000017,111.9228520000006,112.82031300000017,117.05126999999993,118.7177729999994,113.9741210000002,121.6665039999998,79.74365200000011,102.43603499999972,73.3334960000002,81.2822270000006
270,77.82031300000017,37.56396500000028,132.82031300000017,216.53857400000015,108.0771479999994,114.35888699999941,121.0258789999998,121.9228520000006,116.6665039999998,128.9741210000002,85.89746099999957,102.82031300000017,76.79492200000004,84.35888699999941
271,81.6665039999998,41.153809000000365,134.23095699999976,215.76904300000024,103.7177729999994,115.64111300000059,122.43603499999972,122.69238299999961,119.10253900000043,133.9741210000002,89.61523400000078,102.82031300000017,79.10253900000043,88.84619099999964
272,84.35888699999941,41.025878999999804,135.2563479999999,215.0,102.05126999999993,116.41015599999992,120.25634799999989,120.12841800000024,119.87158199999976,133.7177729999994,89.87158199999976,101.9228520000006,78.3334960000002,91.2822270000006
273,83.9741210000002,38.974121000000196,134.87158199999976,214.61523400000078,105.64111300000059,116.15380900000036,115.89746099999957,116.15380900000036,118.7177729999994,128.9741210000002,87.17968800000017,100.76904300000024,74.23095699999976,89.87158199999976
274,80.12841800000024,37.69238299999961,132.82031300000017,214.87158199999976,112.82031300000017,114.48730499999965,112.56396500000028,113.3334960000002,117.05126999999993,122.69238299999961,82.69238299999961,99.74365200000011,67.56396500000028,85.12841800000024
275,73.9741210000002,39.48730499999965,128.9741210000002,215.2563479999999,119.61523400000078,112.17968800000017,111.53857400000015,113.46142599999985,115.76904300000024,117.82031300000017,78.3334960000002,99.10253900000043,60.25634799999989,79.61523400000078
276,68.3334960000002,44.35888699999941,125.0,213.3334960000002,122.82031300000017,110.38476599999922,112.43603499999972,116.0258789999998,115.89746099999957,115.38476599999922,76.0258789999998,98.9741210000002,55.0,76.2822270000006
277,66.2822270000006,50.25634799999989,122.43603499999972,207.3076170000004,122.05126999999993,110.25634799999989,113.84619099999964,119.35888699999941,117.56396500000028,115.38476599999922,76.53857400000015,98.9741210000002,53.974121000000196,76.6665039999998
278,69.23095699999976,54.102539000000434,122.43603499999972,197.82031300000017,118.84619099999964,111.79492200000004,114.74365200000011,121.2822270000006,119.74365200000011,117.69238299999961,79.35888699999941,98.7177729999994,57.43603499999972,79.87158199999976
279,75.51269500000035,54.48730499999965,124.48730499999965,187.56396500000028,114.61523400000078,113.0771479999994,114.87158199999976,120.76904300000024,121.2822270000006,121.53857400000015,82.94873000000007,98.20507799999996,63.589844000000085,83.7177729999994
280,81.53857400000015,52.17968800000017,126.79492200000004,179.87158199999976,110.76904300000024,112.30761700000039,114.48730499999965,118.46142599999985,121.15380900000036,125.76904300000024,86.2822270000006,98.20507799999996,68.9741210000002,86.15380900000036
281,85.38476599999922,51.153809000000365,127.82031300000017,176.15380900000036,108.3334960000002,109.48730499999965,114.23095699999976,116.41015599999992,119.48730499999965,128.58984400000008,89.35888699999941,99.23095699999976,71.41015599999992,86.9228520000006
282,86.79492200000004,55.0,127.43603499999972,175.6411130000006,108.84619099999964,106.41015599999992,114.74365200000011,116.41015599999992,117.56396500000028,128.7177729999994,92.30761700000039,100.76904300000024,70.64111300000059,87.17968800000017
283,86.79492200000004,63.46142599999985,126.9228520000006,175.89746099999957,112.56396500000028,106.41015599999992,115.25634799999989,118.0771479999994,117.17968800000017,126.2822270000006,94.87158199999976,102.17968800000017,68.7177729999994,87.94873000000007
284,85.89746099999957,72.17968800000017,127.56396500000028,173.84619099999964,118.20507799999996,109.87158199999976,114.74365200000011,119.48730499999965,117.94873000000007,122.05126999999993,96.41015599999992,102.56396500000028,67.17968800000017,88.7177729999994
285,83.3334960000002,75.25634799999989,128.84619099999964,167.56396500000028,122.94873000000007,113.9741210000002,111.6665039999998,118.20507799999996,118.7177729999994,117.69238299999961,95.51269500000035,101.2822270000006,66.6665039999998,87.56396500000028
286,79.48730499999965,70.38476599999922,129.3588869999994,157.82031300000017,124.23095699999976,115.0,106.9228520000006,113.9741210000002,117.56396500000028,115.12841800000024,91.79492200000004,97.94873000000007,66.2822270000006,83.84619099999964
287,76.15380900000036,61.9228520000006,128.20507799999996,148.3334960000002,122.43603499999972,112.17968800000017,102.69238299999961,109.10253900000043,114.35888699999941,115.0,86.9228520000006,93.7177729999994,65.12841800000024,78.46142599999985
288,75.12841800000024,56.53857400000015,125.89746099999957,142.82031300000017,120.25634799999989,108.3334960000002,101.6665039999998,106.2822270000006,111.15380900000036,116.41015599999992,83.20507799999996,89.87158199999976,62.94873000000007,73.7177729999994
289,75.89746099999957,57.94873000000007,123.0771479999994,141.79492200000004,119.23095699999976,106.6665039999998,103.84619099999964,107.17968800000017,109.61523400000078,117.30761700000039,81.9228520000006,87.69238299999961,59.74365200000011,70.89746099999957
290,76.6665039999998,64.61523400000078,120.25634799999989,142.43603499999972,118.20507799999996,107.82031300000017,106.53857400000015,110.76904300000024,110.12841800000024,115.51269500000035,82.69238299999961,87.30761700000039,55.897460999999566,70.25634799999989
291,75.76904300000024,71.0258789999998,118.20507799999996,140.76904300000024,115.76904300000024,109.74365200000011,106.9228520000006,114.48730499999965,111.6665039999998,111.15380900000036,83.3334960000002,88.58984400000008,52.69238299999961,70.76904300000024
292,74.23095699999976,73.46142599999985,117.69238299999961,136.0258789999998,113.20507799999996,110.25634799999989,104.48730499999965,116.0258789999998,113.20507799999996,106.9228520000006,83.20507799999996,91.6665039999998,51.9228520000006,72.43603499999972
293,75.12841800000024,72.43603499999972,119.35888699999941,130.6411130000006,113.9741210000002,109.23095699999976,102.05126999999993,115.64111300000059,114.74365200000011,106.15380900000036,83.46142599999985,96.79492200000004,55.25634799999989,76.15380900000036
294,79.74365200000011,71.15380900000036,123.0771479999994,126.79492200000004,119.61523400000078,107.56396500000028,102.94873000000007,115.12841800000024,116.6665039999998,109.87158199999976,85.89746099999957,101.79492200000004,62.17968800000017,82.05126999999993
295,86.41015599999992,72.30761700000039,127.56396500000028,124.87158199999976,127.43603499999972,107.17968800000017,107.94873000000007,115.89746099999957,118.46142599999985,116.0258789999998,90.25634799999989,103.84619099999964,68.9741210000002,87.82031300000017
296,90.76904300000024,75.12841800000024,130.0,122.82031300000017,132.05126999999993,108.9741210000002,114.10253900000043,117.43603499999972,118.58984400000008,120.51269500000035,93.7177729999994,101.53857400000015,70.64111300000059,90.0
297,89.35888699999941,76.2822270000006,128.20507799999996,119.10253900000043,129.87158199999976,111.79492200000004,117.43603499999972,118.3334960000002,116.2822270000006,120.0,93.46142599999985,96.53857400000015,64.61523400000078,86.0258789999998
298,82.30761700000039,73.9741210000002,122.56396500000028,113.46142599999985,121.6665039999998,112.94873000000007,115.51269500000035,117.43603499999972,111.41015599999992,113.9741210000002,88.46142599999985,91.53857400000015,52.43603499999972,76.9228520000006
299,73.84619099999964,69.74365200000011,116.53857400000015,107.17968800000017,113.46142599999985,111.41015599999992,108.9741210000002,115.25634799999989,105.51269500000035,105.25634799999989,81.41015599999992,89.10253900000043,40.0,67.43603499999972
300,69.61523400000078,67.43603499999972,113.84619099999964,103.0771479999994,111.9228520000006,108.20507799999996,101.9228520000006,113.3334960000002,100.89746099999957,98.84619099999964,76.79492200000004,90.12841800000024,33.0771479999994,62.82031300000017
301,72.43603499999972,70.38476599999922,115.51269500000035,102.82031300000017,118.9741210000002,105.51269500000035,98.84619099999964,113.3334960000002,99.48730499999965,97.82031300000017,77.43603499999972,93.0771479999994,34.48730499999965,65.51269500000035
302,80.0,77.82031300000017,118.7177729999994,106.0258789999998,129.48730499999965,105.12841800000024,101.0258789999998,115.0,101.53857400000015,101.41015599999992,82.43603499999972,95.76904300000024,42.43603499999972,73.20507799999996
303,86.9228520000006,85.25634799999989,120.12841800000024,110.12841800000024,135.89746099999957,107.17968800000017,105.76904300000024,116.53857400000015,105.25634799999989,105.76904300000024,87.43603499999972,97.05126999999993,51.53857400000015,80.51269500000035
304,89.10253900000043,88.9741210000002,118.9741210000002,112.69238299999961,134.7436520000001,110.25634799999989,109.48730499999965,115.89746099999957,107.69238299999961,107.43603499999972,89.35888699999941,96.53857400000015,56.53857400000015,83.0771479999994
305,86.53857400000015,88.9741210000002,117.05126999999993,112.56396500000028,128.46142599999985,112.43603499999972,110.0,113.20507799999996,107.82031300000017,105.64111300000059,87.94873000000007,95.51269500000035,56.025878999999804,81.0258789999998
306,81.6665039999998,87.30761700000039,116.15380900000036,109.74365200000011,122.56396500000028,112.82031300000017,108.3334960000002,110.25634799999989,106.2822270000006,102.43603499999972,85.51269500000035,94.61523400000078,52.05126999999993,77.43603499999972
307,76.41015599999992,86.0258789999998,116.2822270000006,104.74365200000011,119.87158199999976,111.9228520000006,106.0258789999998,108.0771479999994,104.10253900000043,99.61523400000078,84.23095699999976,92.94873000000007,47.94873000000007,74.74365200000011
308,72.30761700000039,85.25634799999989,115.76904300000024,98.20507799999996,119.74365200000011,110.89746099999957,103.84619099999964,106.0258789999998,101.41015599999992,98.3334960000002,84.10253900000043,90.12841800000024,45.51269500000035,72.82031300000017
309,69.87158199999976,83.84619099999964,113.20507799999996,92.30761700000039,119.23095699999976,110.76904300000024,102.30761700000039,102.56396500000028,98.58984400000008,98.20507799999996,83.84619099999964,86.6665039999998,45.38476599999922,70.89746099999957
310,70.0,81.6665039999998,109.35888699999941,89.35888699999941,117.30761700000039,111.53857400000015,101.6665039999998,98.58984400000008,96.2822270000006,98.9741210000002,83.20507799999996,84.48730499999965,46.9228520000006,69.10253900000043
311,72.82031300000017,80.64111300000059,106.79492200000004,90.64111300000059,115.51269500000035,112.82031300000017,102.17968800000017,96.9228520000006,95.64111300000059,100.64111300000059,83.46142599999985,85.25634799999989,49.61523400000078,69.35888699999941
312,77.94873000000007,82.69238299999961,107.69238299999961,95.12841800000024,116.15380900000036,113.9741210000002,103.9741210000002,99.74365200000011,97.43603499999972,102.69238299999961,86.79492200000004,88.9741210000002,52.82031300000017,72.94873000000007
313,83.84619099999964,87.56396500000028,112.56396500000028,99.87158199999976,119.35888699999941,114.61523400000078,105.89746099999957,106.6665039999998,101.0258789999998,105.0,92.94873000000007,93.9741210000002,55.76904300000024,78.84619099999964
314,88.46142599999985,92.43603499999972,119.23095699999976,102.43603499999972,122.69238299999961,113.58984400000008,106.79492200000004,113.3334960000002,104.61523400000078,106.15380900000036,99.10253900000043,97.17968800000017,57.69238299999961,84.35888699999941
315,89.35888699999941,93.7177729999994,123.9741210000002,102.17968800000017,123.20507799999996,111.15380900000036,105.64111300000059,115.76904300000024,106.2822270000006,105.51269500000035,101.2822270000006,96.79492200000004,57.94873000000007,86.53857400000015
316,85.51269500000035,89.87158199999976,123.7177729999994,100.51269500000035,119.35888699999941,108.84619099999964,102.56396500000028,112.43603499999972,105.12841800000024,102.82031300000017,97.05126999999993,93.20507799999996,55.12841800000024,83.3334960000002
317,78.84619099999964,82.17968800000017,118.20507799999996,98.7177729999994,112.30761700000039,107.82031300000017,99.10253900000043,105.89746099999957,102.05126999999993,98.7177729999994,87.82031300000017,88.3334960000002,48.46142599999985,76.15380900000036
318,72.94873000000007,74.87158199999976,110.64111300000059,97.30761700000039,105.51269500000035,108.20507799999996,96.9228520000006,100.51269500000035,98.58984400000008,94.74365200000011,77.56396500000028,84.48730499999965,39.74365200000011,68.20507799999996
319,70.64111300000059,72.30761700000039,105.51269500000035,96.15380900000036,103.20507799999996,110.0,96.79492200000004,100.25634799999989,97.05126999999993,92.43603499999972,71.79492200000004,82.94873000000007,33.20507799999996,63.846190999999635
320,72.82031300000017,76.0258789999998,105.64111300000059,96.2822270000006,107.43603499999972,112.56396500000028,99.35888699999941,106.41015599999992,99.35888699999941,93.0771479999994,73.7177729999994,84.35888699999941,33.333496000000196,65.76904300000024
321,77.94873000000007,84.23095699999976,110.38476599999922,98.7177729999994,115.76904300000024,115.38476599999922,104.87158199999976,116.15380900000036,105.76904300000024,97.43603499999972,82.56396500000028,88.7177729999994,41.153809000000365,72.94873000000007
322,83.84619099999964,92.30761700000039,116.6665039999998,103.58984400000008,122.82031300000017,116.9228520000006,112.17968800000017,124.87158199999976,113.9741210000002,104.35888699999941,93.20507799999996,94.61523400000078,53.333496000000196,81.41015599999992
323,88.58984400000008,96.41015599999992,121.15380900000036,109.35888699999941,124.23095699999976,116.6665039999998,118.84619099999964,128.46142599999985,120.51269500000035,111.0258789999998,99.74365200000011,99.48730499999965,63.7177729999994,86.9228520000006
324,91.6665039999998,95.25634799999989,121.9228520000006,113.9741210000002,120.38476599999922,115.64111300000059,121.15380900000036,126.41015599999992,122.94873000000007,114.48730499999965,99.48730499999965,101.2822270000006,67.56396500000028,87.17968800000017
325,93.58984400000008,90.89746099999957,119.87158199999976,115.25634799999989,115.38476599999922,115.25634799999989,117.69238299999961,121.2822270000006,121.2822270000006,113.3334960000002,94.74365200000011,100.38476599999922,64.61523400000078,83.3334960000002
326,95.12841800000024,86.53857400000015,116.9228520000006,112.43603499999972,112.82031300000017,115.51269500000035,110.64111300000059,116.9228520000006,117.43603499999972,108.7177729999994,90.0,98.7177729999994,58.846190999999635,77.94873000000007
327,96.0258789999998,83.84619099999964,114.74365200000011,106.9228520000006,112.56396500000028,115.76904300000024,104.61523400000078,115.12841800000024,113.9741210000002,103.7177729999994,88.3334960000002,98.20507799999996,55.12841800000024,73.0771479999994
328,95.38476599999922,82.82031300000017,114.35888699999941,101.9228520000006,111.6665039999998,115.38476599999922,102.82031300000017,115.38476599999922,112.05126999999993,100.51269500000035,89.74365200000011,98.9741210000002,56.153809000000365,70.25634799999989
329,92.69238299999961,82.69238299999961,115.38476599999922,100.51269500000035,108.46142599999985,115.12841800000024,106.0258789999998,116.6665039999998,112.56396500000028,99.87158199999976,91.9228520000006,99.87158199999976,61.153809000000365,69.74365200000011
330,89.23095699999976,83.0771479999994,117.05126999999993,104.10253900000043,104.10253900000043,115.0,111.53857400000015,118.20507799999996,114.87158199999976,101.2822270000006,92.82031300000017,99.74365200000011,67.43603499999972,71.53857400000015
331,87.56396500000028,83.9741210000002,118.3334960000002,110.76904300000024,101.53857400000015,115.0,115.38476599999922,119.74365200000011,117.30761700000039,103.0771479999994,91.41015599999992,97.94873000000007,71.9228520000006,74.10253900000043
332,89.23095699999976,85.12841800000024,118.3334960000002,116.9228520000006,102.69238299999961,115.0,115.38476599999922,120.38476599999922,118.58984400000008,103.84619099999964,88.0771479999994,95.12841800000024,72.82031300000017,75.38476599999922
333,93.0771479999994,85.51269500000035,116.9228520000006,119.35888699999941,106.2822270000006,115.76904300000024,112.43603499999972,119.35888699999941,118.20507799999996,102.30761700000039,84.87158199999976,93.3334960000002,70.64111300000059,74.74365200000011
334,96.2822270000006,84.61523400000078,114.61523400000078,118.46142599999985,110.38476599999922,117.17968800000017,109.61523400000078,117.82031300000017,116.9228520000006,99.61523400000078,83.84619099999964,94.10253900000043,67.69238299999961,73.3334960000002
335,97.56396500000028,83.9741210000002,113.46142599999985,117.17968800000017,114.23095699999976,118.3334960000002,109.61523400000078,117.69238299999961,116.0258789999998,98.58984400000008,86.53857400000015,97.30761700000039,66.6665039999998,72.94873000000007
336,97.17968800000017,85.38476599999922,114.48730499999965,118.84619099999964,117.69238299999961,118.9741210000002,112.30761700000039,119.48730499999965,116.15380900000036,100.89746099999957,91.79492200000004,101.2822270000006,68.46142599999985,74.48730499999965
337,95.89746099999957,87.69238299999961,117.05126999999993,123.3334960000002,120.0,119.23095699999976,114.23095699999976,120.51269500000035,116.53857400000015,104.23095699999976,95.64111300000059,103.46142599999985,70.64111300000059,76.79492200000004
338,92.94873000000007,88.3334960000002,118.84619099999964,127.30761700000039,118.7177729999994,119.23095699999976,112.17968800000017,118.0771479999994,115.0,103.9741210000002,94.35888699999941,102.30761700000039,69.61523400000078,76.79492200000004
339,87.94873000000007,85.64111300000059,117.56396500000028,128.20507799999996,112.82031300000017,118.84619099999964,105.76904300000024,112.05126999999993,109.48730499999965,97.43603499999972,88.0771479999994,98.46142599999985,64.10253900000043,73.0771479999994
340,83.3334960000002,81.41015599999992,113.3334960000002,126.9228520000006,104.10253900000043,118.0771479999994,99.10253900000043,105.38476599999922,101.2822270000006,87.56396500000028,81.2822270000006,94.10253900000043,56.79492200000004,67.82031300000017
341,82.30761700000039,78.84619099999964,108.9741210000002,127.56396500000028,97.69238299999961,117.05126999999993,97.43603499999972,101.41015599999992,95.0,80.76904300000024,79.61523400000078,91.53857400000015,52.56396500000028,64.87158199999976
342,86.53857400000015,80.89746099999957,108.3334960000002,133.46142599999985,98.58984400000008,116.2822270000006,102.30761700000039,102.94873000000007,94.61523400000078,82.17968800000017,85.51269500000035,92.17968800000017,54.74365200000011,67.30761700000039
343,94.10253900000043,87.17968800000017,112.94873000000007,143.84619099999964,106.79492200000004,116.15380900000036,110.38476599999922,109.74365200000011,101.15380900000036,91.0258789999998,96.53857400000015,95.64111300000059,62.30761700000039,74.35888699999941
344,100.64111300000059,94.23095699999976,119.87158199999976,154.61523400000078,116.9228520000006,116.2822270000006,116.15380900000036,117.94873000000007,110.51269500000035,101.0258789999998,106.9228520000006,99.74365200000011,70.25634799999989,82.82031300000017
345,102.69238299999961,97.56396500000028,124.10253900000043,160.51269500000035,121.6665039999998,116.41015599999992,115.89746099999957,122.56396500000028,117.05126999999993,105.12841800000024,111.15380900000036,101.6665039999998,73.7177729999994,87.56396500000028
346,100.12841800000024,94.87158199999976,122.30761700000039,159.61523400000078,117.82031300000017,116.2822270000006,110.38476599999922,120.51269500000035,116.79492200000004,101.0258789999998,107.82031300000017,100.64111300000059,71.41015599999992,85.89746099999957
347,95.25634799999989,87.94873000000007,115.12841800000024,154.7436520000001,108.84619099999964,116.15380900000036,103.20507799999996,113.20507799999996,110.12841800000024,92.30761700000039,100.25634799999989,97.30761700000039,66.15380900000036,78.9741210000002
348,91.9228520000006,81.79492200000004,107.05126999999993,151.53857400000015,101.79492200000004,115.76904300000024,98.0771479999994,105.64111300000059,101.53857400000015,85.76904300000024,93.9741210000002,93.7177729999994,62.43603499999972,71.6665039999998
349,92.30761700000039,80.76904300000024,102.43603499999972,153.58984400000008,101.53857400000015,115.51269500000035,97.30761700000039,102.17968800000017,96.15380900000036,86.0258789999998,93.0771479999994,91.9228520000006,62.69238299999961,68.46142599999985
350,95.89746099999957,85.89746099999957,103.20507799999996,161.0258789999998,107.30761700000039,115.38476599999922,101.41015599999992,104.35888699999941,96.6665039999998,92.43603499999972,97.17968800000017,93.20507799999996,66.2822270000006,70.89746099999957
351,100.0,94.23095699999976,108.58984400000008,170.2563479999999,114.10253900000043,115.76904300000024,108.84619099999964,110.64111300000059,102.69238299999961,100.51269500000035,102.30761700000039,96.6665039999998,70.38476599999922,76.9228520000006
352,102.43603499999972,101.41015599999992,115.64111300000059,177.3076170000004,117.82031300000017,116.41015599999992,116.53857400000015,117.43603499999972,111.2822270000006,105.38476599999922,105.25634799999989,100.0,72.94873000000007,83.20507799999996
353,102.56396500000028,104.10253900000043,120.89746099999957,181.2822270000006,117.94873000000007,116.79492200000004,121.15380900000036,121.15380900000036,118.3334960000002,105.76904300000024,105.64111300000059,101.41015599999992,73.84619099999964,86.79492200000004
354,101.41015599999992,102.30761700000039,121.53857400000015,183.7177729999994,116.2822270000006,116.2822270000006,120.64111300000059,120.12841800000024,120.25634799999989,103.58984400000008,104.35888699999941,100.76904300000024,74.10253900000043,86.41015599999992
355,100.25634799999989,98.0771479999994,117.56396500000028,186.0258789999998,114.48730499999965,115.38476599999922,115.51269500000035,114.61523400000078,115.51269500000035,101.53857400000015,102.30761700000039,99.48730499999965,73.84619099999964,82.43603499999972
356,99.74365200000011,93.9741210000002,111.53857400000015,188.84619099999964,113.9741210000002,114.87158199999976,109.48730499999965,107.05126999999993,107.05126999999993,100.38476599999922,100.12841800000024,98.46142599999985,72.43603499999972,77.30761700000039
357,99.87158199999976,92.43603499999972,107.69238299999961,191.9228520000006,115.25634799999989,115.0,106.2822270000006,101.2822270000006,100.89746099999957,100.38476599999922,99.61523400000078,98.3334960000002,70.51269500000035,74.10253900000043
358,100.12841800000024,94.61523400000078,108.46142599999985,194.7436520000001,117.69238299999961,115.64111300000059,106.9228520000006,99.74365200000011,101.41015599999992,101.79492200000004,102.17968800000017,99.35888699999941,69.61523400000078,75.0
359,100.38476599999922,99.35888699999941,112.43603499999972,196.0258789999998,118.3334960000002,116.15380900000036,109.23095699999976,101.6665039999998,107.43603499999972,103.46142599999985,107.30761700000039,100.51269500000035,71.0258789999998,79.10253900000043
360,100.12841800000024,102.94873000000007,115.76904300000024,194.3588869999994,114.87158199999976,116.15380900000036,110.0,103.3334960000002,113.3334960000002,103.84619099999964,111.2822270000006,100.64111300000059,74.10253900000043,83.20507799999996
361,99.35888699999941,102.30761700000039,115.51269500000035,190.51269500000035,108.0771479999994,115.76904300000024,107.82031300000017,102.17968800000017,114.10253900000043,101.79492200000004,111.15380900000036,99.10253900000043,76.9228520000006,84.10253900000043
362,98.7177729999994,98.20507799999996,112.30761700000039,187.43603499999972,102.56396500000028,115.38476599999922,104.74365200000011,99.61523400000078,109.10253900000043,98.9741210000002,107.43603499999972,97.05126999999993,79.23095699999976,82.30761700000039
363,99.87158199999976,95.0,109.35888699999941,188.9741210000002,103.0771479999994,115.25634799999989,104.48730499999965,99.61523400000078,103.20507799999996,98.7177729999994,103.9741210000002,96.6665039999998,81.9228520000006,81.0258789999998
364,103.46142599999985,96.41015599999992,109.48730499999965,196.41015599999992,111.0258789999998,115.51269500000035,108.84619099999964,103.9741210000002,101.79492200000004,102.43603499999972,104.23095699999976,98.7177729999994,86.15380900000036,83.46142599999985
365,108.0771479999994,101.6665039999998,112.56396500000028,206.15380900000036,122.43603499999972,115.76904300000024,115.25634799999989,109.74365200000011,105.89746099999957,108.46142599999985,108.20507799999996,101.9228520000006,90.51269500000035,88.58984400000008
366,110.51269500000035,105.51269500000035,115.0,211.79492200000004,130.2563479999999,115.64111300000059,118.3334960000002,112.05126999999993,111.15380900000036,112.05126999999993,112.17968800000017,103.9741210000002,91.53857400000015,91.15380900000036
367,107.69238299999961,102.82031300000017,113.0771479999994,209.3588869999994,129.3588869999994,115.38476599999922,114.87158199999976,107.82031300000017,111.79492200000004,108.9741210000002,111.53857400000015,103.20507799999996,86.79492200000004,87.05126999999993
368,100.12841800000024,93.84619099999964,106.41015599999992,200.38476599999922,120.25634799999989,115.25634799999989,106.53857400000015,98.7177729999994,105.64111300000059,99.87158199999976,105.0,99.48730499999965,78.20507799999996,76.6665039999998
369,92.94873000000007,84.23095699999976,98.9741210000002,192.05126999999993,109.61523400000078,115.64111300000059,98.84619099999964,90.38476599999922,96.79492200000004,90.76904300000024,96.41015599999992,94.74365200000011,71.6665039999998,66.9228520000006
370,92.05126999999993,81.79492200000004,96.6665039999998,191.15380900000036,105.76904300000024,116.15380900000036,97.94873000000007,89.61523400000078,93.20507799999996,89.23095699999976,92.56396500000028,91.9228520000006,73.20507799999996,65.25634799999989
371,99.48730499999965,90.0,102.17968800000017,199.10253900000043,112.05126999999993,116.9228520000006,105.89746099999957,99.10253900000043,99.48730499999965,98.20507799999996,98.20507799999996,92.69238299999961,83.9741210000002,74.61523400000078
372,111.2822270000006,104.74365200000011,112.30761700000039,210.89746099999957,124.74365200000011,117.30761700000039,118.0771479999994,114.35888699999941,112.69238299999961,112.05126999999993,110.89746099999957,96.79492200000004,98.58984400000008,89.87158199999976
373,119.61523400000078,116.79492200000004,120.25634799999989,218.58984400000008,135.89746099999957,117.30761700000039,126.79492200000004,126.2822270000006,123.46142599999985,121.41015599999992,122.82031300000017,101.53857400000015,108.7177729999994,101.2822270000006
374,119.23095699999976,119.23095699999976,120.64111300000059,217.94873000000007,139.23095699999976,116.79492200000004,126.41015599999992,127.69238299999961,124.87158199999976,119.87158199999976,126.15380900000036,103.9741210000002,108.7177729999994,101.9228520000006
375,111.0258789999998,111.79492200000004,113.58984400000008,212.17968800000017,133.9741210000002,115.64111300000059,118.20507799999996,119.35888699999941,117.43603499999972,109.87158199999976,119.87158199999976,102.82031300000017,99.35888699999941,92.82031300000017
376,101.2822270000006,101.15380900000036,104.87158199999976,207.82031300000017,124.74365200000011,114.74365200000011,107.82031300000017,108.20507799999996,108.46142599999985,99.48730499999965,109.87158199999976,99.61523400000078,86.53857400000015,81.79492200000004
377,96.79492200000004,95.38476599999922,100.12841800000024,209.48730499999965,117.69238299999961,114.35888699999941,101.41015599999992,101.79492200000004,105.12841800000024,95.64111300000059,102.94873000000007,97.30761700000039,77.69238299999961,76.79492200000004
378,99.48730499999965,97.82031300000017,100.89746099999957,216.0258789999998,115.64111300000059,114.74365200000011,101.15380900000036,103.3334960000002,108.3334960000002,99.10253900000043,101.9228520000006,97.30761700000039,75.38476599999922,80.0
379,105.64111300000059,104.74365200000011,103.9741210000002,221.9228520000006,117.69238299999961,115.89746099999957,105.89746099999957,110.0,113.7177729999994,104.87158199999976,103.7177729999994,98.84619099999964,76.79492200000004,86.2822270000006
380,109.23095699999976,108.9741210000002,106.15380900000036,222.3076170000004,120.76904300000024,116.79492200000004,112.69238299999961,115.89746099999957,116.2822270000006,107.30761700000039,104.74365200000011,100.0,76.9228520000006,88.9741210000002
381,107.17968800000017,106.41015599999992,106.0258789999998,217.05126999999993,121.79492200000004,116.79492200000004,117.94873000000007,117.82031300000017,114.61523400000078,105.51269500000035,103.7177729999994,99.48730499999965,73.58984400000008,85.51269500000035
382,101.41015599999992,99.23095699999976,104.48730499999965,210.6411130000006,120.0,115.76904300000024,119.48730499999965,116.15380900000036,110.89746099999957,102.30761700000039,102.17968800000017,97.69238299999961,69.23095699999976,79.74365200000011
383,97.43603499999972,93.9741210000002,103.9741210000002,208.7177729999994,116.79492200000004,114.61523400000078,117.82031300000017,114.23095699999976,108.7177729999994,102.05126999999993,102.82031300000017,96.2822270000006,68.3334960000002,77.94873000000007
