,EEG.AF3,EEG.F7,EEG.F3,EEG.FC5,EEG.T7,EEG.P7,EEG.O1,EEG.O2,EEG.P8,EEG.T8,EEG.FC6,EEG.F4,EEG.F8,EEG.AF4
0,-55.25634799999989,132.82031300000017,135.76904300000024,-139.35888699999987,112.17968800000017,119.10253900000043,111.41015599999992,111.15380900000036,124.23095699999976,155.0,7.948730000000069,80.64111300000059,274.7436520000001,522.8203130000002
1,-40.25634799999989,146.53857400000015,149.10253900000043,-122.43579099999943,136.9228520000006,121.79492200000004,114.61523400000078,112.56396500000028,122.05126999999993,147.43603499999972,13.333496000000196,84.74365200000011,273.7177729999994,531.9228520000006
2,-13.846190999999635,165.76904300000024,168.46142599999985,-100.1281740000004,168.3334960000002,124.23095699999976,122.69238299999961,123.7177729999994,125.25634799999989,143.84619099999964,27.43603499999972,95.51269500000035,282.3076170000004,553.205078
3,8.717772999999397,178.84619099999964,181.6665039999998,-83.20507799999996,188.3334960000002,125.64111300000059,130.0,137.17968800000017,131.41015599999992,148.7177729999994,41.666503999999804,106.6665039999998,293.46142599999985,570.2563479999999
4,12.051269999999931,175.76904300000024,178.84619099999964,-80.64111300000013,183.3334960000002,125.12841800000024,130.76904300000024,143.46142599999985,134.3588869999994,158.46142599999985,46.53857400000015,110.76904300000024,296.6665039999998,567.3076170000004
5,-9.230713000000378,155.2563479999999,159.7436520000001,-95.51293900000019,154.87158199999976,122.82031300000017,122.69238299999961,137.56396500000028,128.0771479999994,162.94873000000007,37.56396500000028,104.87158199999976,284.7436520000001,539.1025390000004
6,-45.38452099999995,126.15380900000036,134.23095699999976,-120.76928699999962,119.74365200000011,120.38476599999922,109.48730499999965,123.46142599999985,113.3334960000002,154.61523400000078,18.589844000000085,92.56396500000028,260.12841800000024,497.5639650000003
7,-75.76928699999962,103.58984400000008,117.05126999999993,-142.0512700000004,98.20507799999996,119.87158199999976,98.58984400000008,110.64111300000059,98.58984400000008,136.0258789999998,1.2822270000006029,81.41015599999992,234.61523400000078,465.12841800000024
8,-83.71801800000003,97.82031300000017,116.6665039999998,-147.43579099999943,97.82031300000017,121.53857400000015,96.6665039999998,106.6665039999998,93.84619099999964,119.48730499999965,-3.717772999999397,78.3334960000002,221.41015599999992,456.9228520000006
9,-68.46142599999985,107.17968800000017,129.87158199999976,-136.15380900000036,108.9741210000002,123.7177729999994,104.61523400000078,112.05126999999993,102.56396500000028,116.2822270000006,6.153809000000365,84.23095699999976,225.6411130000006,467.5639650000003
10,-44.61547900000005,120.64111300000059,145.38476599999922,-117.69238299999961,114.87158199999976,124.74365200000011,117.30761700000039,121.15380900000036,117.94873000000007,128.20507799999996,23.333496000000196,94.10253900000043,240.51269500000035,475.51269500000035
11,-30.512939000000188,126.0258789999998,151.79492200000004,-104.61547900000005,107.30761700000039,123.9741210000002,127.43603499999972,127.30761700000039,128.7177729999994,144.48730499999965,35.25634799999989,100.64111300000059,252.43603499999972,463.7177729999994
12,-35.0,118.9741210000002,144.87158199999976,-103.20507799999996,93.20507799999996,121.9228520000006,129.23095699999976,126.41015599999992,127.82031300000017,151.0258789999998,33.846190999999635,98.7177729999994,249.7436520000001,433.84619099999964
13,-52.435790999999426,105.38476599999922,129.48730499999965,-109.8718259999996,88.84619099999964,120.12841800000024,122.05126999999993,120.38476599999922,118.20507799999996,141.9228520000006,21.794922000000042,89.74365200000011,232.05126999999993,404.10253900000043
14,-67.43579099999943,97.30761700000039,116.79492200000004,-113.58984399999963,104.10253900000043,122.05126999999993,111.6665039999998,116.41015599999992,111.41015599999992,127.30761700000039,11.666503999999804,80.76904300000024,211.0258789999998,390.3847659999992
15,-65.64111300000013,102.94873000000007,116.6665039999998,-104.10253899999998,131.0258789999998,128.9741210000002,106.41015599999992,121.79492200000004,117.56396500000028,123.9741210000002,16.025878999999804,78.7177729999994,201.2822270000006,388.46142599999985
16,-44.48706099999981,119.10253900000043,130.38476599999922,-81.79492200000004,146.6665039999998,137.17968800000017,111.6665039999998,137.17968800000017,136.0258789999998,138.9741210000002,36.666503999999804,85.25634799999989,207.82031300000017,373.5898440000001
17,-16.025634999999966,132.6923829999996,148.46142599999985,-57.948729999999614,132.6923829999996,139.87158199999976,125.25634799999989,153.58984400000008,155.0,162.17968800000017,62.56396500000028,95.25634799999989,221.53857400000015,318.46142599999985
18,3.846190999999635,131.15380900000036,157.43603499999972,-46.28198199999997,94.48730499999965,132.82031300000017,137.6923829999996,159.87158199999976,160.89746099999957,174.87158199999976,78.7177729999994,101.53857400000015,226.41015599999992,217.94873000000007
19,8.205077999999958,113.84619099999964,151.41015599999992,-51.53857400000015,59.61523400000078,119.10253900000043,140.12841800000024,151.41015599999992,150.12841800000024,167.17968800000017,78.84619099999964,101.2822270000006,213.0771479999994,96.9228520000006
20,5.512695000000349,92.43603499999972,136.6665039999998,-66.15380900000036,54.74365200000011,107.43603499999972,132.17968800000017,136.41015599999992,132.3076170000004,145.2563479999999,71.6665039999998,98.3334960000002,184.7436520000001,-3.5898440000000846
21,11.666503999999804,81.6665039999998,126.0258789999998,-77.30761700000039,82.43603499999972,105.0,123.58984400000008,128.9741210000002,124.23095699999976,125.76904300000024,73.58984400000008,98.7177729999994,153.84619099999964,-53.46142599999985
22,36.025878999999804,86.9228520000006,128.20507799999996,-77.94872999999961,120.0,112.05126999999993,124.48730499999965,137.17968800000017,135.0,121.0258789999998,94.10253900000043,105.76904300000024,130.6411130000006,-53.20507799999996
23,73.58984400000008,100.89746099999957,140.2563479999999,-72.43579099999943,138.0771479999994,121.9228520000006,135.89746099999957,155.6411130000006,158.20507799999996,130.51269500000035,127.17968800000017,117.05126999999993,115.38476599999922,-30.512939000000188
24,109.48730499999965,110.89746099999957,150.51269500000035,-71.28198199999997,125.0,127.05126999999993,147.82031300000017,169.3588869999994,176.41015599999992,143.58984400000008,156.2822270000006,126.41015599999992,101.0258789999998,-19.230713000000378
25,131.6665039999998,109.61523400000078,148.9741210000002,-80.76928699999962,95.64111300000059,124.48730499999965,148.7177729999994,166.41015599999992,175.12841800000024,149.87158199999976,167.6923829999996,128.84619099999964,81.9228520000006,-36.025634999999966
26,140.38476599999922,101.0258789999998,136.15380900000036,-95.64111300000013,79.74365200000011,117.30761700000039,135.38476599999922,147.94873000000007,155.0,147.05126999999993,162.56396500000028,125.0,60.38476599999922,-72.43579099999943
27,147.43603499999972,96.15380900000036,123.20507799999996,-103.20507799999996,96.53857400000015,110.89746099999957,117.05126999999993,127.69238299999961,131.41015599999992,140.6411130000006,155.51269500000035,120.38476599999922,45.38476599999922,-105.25634799999989
28,165.12841800000024,102.82031300000017,121.6665039999998,-94.10253899999998,139.10253900000043,108.7177729999994,106.53857400000015,120.89746099999957,121.53857400000015,137.6923829999996,161.79492200000004,120.51269500000035,43.7177729999994,-117.17944299999999
29,195.12841800000024,117.69238299999961,132.43603499999972,-72.30761700000039,178.58984400000008,110.25634799999989,110.38476599999922,131.9228520000006,130.6411130000006,139.7436520000001,183.3334960000002,126.6665039999998,52.94873000000007,-107.94872999999961
30,227.05126999999993,127.82031300000017,144.3588869999994,-53.46142599999985,187.05126999999993,111.53857400000015,123.0771479999994,150.0,147.82031300000017,140.51269500000035,206.6665039999998,134.3588869999994,61.025878999999804,-91.92309599999999
31,245.2563479999999,120.51269500000035,142.56396500000028,-54.8718259999996,156.15380900000036,108.58984400000008,131.79492200000004,157.17968800000017,155.38476599999922,130.12841800000024,214.23095699999976,136.9228520000006,54.48730499999965,-85.76928699999962
32,243.0771479999994,95.12841800000024,121.9228520000006,-80.76928699999962,103.7177729999994,101.9228520000006,128.3334960000002,144.3588869999994,144.87158199999976,104.74365200000011,199.3588869999994,132.17968800000017,30.25634799999989,-95.25634799999989
33,230.76904300000024,68.0771479999994,94.74365200000011,-115.1281740000004,63.46142599999985,97.30761700000039,118.20507799999996,122.05126999999993,125.89746099999957,74.87158199999976,175.6411130000006,124.87158199999976,1.4101559999999154,-110.51293900000019
34,230.0,61.666503999999804,83.3334960000002,-130.2563479999999,62.82031300000017,100.25634799999989,116.53857400000015,113.7177729999994,119.74365200000011,60.897460999999566,167.43603499999972,123.7177729999994,-10.38452099999995,-113.58984399999963
35,254.3588869999994,85.38476599999922,100.12841800000024,-109.35888699999987,103.0771479999994,110.38476599999922,133.0771479999994,133.84619099999964,138.7177729999994,76.41015599999992,189.3588869999994,133.84619099999964,7.179688000000169,-93.07690400000001
36,295.6411130000006,126.9228520000006,135.0,-61.92309599999999,159.23095699999976,120.12841800000024,160.38476599999922,172.56396500000028,173.9741210000002,115.89746099999957,231.6665039999998,150.6411130000006,45.64111300000059,-55.51293900000019
37,328.84619099999964,161.53857400000015,162.6923829999996,-17.435790999999426,200.6411130000006,121.2822270000006,177.82031300000017,202.82031300000017,201.9228520000006,157.6923829999996,268.46142599999985,162.6923829999996,80.51269500000035,-21.923095999999987
38,332.82031300000017,171.0258789999998,162.56396500000028,-3.5898440000000846,212.94873000000007,113.46142599999985,170.2563479999999,203.3334960000002,204.23095699999976,180.76904300000024,277.17968800000017,160.89746099999957,90.76904300000024,-12.435790999999426
39,305.51269500000035,154.3588869999994,134.23095699999976,-26.025634999999966,201.2822270000006,102.56396500000028,140.38476599999922,174.61523400000078,181.6665039999998,177.3076170000004,255.12841800000024,145.76904300000024,72.43603499999972,-31.41015600000037
40,264.7436520000001,125.64111300000059,95.64111300000059,-66.41015600000037,180.2563479999999,96.2822270000006,107.30761700000039,135.76904300000024,151.0258789999998,154.3588869999994,217.43603499999972,126.53857400000015,38.46142599999985,-65.76928699999962
41,234.7436520000001,102.56396500000028,68.9741210000002,-96.66674799999964,162.94873000000007,98.0771479999994,91.15380900000036,109.35888699999941,131.0258789999998,126.53857400000015,186.2822270000006,113.7177729999994,9.102539000000434,-93.84619099999964
42,230.2563479999999,96.15380900000036,66.15380900000036,-97.17944299999999,157.3076170000004,106.79492200000004,98.58984400000008,106.2822270000006,129.61523400000078,107.94873000000007,176.41015599999992,111.9228520000006,-1.4101559999999154,-100.25634799999989
43,248.7177729999994,105.89746099999957,82.56396500000028,-68.71801800000003,165.12841800000024,117.69238299999961,119.61523400000078,121.2822270000006,140.76904300000024,105.76904300000024,188.9741210000002,118.3334960000002,8.205077999999958,-85.64111300000013
44,273.3334960000002,121.79492200000004,102.69238299999961,-29.8718259999996,182.82031300000017,124.87158199999976,136.6665039999998,139.3588869999994,151.15380900000036,116.41015599999992,212.05126999999993,126.0258789999998,27.30761700000039,-64.74365200000011
45,285.76904300000024,133.58984400000008,112.05126999999993,-2.0512699999999313,202.94873000000007,124.87158199999976,137.56396500000028,147.3076170000004,151.79492200000004,128.84619099999964,229.87158199999976,128.7177729999994,41.410155999999915,-54.74365200000011
46,279.87158199999976,137.05126999999993,107.17968800000017,4.743652000000111,217.56396500000028,119.10253900000043,123.7177729999994,142.94873000000007,143.9741210000002,132.6923829999996,232.43603499999972,125.38476599999922,42.82031300000017,-61.28198199999997
47,264.48730499999965,135.6411130000006,96.0258789999998,-2.6923829999996087,222.43603499999972,113.0771479999994,107.69238299999961,134.61523400000078,136.9228520000006,127.30761700000039,222.05126999999993,120.25634799999989,35.51269500000035,-76.02563499999997
48,254.87158199999976,136.15380900000036,89.61523400000078,-8.846190999999635,218.7177729999994,111.6665039999998,103.3334960000002,132.82031300000017,137.94873000000007,121.41015599999992,209.10253900000043,119.35888699999941,30.128418000000238,-83.84619099999964
49,259.3588869999994,141.79492200000004,93.20507799999996,-2.8203119999998307,212.56396500000028,115.25634799999989,114.10253900000043,140.76904300000024,146.53857400000015,123.9741210000002,203.0771479999994,124.61523400000078,34.102539000000434,-75.0
50,272.94873000000007,150.38476599999922,102.69238299999961,13.974121000000196,210.12841800000024,120.12841800000024,132.05126999999993,151.79492200000004,155.51269500000035,135.6411130000006,205.76904300000024,132.17968800000017,46.410155999999915,-52.69238299999961
51,283.46142599999985,155.89746099999957,109.10253900000043,31.538574000000153,211.6665039999998,122.56396500000028,143.46142599999985,156.0258789999998,158.0771479999994,148.0771479999994,211.9228520000006,136.15380900000036,59.35888699999941,-29.230713000000378
52,280.76904300000024,153.3334960000002,106.41015599999992,40.0,209.23095699999976,121.41015599999992,141.15380900000036,149.3588869999994,152.82031300000017,151.6665039999998,214.48730499999965,133.84619099999964,63.974121000000196,-17.179442999999992
53,265.51269500000035,142.82031300000017,95.76904300000024,37.43603499999972,195.89746099999957,118.20507799999996,128.84619099999964,136.53857400000015,143.9741210000002,143.7177729999994,209.7436520000001,127.43603499999972,57.17968800000017,-20.0
54,247.94873000000007,130.38476599999922,85.0,31.282227000000603,176.6665039999998,114.61523400000078,118.20507799999996,127.56396500000028,138.46142599999985,130.51269500000035,200.12841800000024,121.79492200000004,43.846190999999635,-30.512939000000188
55,240.2563479999999,125.25634799999989,82.17968800000017,31.153809000000365,166.15380900000036,112.82031300000017,117.94873000000007,129.7436520000001,141.9228520000006,122.43603499999972,192.43603499999972,121.79492200000004,33.974121000000196,-36.28198199999997
56,246.41015599999992,131.53857400000015,89.74365200000011,41.53857400000015,175.89746099999957,113.3334960000002,127.82031300000017,141.53857400000015,153.84619099999964,125.38476599999922,191.2822270000006,127.30761700000039,35.38476599999922,-30.641113000000132
57,259.3588869999994,143.84619099999964,100.89746099999957,57.17968800000017,201.41015599999992,115.76904300000024,138.3334960000002,154.10253900000043,166.41015599999992,135.2563479999999,195.6411130000006,133.58984400000008,46.025878999999804,-17.69238299999961
58,266.79492200000004,150.12841800000024,105.51269500000035,66.9228520000006,225.6411130000006,118.58984400000008,138.84619099999964,157.05126999999993,169.3588869999994,142.05126999999993,199.61523400000078,134.7436520000001,56.53857400000015,-8.333252000000357
59,261.4101559999999,143.7177729999994,97.56396500000028,63.333496000000196,233.0771479999994,120.51269500000035,126.79492200000004,147.6923829999996,158.9741210000002,137.82031300000017,198.3334960000002,129.61523400000078,57.82031300000017,-10.38452099999995
60,246.6665039999998,128.84619099999964,81.6665039999998,49.48730499999965,220.51269500000035,121.9228520000006,109.87158199999976,132.82031300000017,140.6411130000006,123.84619099999964,192.3076170000004,122.17968800000017,48.846190999999635,-22.051270000000386
61,233.7177729999994,116.79492200000004,68.7177729999994,36.666503999999804,197.3076170000004,124.23095699999976,100.25634799999989,123.84619099999964,125.76904300000024,109.35888699999941,186.53857400000015,117.94873000000007,36.9228520000006,-33.58984399999963
62,231.41015599999992,115.76904300000024,67.94873000000007,35.12841800000024,177.17968800000017,127.82031300000017,104.74365200000011,127.05126999999993,122.56396500000028,103.84619099999964,185.0,119.23095699999976,31.025878999999804,-35.89746100000002
63,239.48730499999965,123.84619099999964,78.58984400000008,47.17968800000017,168.9741210000002,131.0258789999998,118.9741210000002,138.84619099999964,131.0258789999998,110.25634799999989,187.05126999999993,123.3334960000002,34.74365200000011,-27.69238299999961
64,249.7436520000001,131.79492200000004,91.9228520000006,64.87158199999976,172.17968800000017,131.79492200000004,131.53857400000015,149.23095699999976,144.23095699999976,122.30761700000039,188.9741210000002,126.0258789999998,43.846190999999635,-15.512939000000188
65,253.9741210000002,130.89746099999957,98.3334960000002,77.30761700000039,178.84619099999964,130.0,134.23095699999976,150.51269500000035,154.10253900000043,130.76904300000024,187.3076170000004,125.38476599999922,50.76904300000024,-7.564209000000574
66,250.2563479999999,120.25634799999989,94.74365200000011,78.9741210000002,182.6923829999996,127.17968800000017,128.20507799999996,143.46142599999985,157.43603499999972,130.38476599999922,183.20507799999996,123.0771479999994,51.410155999999915,-6.794922000000042
67,243.58984400000008,107.56396500000028,85.51269500000035,73.46142599999985,185.51269500000035,125.25634799999989,120.76904300000024,135.38476599999922,155.76904300000024,123.84619099999964,180.51269500000035,122.56396500000028,47.05126999999993,-10.1281740000004
68,239.87158199999976,102.69238299999961,78.46142599999985,69.74365200000011,193.84619099999964,125.25634799999989,118.0771479999994,132.94873000000007,151.9228520000006,118.0771479999994,182.3076170000004,124.87158199999976,42.43603499999972,-12.820557000000008
69,240.51269500000035,109.35888699999941,76.9228520000006,74.10253900000043,207.05126999999993,127.30761700000039,120.25634799999989,135.76904300000024,147.3076170000004,116.79492200000004,187.3076170000004,128.20507799999996,40.12841800000024,-13.205077999999958
70,241.9228520000006,120.76904300000024,79.10253900000043,85.38476599999922,214.61523400000078,131.15380900000036,122.82031300000017,138.7177729999994,141.53857400000015,118.7177729999994,191.15380900000036,129.10253900000043,40.0,-13.461425999999847
71,240.38476599999922,126.79492200000004,80.89746099999957,97.30761700000039,206.41015599999992,135.6411130000006,122.82031300000017,137.82031300000017,135.2563479999999,120.89746099999957,189.7436520000001,126.79492200000004,39.48730499999965,-16.41015600000037
72,235.76904300000024,122.30761700000039,81.41015599999992,105.51269500000035,185.76904300000024,138.46142599999985,121.2822270000006,133.9741210000002,130.6411130000006,122.05126999999993,183.58984400000008,123.20507799999996,37.94873000000007,-21.025634999999966
73,231.0258789999998,111.41015599999992,81.9228520000006,110.12841800000024,166.6665039999998,137.6923829999996,120.89746099999957,130.89746099999957,130.51269500000035,122.94873000000007,177.56396500000028,121.53857400000015,36.025878999999804,-23.58984399999963
74,228.3334960000002,101.9228520000006,83.7177729999994,113.46142599999985,160.2563479999999,132.94873000000007,122.30761700000039,130.51269500000035,134.87158199999976,123.58984400000008,175.76904300000024,122.56396500000028,35.25634799999989,-22.564209000000574
75,226.6665039999998,98.58984400000008,85.38476599999922,116.53857400000015,165.0,126.41015599999992,122.56396500000028,131.15380900000036,139.3588869999994,122.69238299999961,178.58984400000008,124.35888699999941,35.76904300000024,-19.8718259999996
76,224.23095699999976,101.15380900000036,85.0,118.84619099999964,172.3076170000004,121.6665039999998,119.10253900000043,130.51269500000035,138.46142599999985,119.74365200000011,183.3334960000002,125.0,36.666503999999804,-18.333252000000357
77,221.53857400000015,106.79492200000004,84.10253900000043,121.79492200000004,177.17968800000017,121.15380900000036,113.7177729999994,129.87158199999976,132.3076170000004,115.76904300000024,187.3076170000004,124.74365200000011,38.46142599999985,-16.923095999999987
78,221.79492200000004,113.9741210000002,86.6665039999998,128.46142599999985,182.43603499999972,124.23095699999976,111.9228520000006,133.20507799999996,126.9228520000006,113.58984400000008,190.6411130000006,126.53857400000015,42.56396500000028,-12.307617000000391
79,225.6411130000006,120.25634799999989,94.61523400000078,139.23095699999976,189.3588869999994,127.82031300000017,116.9228520000006,141.53857400000015,128.84619099999964,113.84619099999964,193.0771479999994,131.79492200000004,48.846190999999635,-4.102538999999979
80,228.0771479999994,121.2822270000006,103.0771479999994,149.23095699999976,190.6411130000006,127.94873000000007,124.48730499999965,148.20507799999996,135.76904300000024,113.20507799999996,191.79492200000004,136.6665039999998,52.56396500000028,1.5385740000001533
81,222.43603499999972,113.3334960000002,103.58984400000008,151.79492200000004,178.20507799999996,123.3334960000002,126.15380900000036,143.46142599999985,138.7177729999994,108.20507799999996,183.0771479999994,135.38476599999922,48.333496000000196,-2.9487300000000687
82,208.3334960000002,99.74365200000011,93.3334960000002,146.41015599999992,155.51269500000035,116.2822270000006,117.69238299999961,125.12841800000024,131.9228520000006,100.0,168.0771479999994,126.6665039999998,36.410155999999915,-16.41015600000037
83,194.87158199999976,90.51269500000035,78.84619099999964,140.89746099999957,138.3334960000002,111.41015599999992,104.23095699999976,103.58984400000008,120.38476599999922,96.15380900000036,155.12841800000024,116.2822270000006,24.871581999999762,-28.58984399999963
84,192.3076170000004,92.94873000000007,71.53857400000015,144.3588869999994,139.48730499999965,111.15380900000036,96.0258789999998,93.0771479999994,114.10253900000043,101.9228520000006,152.56396500000028,112.43603499999972,22.82031300000017,-28.58984399999963
85,201.79492200000004,104.61523400000078,76.6665039999998,157.82031300000017,156.0258789999998,114.23095699999976,98.9741210000002,100.25634799999989,117.82031300000017,114.74365200000011,161.6665039999998,117.69238299999961,31.153809000000365,-15.256347999999889
86,215.51269500000035,116.41015599999992,90.51269500000035,174.7436520000001,173.84619099999964,116.9228520000006,110.38476599999922,118.58984400000008,126.9228520000006,126.2822270000006,176.0258789999998,127.94873000000007,43.7177729999994,2.5639650000002803
87,223.20507799999996,120.51269500000035,104.23095699999976,186.9228520000006,180.6411130000006,117.56396500000028,122.43603499999972,135.0,133.46142599999985,130.89746099999957,187.56396500000028,135.76904300000024,52.30761700000039,13.717772999999397
88,220.12841800000024,115.76904300000024,110.25634799999989,190.2563479999999,173.7177729999994,116.9228520000006,127.30761700000039,138.84619099999964,133.3334960000002,128.7177729999994,191.53857400000015,136.53857400000015,52.69238299999961,12.82031300000017
89,208.58984400000008,105.89746099999957,106.2822270000006,187.05126999999993,159.23095699999976,116.53857400000015,122.69238299999961,128.9741210000002,127.82031300000017,123.0771479999994,186.79492200000004,131.2822270000006,45.51269500000035,2.1796880000001693
90,195.6411130000006,96.53857400000015,96.79492200000004,183.46142599999985,147.05126999999993,117.43603499999972,112.56396500000028,113.0771479999994,122.17968800000017,117.30761700000039,176.41015599999992,124.35888699999941,35.64111300000059,-10.641113000000132
91,188.84619099999964,92.56396500000028,89.61523400000078,186.15380900000036,144.7436520000001,118.7177729999994,104.74365200000011,102.94873000000007,120.89746099999957,112.94873000000007,166.9228520000006,120.51269500000035,30.25634799999989,-17.69238299999961
92,191.41015599999992,96.41015599999992,91.6665039999998,197.6923829999996,153.20507799999996,118.58984400000008,105.51269500000035,105.89746099999957,125.76904300000024,111.9228520000006,164.87158199999976,121.9228520000006,34.23095699999976,-13.71801800000003
93,200.6411130000006,106.2822270000006,102.56396500000028,214.48730499999965,165.2563479999999,116.53857400000015,115.64111300000059,120.12841800000024,133.84619099999964,114.35888699999941,172.56396500000028,127.56396500000028,46.9228520000006,-0.769043000000238
94,209.3588869999994,116.2822270000006,115.38476599999922,229.10253900000043,171.15380900000036,113.20507799999996,128.9741210000002,136.53857400000015,139.61523400000078,118.58984400000008,184.61523400000078,133.84619099999964,60.897460999999566,13.461425999999847
95,210.76904300000024,120.89746099999957,121.79492200000004,235.51269500000035,167.05126999999993,109.61523400000078,136.6665039999998,144.7436520000001,138.9741210000002,122.05126999999993,192.3076170000004,136.41015599999992,67.05126999999993,19.74365200000011
96,203.3334960000002,117.69238299999961,118.0771479999994,233.3334960000002,157.05126999999993,105.89746099999957,132.82031300000017,140.12841800000024,132.17968800000017,122.17968800000017,190.38476599999922,133.3334960000002,61.025878999999804,14.487304999999651
97,190.6411130000006,108.58984400000008,107.17968800000017,226.79492200000004,146.79492200000004,102.17968800000017,119.35888699999941,125.25634799999989,123.46142599999985,118.20507799999996,180.0,126.0258789999998,46.410155999999915,1.5385740000001533
98,178.7177729999994,96.9228520000006,95.38476599999922,220.2563479999999,138.20507799999996,99.23095699999976,103.3334960000002,107.17968800000017,116.2822270000006,110.64111300000059,166.79492200000004,118.20507799999996,31.538574000000153,-11.538574000000153
99,171.0258789999998,86.2822270000006,88.20507799999996,216.15380900000036,130.6411130000006,97.82031300000017,92.82031300000017,93.46142599999985,111.53857400000015,101.2822270000006,156.2822270000006,113.7177729999994,24.102539000000434,-18.846190999999635
100,169.10253900000043,80.25634799999989,88.84619099999964,216.15380900000036,125.38476599999922,98.3334960000002,92.30761700000039,88.9741210000002,108.9741210000002,93.9741210000002,152.94873000000007,113.9741210000002,27.69238299999961,-18.205077999999958
101,172.94873000000007,80.64111300000059,96.79492200000004,222.17968800000017,126.2822270000006,99.74365200000011,101.0258789999998,94.74365200000011,109.10253900000043,92.82031300000017,158.20507799999996,118.46142599999985,40.25634799999989,-10.641113000000132
102,180.2563479999999,86.53857400000015,107.94873000000007,233.84619099999964,133.7177729999994,101.15380900000036,113.58984400000008,107.17968800000017,113.20507799999996,98.84619099999964,170.12841800000024,125.12841800000024,55.38476599999922,0.512695000000349
103,187.3076170000004,93.3334960000002,116.2822270000006,247.17968800000017,141.79492200000004,101.6665039999998,122.30761700000039,118.58984400000008,120.12841800000024,109.48730499999965,182.3076170000004,131.2822270000006,65.89746099999957,10.256347999999889
104,190.6411130000006,96.9228520000006,118.0771479999994,256.4101559999999,142.43603499999972,101.2822270000006,122.05126999999993,121.9228520000006,126.9228520000006,119.35888699999941,187.6923829999996,134.23095699999976,67.94873000000007,14.615234000000783
105,190.2563479999999,97.43603499999972,114.61523400000078,260.2563479999999,134.87158199999976,100.64111300000059,115.38476599999922,116.79492200000004,131.15380900000036,125.89746099999957,184.61523400000078,133.20507799999996,64.23095699999976,14.358886999999413
106,190.38476599999922,100.12841800000024,112.17968800000017,263.0771479999994,128.20507799999996,101.0258789999998,109.74365200000011,110.38476599999922,134.23095699999976,130.51269500000035,179.3588869999994,130.38476599999922,62.30761700000039,14.487304999999651
107,194.7436520000001,108.84619099999964,115.89746099999957,270.6411130000006,131.9228520000006,102.43603499999972,111.15380900000036,111.6665039999998,138.7177729999994,136.2822270000006,179.87158199999976,129.7436520000001,67.30761700000039,19.230956999999762
108,201.79492200000004,120.76904300000024,124.61523400000078,283.3334960000002,145.6411130000006,103.9741210000002,119.10253900000043,122.30761700000039,144.87158199999976,143.20507799999996,187.43603499999972,132.6923829999996,76.6665039999998,26.538574000000153
109,205.6411130000006,128.46142599999985,131.6665039999998,295.0,157.05126999999993,104.23095699999976,126.6665039999998,135.38476599999922,148.9741210000002,146.9228520000006,195.0,136.9228520000006,82.69238299999961,30.641113000000587
110,201.2822270000006,125.64111300000059,130.6411130000006,298.7177729999994,153.46142599999985,103.0771479999994,127.43603499999972,141.0258789999998,146.53857400000015,143.7177729999994,193.58984400000008,137.94873000000007,78.84619099999964,26.794922000000042
111,188.0771479999994,112.43603499999972,120.38476599999922,291.6665039999998,133.20507799999996,101.15380900000036,119.48730499999965,132.94873000000007,136.79492200000004,134.3588869999994,180.6411130000006,133.58984400000008,66.0258789999998,15.384765999999217
112,170.12841800000024,95.0,105.76904300000024,277.05126999999993,107.05126999999993,98.9741210000002,106.15380900000036,113.84619099999964,123.3334960000002,122.94873000000007,162.43603499999972,125.38476599999922,50.64111300000059,1.6665039999998044
113,155.12841800000024,82.17968800000017,94.61523400000078,263.5898440000001,90.38476599999922,97.17968800000017,93.84619099999964,93.7177729999994,111.79492200000004,113.46142599999985,149.61523400000078,117.94873000000007,40.51269500000035,-7.948729999999614
114,149.87158199999976,80.38476599999922,92.56396500000028,260.89746099999957,92.94873000000007,96.2822270000006,88.46142599999985,84.10253900000043,106.41015599999992,108.20507799999996,150.12841800000024,115.51269500000035,40.76904300000024,-8.974365000000034
115,156.53857400000015,90.0,100.38476599999922,272.82031300000017,112.17968800000017,97.17968800000017,92.69238299999961,89.87158199999976,108.58984400000008,107.30761700000039,163.58984400000008,119.35888699999941,51.666503999999804,-0.8974609999995664
116,170.38476599999922,104.87158199999976,112.43603499999972,293.9741210000002,135.6411130000006,99.48730499999965,103.84619099999964,106.15380900000036,115.64111300000059,109.61523400000078,180.51269500000035,126.6665039999998,67.56396500000028,12.17968800000017
117,181.79492200000004,115.25634799999989,119.61523400000078,312.6923829999996,148.7177729999994,102.17968800000017,115.64111300000059,121.15380900000036,122.30761700000039,112.94873000000007,188.7177729999994,131.6665039999998,78.9741210000002,22.69238299999961
118,182.43603499999972,115.38476599999922,116.0258789999998,319.3588869999994,145.51269500000035,104.48730499999965,121.79492200000004,124.87158199999976,123.7177729999994,115.25634799999989,182.05126999999993,130.12841800000024,78.7177729999994,23.974121000000196
119,172.05126999999993,106.79492200000004,104.35888699999941,313.46142599999985,131.6665039999998,105.38476599999922,120.12841800000024,115.76904300000024,119.87158199999976,116.15380900000036,165.76904300000024,122.56396500000028,67.30761700000039,15.384765999999217
120,159.48730499999965,96.9228520000006,93.58984400000008,302.5639650000003,118.58984400000008,104.87158199999976,114.23095699999976,101.53857400000015,115.0,116.53857400000015,152.3076170000004,114.35888699999941,53.333496000000196,3.717772999999397
121,155.0,92.56396500000028,92.30761700000039,296.6665039999998,113.20507799999996,103.20507799999996,110.25634799999989,92.69238299999961,114.35888699999941,116.9228520000006,150.89746099999957,111.41015599999992,47.69238299999961,-1.7949220000000423
122,163.20507799999996,95.0,101.53857400000015,300.3847659999992,114.35888699999941,100.89746099999957,111.6665039999998,95.51269500000035,119.35888699999941,116.6665039999998,161.2822270000006,115.64111300000059,55.12841800000024,2.8203130000001693
123,178.9741210000002,100.64111300000059,115.0,310.89746099999957,116.53857400000015,99.23095699999976,117.05126999999993,108.20507799999996,126.79492200000004,115.12841800000024,174.23095699999976,123.3334960000002,70.64111300000059,13.589844000000085
124,192.17968800000017,105.25634799999989,123.9741210000002,322.4360349999997,116.9228520000006,99.10253900000043,121.9228520000006,122.82031300000017,132.43603499999972,113.0771479999994,180.51269500000035,129.23095699999976,84.35888699999941,22.30761700000039
125,195.2563479999999,107.17968800000017,123.7177729999994,329.3588869999994,116.9228520000006,100.38476599999922,122.17968800000017,130.89746099999957,133.46142599999985,112.82031300000017,177.56396500000028,129.61523400000078,88.7177729999994,23.077147999999397
126,186.9228520000006,106.53857400000015,115.38476599999922,328.9741210000002,118.46142599999985,101.9228520000006,116.79492200000004,128.58984400000008,130.2563479999999,115.25634799999989,169.10253900000043,125.0,82.30761700000039,15.0
127,172.6923829999996,104.10253900000043,104.48730499999965,322.4360349999997,120.25634799999989,102.56396500000028,107.56396500000028,117.94873000000007,125.12841800000024,119.23095699999976,161.0258789999998,118.7177729999994,70.38476599999922,2.4360349999997197
128,160.89746099999957,101.15380900000036,96.53857400000015,314.3588869999994,118.7177729999994,101.6665039999998,99.61523400000078,106.15380900000036,120.51269500000035,121.9228520000006,156.79492200000004,114.10253900000043,60.51269500000035,-7.948729999999614
129,156.53857400000015,98.58984400000008,94.61523400000078,309.48730499999965,111.9228520000006,99.74365200000011,96.53857400000015,100.0,117.17968800000017,120.89746099999957,156.41015599999992,112.82031300000017,57.17968800000017,-11.666747999999643
130,157.94873000000007,95.89746099999957,96.6665039999998,309.48730499999965,100.38476599999922,97.56396500000028,98.58984400000008,101.41015599999992,114.35888699999941,115.25634799999989,157.05126999999993,114.10253900000043,59.35888699999941,-9.230713000000378
131,159.23095699999976,91.2822270000006,98.84619099999964,312.17968800000017,88.20507799999996,96.0258789999998,102.05126999999993,106.0258789999998,111.15380900000036,106.53857400000015,155.51269500000035,116.41015599999992,61.666503999999804,-5.641113000000132
132,156.6665039999998,85.0,99.10253900000043,314.87158199999976,81.15380900000036,96.0258789999998,104.23095699999976,108.58984400000008,108.7177729999994,99.10253900000043,151.2822270000006,118.46142599999985,60.38476599999922,-4.743652000000111
133,152.6923829999996,80.76904300000024,98.3334960000002,317.5639650000003,84.10253900000043,97.69238299999961,104.87158199999976,107.82031300000017,109.74365200000011,98.20507799999996,147.6923829999996,119.10253900000043,57.30761700000039,-6.025634999999966
134,151.15380900000036,82.30761700000039,98.3334960000002,321.53857400000015,95.51269500000035,99.48730499999965,105.76904300000024,106.41015599999992,115.12841800000024,105.0,148.46142599999985,118.58984400000008,57.05126999999993,-6.41015600000037
135,152.56396500000028,88.58984400000008,99.35888699999941,327.05126999999993,107.56396500000028,99.48730499999965,107.30761700000039,106.53857400000015,122.56396500000028,114.74365200000011,153.84619099999964,117.43603499999972,60.897460999999566,-4.61547900000005
136,154.61523400000078,94.74365200000011,100.51269500000035,332.94873000000007,111.53857400000015,96.9228520000006,108.84619099999964,107.94873000000007,128.46142599999985,120.89746099999957,160.89746099999957,116.0258789999998,66.41015599999992,-1.7949220000000423
137,155.89746099999957,98.46142599999985,102.05126999999993,338.9741210000002,107.56396500000028,93.58984400000008,110.51269500000035,110.51269500000035,131.79492200000004,121.6665039999998,166.15380900000036,115.25634799999989,70.51269500000035,1.153809000000365
138,157.17968800000017,100.89746099999957,106.0258789999998,346.79492200000004,103.7177729999994,92.43603499999972,113.46142599999985,114.48730499999965,133.46142599999985,120.76904300000024,168.20507799999996,115.76904300000024,73.0771479999994,5.256347999999889
139,159.61523400000078,104.10253900000043,112.56396500000028,355.6411130000006,106.53857400000015,94.35888699999941,117.82031300000017,119.48730499999965,134.23095699999976,122.05126999999993,167.56396500000028,117.69238299999961,75.38476599999922,10.641113000000587
140,161.53857400000015,106.2822270000006,118.58984400000008,361.9228520000006,112.94873000000007,97.82031300000017,121.0258789999998,122.69238299999961,131.53857400000015,122.82031300000017,164.87158199999976,119.35888699999941,76.2822270000006,14.871581999999762
141,159.23095699999976,103.20507799999996,119.10253900000043,361.79492200000004,114.10253900000043,100.38476599999922,119.35888699999941,120.38476599999922,122.43603499999972,117.05126999999993,160.12841800000024,119.23095699999976,71.79492200000004,13.974121000000196
142,151.0258789999998,93.46142599999985,112.30761700000039,355.3847659999992,105.25634799999989,100.51269500000035,111.6665039999998,111.2822270000006,109.10253900000043,102.43603499999972,153.84619099999964,116.79492200000004,60.64111300000059,6.922852000000603
143,140.12841800000024,81.41015599999992,101.41015599999992,347.82031300000017,91.0258789999998,98.58984400000008,100.76904300000024,98.58984400000008,98.7177729999994,86.15380900000036,148.46142599999985,113.20507799999996,47.17968800000017,-2.1796869999998307
144,132.05126999999993,74.10253900000043,93.0771479999994,344.87158199999976,79.35888699999941,96.9228520000006,92.30761700000039,88.3334960000002,98.3334960000002,79.35888699999941,146.2822270000006,110.12841800000024,38.974121000000196,-7.564209000000574
145,130.51269500000035,74.61523400000078,91.2822270000006,347.5639650000003,73.7177729999994,97.69238299999961,90.25634799999989,85.25634799999989,107.82031300000017,87.17968800000017,146.9228520000006,108.0771479999994,40.25634799999989,-6.794922000000042
146,133.9741210000002,79.74365200000011,94.74365200000011,352.05126999999993,71.41015599999992,101.0258789999998,94.23095699999976,89.74365200000011,118.84619099999964,103.84619099999964,148.0771479999994,106.79492200000004,48.20507799999996,-2.0512699999999313
147,137.3076170000004,83.46142599999985,98.46142599999985,353.3334960000002,68.84619099999964,104.35888699999941,100.0,97.56396500000028,121.0258789999998,116.9228520000006,147.3076170000004,106.0258789999998,55.0,1.4101559999999154
148,136.9228520000006,82.30761700000039,98.3334960000002,350.76904300000024,66.2822270000006,105.0,103.20507799999996,103.0771479999994,111.15380900000036,117.17968800000017,144.7436520000001,106.15380900000036,54.35888699999941,0.512695000000349
149,133.3334960000002,77.82031300000017,94.87158199999976,347.82031300000017,67.17968800000017,102.69238299999961,102.56396500000028,103.3334960000002,95.51269500000035,105.64111300000059,142.43603499999972,107.82031300000017,46.025878999999804,-3.5898440000000846
150,130.76904300000024,75.51269500000035,92.69238299999961,349.3588869999994,74.61523400000078,100.25634799999989,100.64111300000059,100.12841800000024,85.76904300000024,92.56396500000028,141.9228520000006,111.0258789999998,37.30761700000039,-6.153809000000365
151,133.84619099999964,80.64111300000059,96.53857400000015,358.0771479999994,87.82031300000017,100.89746099999957,101.6665039999998,98.3334960000002,90.89746099999957,89.87158199999976,144.23095699999976,114.74365200000011,36.9228520000006,-2.8203119999998307
152,142.82031300000017,93.20507799999996,106.9228520000006,371.53857400000015,102.82031300000017,105.38476599999922,107.56396500000028,101.6665039999998,110.25634799999989,101.9228520000006,149.10253900000043,117.30761700000039,47.69238299999961,6.794922000000042
153,152.56396500000028,106.79492200000004,118.20507799999996,383.7177729999994,113.84619099999964,111.0258789999998,115.51269500000035,109.87158199999976,132.82031300000017,121.6665039999998,155.38476599999922,117.56396500000028,63.846190999999635,17.43603499999972
154,156.2822270000006,112.56396500000028,123.7177729999994,388.84619099999964,116.0258789999998,113.7177729999994,120.12841800000024,118.3334960000002,144.87158199999976,135.89746099999957,161.0258789999998,116.41015599999992,75.12841800000024,22.05126999999993
155,151.2822270000006,107.30761700000039,120.89746099999957,386.0258789999998,109.35888699999941,111.41015599999992,118.58984400000008,122.82031300000017,140.0,134.7436520000001,163.20507799999996,115.0,74.61523400000078,17.69238299999961
156,141.9228520000006,95.64111300000059,112.82031300000017,379.7436520000001,99.23095699999976,105.89746099999957,112.05126999999993,121.6665039999998,122.69238299999961,118.84619099999964,160.0,113.46142599999985,63.846190999999635,8.205077999999958
157,133.9741210000002,86.0258789999998,104.74365200000011,375.51269500000035,91.41015599999992,100.89746099999957,104.35888699999941,116.0258789999998,103.9741210000002,98.20507799999996,150.76904300000024,111.0258789999998,50.0,0.256347999999889
158,130.0,82.69238299999961,99.61523400000078,374.87158199999976,87.56396500000028,98.9741210000002,99.48730499999965,108.0771479999994,93.7177729999994,84.35888699999941,137.82031300000017,107.56396500000028,40.0,-2.9487300000000687
159,128.9741210000002,83.7177729999994,97.82031300000017,375.6411130000006,85.89746099999957,100.12841800000024,98.84619099999964,100.51269500000035,95.38476599999922,83.0771479999994,127.17968800000017,104.23095699999976,36.79492200000004,-2.0512699999999313
160,129.48730499999965,85.89746099999957,98.9741210000002,376.0258789999998,84.74365200000011,102.17968800000017,102.56396500000028,96.53857400000015,107.05126999999993,91.9228520000006,125.0,102.56396500000028,39.87158199999976,1.0258789999998044
161,131.2822270000006,87.30761700000039,102.43603499999972,376.53857400000015,84.87158199999976,103.3334960000002,108.46142599999985,98.9741210000002,122.82031300000017,102.94873000000007,132.94873000000007,104.10253900000043,47.05126999999993,5.256347999999889
162,133.7177729999994,87.82031300000017,105.76904300000024,378.0771479999994,85.12841800000024,102.94873000000007,113.46142599999985,106.79492200000004,134.7436520000001,107.56396500000028,144.87158199999976,107.94873000000007,55.0,9.230956999999762
163,133.84619099999964,86.2822270000006,105.89746099999957,379.10253900000043,82.05126999999993,102.17968800000017,114.48730499999965,113.84619099999964,135.89746099999957,102.43603499999972,151.0258789999998,110.64111300000059,58.846190999999635,9.871581999999762
164,130.38476599999922,82.17968800000017,101.41015599999992,378.46142599999985,73.58984400000008,102.94873000000007,111.0258789999998,114.48730499999965,124.74365200000011,91.53857400000015,146.0258789999998,110.12841800000024,56.2822270000006,6.282227000000603
165,125.76904300000024,78.3334960000002,96.0258789999998,377.82031300000017,65.25634799999989,106.41015599999992,106.53857400000015,109.48730499999965,108.84619099999964,84.61523400000078,134.87158199999976,107.94873000000007,50.25634799999989,1.6665039999998044
166,125.38476599999922,79.74365200000011,95.76904300000024,381.9228520000006,66.6665039999998,112.17968800000017,106.15380900000036,106.0258789999998,100.25634799999989,90.0,128.7177729999994,108.3334960000002,47.69238299999961,2.0512699999999313
167,132.17968800000017,88.58984400000008,103.0771479999994,392.17968800000017,82.30761700000039,117.94873000000007,111.79492200000004,110.12841800000024,105.51269500000035,107.05126999999993,135.12841800000024,112.30761700000039,52.82031300000017,9.871581999999762
168,142.6923829999996,100.38476599999922,113.7177729999994,404.10253900000043,104.74365200000011,121.41015599999992,119.48730499999965,120.64111300000059,120.25634799999989,124.48730499999965,149.7436520000001,116.9228520000006,62.43603499999972,20.641113000000587
169,148.9741210000002,106.9228520000006,119.87158199999976,410.3847659999992,119.74365200000011,121.9228520000006,123.0771479999994,129.48730499999965,132.3076170000004,129.23095699999976,160.76904300000024,117.17968800000017,69.10253900000043,26.666503999999804
170,145.89746099999957,103.58984400000008,117.43603499999972,407.82031300000017,118.9741210000002,120.51269500000035,119.87158199999976,129.87158199999976,133.58984400000008,118.58984400000008,160.12841800000024,112.17968800000017,68.20507799999996,23.717772999999397
171,135.76904300000024,93.46142599999985,109.23095699999976,400.2563479999999,106.0258789999998,118.46142599999985,113.3334960000002,122.30761700000039,126.2822270000006,102.94873000000007,150.38476599999922,105.38476599999922,62.17968800000017,15.256347999999889
172,124.87158199999976,83.9741210000002,101.15380900000036,393.84619099999964,91.6665039999998,116.53857400000015,108.7177729999994,113.3334960000002,118.46142599999985,95.25634799999989,140.6411130000006,101.41015599999992,56.53857400000015,7.948730000000069
173,117.17968800000017,79.48730499999965,96.41015599999992,390.3847659999992,83.3334960000002,115.0,108.0771479999994,108.46142599999985,115.12841800000024,97.82031300000017,136.6665039999998,101.41015599999992,54.102539000000434,5.3847659999992175
174,112.82031300000017,79.35888699999941,94.74365200000011,388.7177729999994,81.6665039999998,113.58984400000008,109.10253900000043,107.94873000000007,114.10253900000043,101.2822270000006,137.6923829999996,103.0771479999994,52.94873000000007,5.3847659999992175
175,110.76904300000024,80.89746099999957,95.0,387.82031300000017,82.94873000000007,112.30761700000039,109.61523400000078,109.23095699999976,111.6665039999998,97.05126999999993,139.7436520000001,103.9741210000002,50.25634799999989,5.769043000000238
176,111.79492200000004,83.20507799999996,97.43603499999972,390.0,84.48730499999965,111.2822270000006,110.64111300000059,111.41015599999992,108.0771479999994,87.82031300000017,141.79492200000004,104.10253900000043,48.0771479999994,7.179688000000169
177,117.17968800000017,87.30761700000039,103.7177729999994,397.94873000000007,85.89746099999957,111.53857400000015,115.12841800000024,116.2822270000006,107.82031300000017,84.35888699999941,145.12841800000024,105.64111300000059,50.64111300000059,12.43603499999972
178,126.0258789999998,93.20507799999996,112.56396500000028,409.7436520000001,87.56396500000028,113.20507799999996,123.0771479999994,123.84619099999964,114.48730499999965,93.58984400000008,150.38476599999922,109.48730499999965,59.61523400000078,22.56396500000028
179,133.9741210000002,99.23095699999976,119.48730499999965,420.0,89.48730499999965,115.64111300000059,130.0,130.51269500000035,126.15380900000036,110.25634799999989,155.12841800000024,113.7177729999994,70.76904300000024,33.333496000000196
180,135.89746099999957,102.17968800000017,120.0,423.3334960000002,91.79492200000004,117.69238299999961,129.7436520000001,131.0258789999998,135.89746099999957,121.41015599999992,155.2563479999999,115.12841800000024,76.9228520000006,38.46142599999985
181,130.0,100.64111300000059,113.46142599999985,418.5898440000001,95.0,118.84619099999964,120.38476599999922,123.3334960000002,137.3076170000004,118.46142599999985,150.0,112.17968800000017,73.9741210000002,34.102539000000434
182,119.74365200000011,96.15380900000036,104.48730499999965,410.6411130000006,100.51269500000035,119.10253900000043,107.17968800000017,111.41015599999992,129.10253900000043,105.12841800000024,142.82031300000017,107.05126999999993,64.87158199999976,23.205077999999958
183,111.6665039999998,92.94873000000007,99.48730499999965,406.15380900000036,108.0771479999994,118.84619099999964,98.7177729999994,102.30761700000039,116.9228520000006,93.9741210000002,138.9741210000002,103.46142599999985,56.79492200000004,13.846190999999635
184,110.38476599999922,94.23095699999976,101.41015599999992,408.84619099999964,115.0,118.46142599999985,99.87158199999976,100.76904300000024,108.20507799999996,94.61523400000078,140.38476599999922,103.58984400000008,55.38476599999922,12.692382999999609
185,115.0,98.46142599999985,107.69238299999961,416.15380900000036,117.69238299999961,118.0771479999994,108.20507799999996,106.15380900000036,106.2822270000006,105.12841800000024,143.84619099999964,105.76904300000024,60.12841800000024,19.74365200000011
186,120.38476599999922,100.89746099999957,112.17968800000017,421.6665039999998,114.10253900000043,117.82031300000017,115.89746099999957,112.05126999999993,108.46142599999985,115.0,144.48730499999965,106.79492200000004,65.25634799999989,27.69238299999961
187,121.79492200000004,98.46142599999985,110.64111300000059,421.0258789999998,105.89746099999957,118.58984400000008,117.17968800000017,112.17968800000017,109.48730499999965,114.23095699999976,140.12841800000024,105.0,65.25634799999989,28.846190999999635
188,118.46142599999985,92.17968800000017,104.61523400000078,414.87158199999976,97.56396500000028,120.12841800000024,111.6665039999998,105.38476599999922,106.53857400000015,101.6665039999998,133.20507799999996,101.9228520000006,59.61523400000078,21.538574000000153
189,113.84619099999964,86.15380900000036,99.23095699999976,407.94873000000007,91.0258789999998,121.2822270000006,104.35888699999941,95.76904300000024,101.41015599999992,85.64111300000059,128.0771479999994,100.25634799999989,51.9228520000006,10.641113000000587
190,110.64111300000059,83.20507799999996,97.30761700000039,404.10253900000043,84.61523400000078,120.64111300000059,99.74365200000011,88.7177729999994,97.30761700000039,76.2822270000006,126.9228520000006,100.38476599999922,46.153809000000365,2.8203130000001693
191,109.35888699999941,83.20507799999996,97.43603499999972,403.9741210000002,76.15380900000036,118.46142599999985,98.9741210000002,86.41015599999992,94.87158199999976,77.30761700000039,127.17968800000017,100.38476599999922,43.46142599999985,0.8974609999995664
192,108.58984400000008,83.58984400000008,96.9228520000006,405.76904300000024,67.56396500000028,116.41015599999992,99.61523400000078,87.43603499999972,93.58984400000008,84.10253900000043,125.89746099999957,99.10253900000043,42.56396500000028,3.846190999999635
193,107.30761700000039,83.3334960000002,96.0258789999998,408.3334960000002,65.25634799999989,116.53857400000015,100.51269500000035,89.74365200000011,93.84619099999964,89.48730499999965,123.7177729999994,97.69238299999961,42.69238299999961,8.974121000000196
194,107.05126999999993,84.61523400000078,97.82031300000017,412.5639650000003,75.38476599999922,119.35888699999941,102.43603499999972,94.10253900000043,98.84619099999964,91.2822270000006,125.25634799999989,99.10253900000043,45.897460999999566,15.512695000000349
195,110.12841800000024,89.87158199999976,104.10253900000043,418.9741210000002,96.41015599999992,123.0771479999994,107.30761700000039,102.43603499999972,110.25634799999989,92.56396500000028,133.7177729999994,104.61523400000078,54.61523400000078,23.589844000000085
196,115.89746099999957,98.20507799999996,112.30761700000039,425.12841800000024,117.82031300000017,125.0,114.61523400000078,113.3334960000002,124.35888699999941,97.30761700000039,145.76904300000024,111.6665039999998,67.05126999999993,31.410155999999915
197,120.89746099999957,104.87158199999976,117.43603499999972,428.0771479999994,128.0771479999994,123.84619099999964,120.89746099999957,122.05126999999993,133.3334960000002,105.0,153.9741210000002,115.25634799999989,77.05126999999993,35.897460999999566
198,122.43603499999972,105.76904300000024,116.41015599999992,426.6665039999998,123.20507799999996,120.51269500000035,122.69238299999961,123.84619099999964,132.56396500000028,111.41015599999992,154.48730499999965,112.82031300000017,79.10253900000043,35.0
199,120.51269500000035,101.53857400000015,111.79492200000004,423.20507799999996,109.23095699999976,117.56396500000028,120.12841800000024,119.10253900000043,124.35888699999941,112.69238299999961,151.0258789999998,106.41015599999992,73.58984400000008,30.769043000000238
200,117.30761700000039,95.51269500000035,108.46142599999985,420.0,94.61523400000078,116.6665039999998,116.15380900000036,111.79492200000004,114.87158199999976,108.0771479999994,148.9741210000002,100.89746099999957,65.25634799999989,26.666503999999804
201,112.82031300000017,89.74365200000011,108.20507799999996,416.79492200000004,82.69238299999961,117.94873000000007,113.20507799999996,105.76904300000024,107.82031300000017,98.58984400000008,148.9741210000002,99.35888699999941,58.20507799999996,23.589844000000085
202,106.2822270000006,84.74365200000011,108.3334960000002,412.6923829999996,73.0771479999994,119.48730499999965,110.89746099999957,101.6665039999998,103.20507799999996,87.56396500000028,146.2822270000006,100.64111300000059,53.0771479999994,20.0
203,97.69238299999961,80.38476599999922,105.38476599999922,408.0771479999994,65.51269500000035,119.61523400000078,107.05126999999993,98.0771479999994,99.35888699999941,79.48730499999965,137.17968800000017,101.9228520000006,49.23095699999976,14.743652000000111
204,90.0,77.56396500000028,98.84619099999964,406.0258789999998,63.0771479999994,118.46142599999985,100.89746099999957,94.10253900000043,96.0258789999998,78.7177729999994,123.9741210000002,100.89746099999957,46.410155999999915,8.717772999999397
205,86.9228520000006,77.82031300000017,92.82031300000017,408.7177729999994,69.23095699999976,117.17968800000017,94.48730499999965,91.0258789999998,94.87158199999976,85.64111300000059,113.46142599999985,97.94873000000007,46.025878999999804,5.256347999999889
206,90.76904300000024,82.30761700000039,92.56396500000028,416.15380900000036,83.9741210000002,117.30761700000039,92.30761700000039,91.9228520000006,98.20507799999996,97.30761700000039,112.82031300000017,96.0258789999998,50.0,7.948730000000069
207,101.2822270000006,91.15380900000036,100.12841800000024,426.4101559999999,102.56396500000028,118.9741210000002,97.43603499999972,99.74365200000011,107.30761700000039,109.74365200000011,123.9741210000002,97.69238299999961,58.974121000000196,18.589844000000085
208,114.10253900000043,101.9228520000006,112.56396500000028,435.76904300000024,117.56396500000028,120.89746099999957,108.58984400000008,113.7177729999994,120.0,119.87158199999976,142.3076170000004,102.82031300000017,71.0258789999998,33.974121000000196
209,122.69238299999961,109.61523400000078,122.69238299999961,440.89746099999957,123.3334960000002,121.53857400000015,119.48730499999965,128.0771479999994,131.2822270000006,125.51269500000035,158.46142599999985,108.3334960000002,81.6665039999998,47.30761700000039
210,123.0771479999994,111.0258789999998,125.38476599999922,440.51269500000035,120.51269500000035,120.38476599999922,123.84619099999964,135.89746099999957,136.41015599999992,126.6665039999998,164.3588869999994,110.51269500000035,87.05126999999993,52.56396500000028
211,117.56396500000028,107.56396500000028,121.41015599999992,436.79492200000004,115.0,118.84619099999964,120.76904300000024,133.84619099999964,135.2563479999999,124.87158199999976,160.2563479999999,107.94873000000007,86.53857400000015,49.48730499999965
212,111.79492200000004,104.23095699999976,116.53857400000015,433.5898440000001,111.2822270000006,117.94873000000007,115.38476599999922,125.76904300000024,131.2822270000006,121.6665039999998,152.82031300000017,103.3334960000002,82.56396500000028,43.46142599999985
213,109.74365200000011,103.7177729999994,115.64111300000059,432.3076170000004,107.17968800000017,117.82031300000017,113.0771479999994,117.69238299999961,126.9228520000006,116.41015599999992,149.10253900000043,100.12841800000024,77.30761700000039,39.61523400000078
214,110.64111300000059,103.9741210000002,117.94873000000007,431.4101559999999,98.20507799999996,117.56396500000028,114.74365200000011,113.3334960000002,121.79492200000004,107.82031300000017,149.48730499999965,100.25634799999989,71.79492200000004,38.974121000000196
215,110.89746099999957,101.53857400000015,119.10253900000043,428.9741210000002,86.2822270000006,116.6665039999998,116.6665039999998,111.9228520000006,115.38476599999922,97.30761700000039,149.61523400000078,102.30761700000039,66.6665039999998,39.102539000000434
216,108.46142599999985,95.25634799999989,116.53857400000015,425.3847659999992,80.0,115.76904300000024,114.48730499999965,110.64111300000059,109.74365200000011,89.61523400000078,146.53857400000015,103.3334960000002,62.82031300000017,37.82031300000017
217,103.9741210000002,87.30761700000039,111.15380900000036,422.3076170000004,85.0,115.76904300000024,107.56396500000028,106.9228520000006,107.82031300000017,89.35888699999941,140.76904300000024,101.53857400000015,61.2822270000006,35.0
218,98.9741210000002,80.89746099999957,104.74365200000011,420.0,95.25634799999989,116.79492200000004,98.0771479999994,100.51269500000035,108.3334960000002,94.48730499999965,134.10253900000043,97.17968800000017,60.51269500000035,30.51269500000035
219,94.35888699999941,77.05126999999993,98.0771479999994,417.5639650000003,98.3334960000002,117.17968800000017,90.12841800000024,93.3334960000002,106.0258789999998,98.0771479999994,127.05126999999993,91.9228520000006,57.94873000000007,23.974121000000196
220,90.76904300000024,75.64111300000059,92.30761700000039,414.6152340000008,87.94873000000007,116.0258789999998,86.79492200000004,88.20507799999996,97.43603499999972,94.74365200000011,119.61523400000078,88.20507799999996,52.69238299999961,17.17968800000017
221,90.38476599999922,77.56396500000028,90.76904300000024,414.3588869999994,72.94873000000007,114.87158199999976,89.48730499999965,88.20507799999996,87.05126999999993,86.6665039999998,115.0,87.94873000000007,48.7177729999994,14.487304999999651
222,96.15380900000036,84.23095699999976,96.41015599999992,419.7436520000001,68.9741210000002,115.64111300000059,97.43603499999972,94.35888699999941,84.74365200000011,81.9228520000006,118.20507799999996,92.05126999999993,51.153809000000365,20.641113000000587
223,108.3334960000002,95.0,108.20507799999996,430.3847659999992,83.20507799999996,118.9741210000002,108.0771479999994,104.23095699999976,96.0258789999998,87.30761700000039,130.89746099999957,98.9741210000002,61.79492200000004,35.12841800000024
224,122.69238299999961,106.41015599999992,120.89746099999957,440.3847659999992,107.56396500000028,123.20507799999996,117.43603499999972,113.3334960000002,115.89746099999957,101.53857400000015,147.56396500000028,104.87158199999976,75.64111300000059,51.53857400000015
225,132.82031300000017,114.74365200000011,128.58984400000008,443.9741210000002,126.9228520000006,125.76904300000024,123.20507799999996,118.20507799999996,132.94873000000007,116.79492200000004,159.10253900000043,107.69238299999961,86.0258789999998,62.30761700000039
226,136.15380900000036,118.9741210000002,129.61523400000078,440.3847659999992,132.82031300000017,125.76904300000024,125.25634799999989,119.35888699999941,138.3334960000002,124.87158199999976,160.89746099999957,107.82031300000017,89.48730499999965,64.87158199999976
227,134.48730499999965,120.38476599999922,127.56396500000028,434.3588869999994,128.0771479999994,123.9741210000002,125.12841800000024,120.25634799999989,132.43603499999972,122.69238299999961,156.41015599999992,107.94873000000007,88.46142599999985,63.0771479999994
228,130.76904300000024,119.74365200000011,126.2822270000006,429.87158199999976,119.87158199999976,122.17968800000017,124.48730499999965,122.43603499999972,121.9228520000006,113.20507799999996,152.3076170000004,109.48730499999965,86.79492200000004,61.2822270000006
229,125.76904300000024,116.41015599999992,126.2822270000006,426.79492200000004,112.17968800000017,121.2822270000006,122.94873000000007,123.9741210000002,114.10253900000043,102.30761700000039,152.17968800000017,111.0258789999998,85.38476599999922,60.76904300000024
230,119.61523400000078,109.23095699999976,124.48730499999965,421.79492200000004,104.10253900000043,121.2822270000006,119.87158199999976,121.0258789999998,112.43603499999972,95.76904300000024,152.94873000000007,110.0,82.56396500000028,58.7177729999994
231,112.05126999999993,99.35888699999941,118.3334960000002,413.20507799999996,93.7177729999994,120.64111300000059,115.0,112.30761700000039,114.61523400000078,96.2822270000006,149.48730499999965,105.0,76.41015599999992,52.30761700000039
232,103.46142599999985,89.10253900000043,108.46142599999985,403.0771479999994,81.2822270000006,118.7177729999994,108.58984400000008,100.0,115.0,100.89746099999957,139.23095699999976,97.82031300000017,66.9228520000006,41.666503999999804
233,95.12841800000024,81.53857400000015,98.46142599999985,396.15380900000036,72.17968800000017,116.0258789999998,101.15380900000036,88.9741210000002,110.0,104.10253900000043,125.12841800000024,92.05126999999993,56.9228520000006,30.769043000000238
234,89.87158199999976,80.12841800000024,93.3334960000002,396.9228520000006,73.46142599999985,114.61523400000078,94.48730499999965,84.10253900000043,102.30761700000039,102.82031300000017,115.0,91.0258789999998,51.410155999999915,25.769043000000238
235,91.15380900000036,86.79492200000004,96.15380900000036,406.15380900000036,87.82031300000017,115.76904300000024,91.9228520000006,88.20507799999996,98.84619099999964,99.48730499999965,116.6665039999998,94.61523400000078,53.589844000000085,30.641113000000587
236,98.58984400000008,98.46142599999985,104.74365200000011,418.7177729999994,106.9228520000006,118.46142599999985,95.64111300000059,98.46142599999985,103.46142599999985,98.46142599999985,129.7436520000001,99.74365200000011,62.30761700000039,43.589844000000085
237,106.9228520000006,108.0771479999994,113.46142599999985,426.15380900000036,115.64111300000059,120.0,103.7177729999994,108.0771479999994,112.43603499999972,100.38476599999922,144.7436520000001,102.69238299999961,71.41015599999992,56.2822270000006
238,110.38476599999922,108.84619099999964,116.2822270000006,422.94873000000007,105.76904300000024,118.7177729999994,111.53857400000015,110.25634799999989,118.0771479999994,102.69238299999961,150.0,101.9228520000006,75.12841800000024,60.76904300000024
239,108.46142599999985,100.76904300000024,112.94873000000007,412.4360349999997,86.0258789999998,115.89746099999957,115.25634799999989,104.61523400000078,117.05126999999993,103.0771479999994,143.0771479999994,99.10253900000043,73.0771479999994,56.2822270000006
240,105.76904300000024,91.41015599999992,108.84619099999964,404.6152340000008,74.74365200000011,114.74365200000011,115.12841800000024,97.69238299999961,112.94873000000007,102.17968800000017,132.6923829999996,97.69238299999961,70.89746099999957,49.74365200000011
241,107.05126999999993,88.7177729999994,109.74365200000011,407.3076170000004,82.94873000000007,117.30761700000039,114.10253900000043,96.9228520000006,111.15380900000036,101.53857400000015,130.2563479999999,100.0,73.84619099999964,49.23095699999976
242,111.79492200000004,94.35888699999941,115.25634799999989,417.6923829999996,103.84619099999964,122.05126999999993,113.84619099999964,103.58984400000008,112.56396500000028,101.53857400000015,138.20507799999996,103.9741210000002,80.89746099999957,55.64111300000059
243,115.76904300000024,103.3334960000002,120.51269500000035,425.3847659999992,120.76904300000024,125.12841800000024,114.10253900000043,112.05126999999993,113.9741210000002,101.2822270000006,150.2563479999999,105.76904300000024,86.53857400000015,63.7177729999994
244,116.6665039999998,110.38476599999922,122.56396500000028,422.94873000000007,124.10253900000043,124.35888699999941,114.48730499999965,116.6665039999998,113.58984400000008,100.51269500000035,158.46142599999985,104.10253900000043,87.69238299999961,68.46142599999985
245,116.9228520000006,113.7177729999994,123.58984400000008,411.9228520000006,117.17968800000017,120.76904300000024,116.15380900000036,116.2822270000006,113.46142599999985,100.64111300000059,161.2822270000006,102.05126999999993,86.79492200000004,70.51269500000035
246,119.10253900000043,113.58984400000008,126.79492200000004,399.10253900000043,109.10253900000043,117.05126999999993,120.64111300000059,113.20507799999996,116.15380900000036,102.30761700000039,161.9228520000006,103.20507799999996,87.17968800000017,72.17968800000017
247,121.0258789999998,110.0,130.0,388.0771479999994,103.46142599999985,115.38476599999922,125.76904300000024,108.9741210000002,119.74365200000011,103.9741210000002,161.9228520000006,107.43603499999972,88.7177729999994,73.46142599999985
248,117.56396500000028,102.82031300000017,127.82031300000017,377.4360349999997,98.9741210000002,115.51269500000035,126.9228520000006,103.20507799999996,119.10253900000043,103.3334960000002,159.10253900000043,110.51269500000035,87.30761700000039,71.41015599999992
249,107.56396500000028,95.38476599999922,117.56396500000028,366.2822270000006,95.12841800000024,116.79492200000004,121.0258789999998,96.0258789999998,112.43603499999972,100.64111300000059,151.2822270000006,109.23095699999976,82.05126999999993,64.74365200000011
250,96.2822270000006,92.56396500000028,104.10253900000043,357.4360349999997,94.48730499999965,118.20507799999996,110.12841800000024,90.51269500000035,104.23095699999976,99.10253900000043,141.0258789999998,103.84619099999964,76.41015599999992,56.153809000000365
251,91.0258789999998,96.2822270000006,95.89746099999957,354.6152340000008,98.0771479999994,119.23095699999976,100.51269500000035,89.87158199999976,100.89746099999957,101.79492200000004,133.58984400000008,98.46142599999985,75.25634799999989,50.897460999999566
252,94.10253900000043,103.0771479999994,97.69238299999961,358.0771479999994,103.0771479999994,119.35888699999941,97.17968800000017,93.7177729999994,104.35888699999941,107.05126999999993,132.43603499999972,96.2822270000006,79.10253900000043,52.05126999999993
253,102.30761700000039,107.56396500000028,107.17968800000017,364.10253900000043,105.89746099999957,118.46142599999985,100.89746099999957,97.94873000000007,110.51269500000035,110.89746099999957,137.17968800000017,98.20507799999996,84.61523400000078,58.7177729999994
254,110.25634799999989,107.56396500000028,117.30761700000039,368.0771479999994,106.6665039999998,116.53857400000015,108.0771479999994,99.87158199999976,113.20507799999996,110.38476599999922,143.58984400000008,102.05126999999993,88.84619099999964,66.53857400000015
255,114.48730499999965,105.38476599999922,122.17968800000017,368.3334960000002,108.46142599999985,114.48730499999965,114.48730499999965,99.87158199999976,110.12841800000024,106.2822270000006,147.82031300000017,104.61523400000078,91.0258789999998,71.6665039999998
256,114.35888699999941,103.58984400000008,121.0258789999998,366.53857400000015,112.05126999999993,113.3334960000002,117.05126999999993,100.64111300000059,103.58984400000008,101.2822270000006,148.84619099999964,104.35888699999941,92.05126999999993,72.17968800000017
257,111.9228520000006,103.20507799999996,117.43603499999972,365.2563479999999,114.87158199999976,114.10253900000043,116.53857400000015,104.10253900000043,99.74365200000011,98.58984400000008,149.10253900000043,102.17968800000017,92.43603499999972,69.10253900000043
258,110.89746099999957,104.61523400000078,117.30761700000039,367.05126999999993,113.84619099999964,116.41015599999992,116.6665039999998,109.48730499999965,103.0771479999994,99.74365200000011,152.56396500000028,100.76904300000024,92.43603499999972,66.2822270000006
259,113.46142599999985,107.17968800000017,122.56396500000028,371.9228520000006,109.10253900000043,118.58984400000008,120.12841800000024,114.61523400000078,113.46142599999985,104.35888699999941,159.7436520000001,102.05126999999993,92.30761700000039,67.05126999999993
260,117.82031300000017,109.61523400000078,130.12841800000024,376.15380900000036,103.3334960000002,118.58984400000008,125.51269500000035,116.41015599999992,124.87158199999976,108.84619099999964,166.53857400000015,105.12841800000024,92.43603499999972,70.89746099999957
261,120.0,109.74365200000011,133.0771479999994,375.51269500000035,98.9741210000002,115.12841800000024,127.56396500000028,112.56396500000028,129.61523400000078,108.84619099999964,166.53857400000015,107.05126999999993,92.17968800000017,73.58984400000008
262,117.82031300000017,107.17968800000017,127.43603499999972,368.20507799999996,97.69238299999961,108.9741210000002,122.56396500000028,104.87158199999976,123.9741210000002,103.20507799999996,157.82031300000017,105.76904300000024,91.15380900000036,71.9228520000006
263,113.9741210000002,105.0,116.9228520000006,358.0771479999994,100.64111300000059,102.82031300000017,113.20507799999996,98.3334960000002,112.17968800000017,95.76904300000024,146.2822270000006,102.30761700000039,90.51269500000035,67.56396500000028
264,112.69238299999961,106.41015599999992,109.35888699999941,351.4101559999999,106.53857400000015,99.10253900000043,106.0258789999998,97.56396500000028,102.43603499999972,92.05126999999993,139.7436520000001,99.23095699999976,91.41015599999992,64.61523400000078
265,114.74365200000011,110.38476599999922,108.84619099999964,349.10253900000043,110.38476599999922,99.10253900000043,105.64111300000059,102.17968800000017,98.9741210000002,93.3334960000002,140.89746099999957,98.20507799999996,92.30761700000039,65.0
266,116.41015599999992,112.05126999999993,112.43603499999972,346.53857400000015,107.17968800000017,101.9228520000006,109.87158199999976,106.2822270000006,99.61523400000078,96.79492200000004,145.0,98.7177729999994,90.64111300000059,66.53857400000015
267,114.87158199999976,108.9741210000002,114.87158199999976,339.6152340000008,99.74365200000011,106.15380900000036,113.58984400000008,105.51269500000035,101.41015599999992,99.74365200000011,146.2822270000006,99.23095699999976,87.05126999999993,66.79492200000004
268,112.56396500000028,104.61523400000078,115.0,330.76904300000024,98.3334960000002,110.38476599999922,114.74365200000011,102.17968800000017,105.38476599999922,104.35888699999941,144.61523400000078,99.48730499999965,86.79492200000004,66.6665039999998
269,114.35888699999941,105.25634799999989,116.2822270000006,325.76904300000024,110.38476599999922,114.35888699999941,115.25634799999989,102.69238299999961,114.61523400000078,113.84619099999964,144.7436520000001,100.38476599999922,94.61523400000078,68.9741210000002
270,121.0258789999998,112.17968800000017,121.53857400000015,327.5639650000003,129.87158199999976,117.30761700000039,117.30761700000039,110.12841800000024,127.69238299999961,127.82031300000017,149.7436520000001,102.17968800000017,107.94873000000007,74.48730499999965
271,128.7177729999994,120.0,128.7177729999994,332.3076170000004,141.0258789999998,118.3334960000002,120.76904300000024,119.87158199999976,137.17968800000017,139.7436520000001,157.17968800000017,104.23095699999976,117.82031300000017,79.74365200000011
272,131.79492200000004,122.05126999999993,132.3076170000004,335.2563479999999,133.3334960000002,117.17968800000017,122.69238299999961,123.84619099999964,135.6411130000006,142.17968800000017,161.2822270000006,105.25634799999989,117.05126999999993,80.64111300000059
273,128.84619099999964,117.94873000000007,129.3588869999994,334.6152340000008,111.53857400000015,114.48730499999965,120.89746099999957,118.3334960000002,123.84619099999964,133.46142599999985,158.7177729999994,104.74365200000011,106.9228520000006,76.15380900000036
274,122.17968800000017,112.17968800000017,122.17968800000017,333.3334960000002,91.9228520000006,112.30761700000039,116.0258789999998,107.69238299999961,110.38476599999922,119.35888699999941,151.79492200000004,102.94873000000007,95.51269500000035,69.87158199999976
275,115.89746099999957,109.10253900000043,116.15380900000036,334.48730499999965,87.05126999999993,112.56396500000028,111.0258789999998,100.0,104.74365200000011,108.3334960000002,146.2822270000006,101.15380900000036,90.12841800000024,66.0258789999998
276,112.30761700000039,108.84619099999964,115.12841800000024,337.6923829999996,96.0258789999998,115.64111300000059,108.58984400000008,99.87158199999976,109.35888699999941,105.0,146.2822270000006,100.38476599999922,91.79492200000004,66.15380900000036
277,111.9228520000006,109.61523400000078,120.0,341.15380900000036,109.61523400000078,119.35888699999941,109.61523400000078,106.41015599999992,118.9741210000002,108.58984400000008,152.3076170000004,101.0258789999998,97.43603499999972,69.10253900000043
278,114.35888699999941,110.64111300000059,128.46142599999985,343.5898440000001,118.9741210000002,120.76904300000024,113.84619099999964,114.61523400000078,127.05126999999993,115.0,160.76904300000024,102.05126999999993,103.3334960000002,73.0771479999994
279,118.3334960000002,112.17968800000017,136.41015599999992,344.48730499999965,120.12841800000024,117.94873000000007,118.9741210000002,120.0,130.0,119.48730499999965,166.2822270000006,102.82031300000017,107.82031300000017,76.41015599999992
280,121.15380900000036,112.69238299999961,139.23095699999976,342.5639650000003,112.56396500000028,111.6665039999998,121.2822270000006,119.10253900000043,127.43603499999972,118.9741210000002,163.9741210000002,103.0771479999994,109.23095699999976,77.69238299999961
281,120.25634799999989,110.38476599999922,134.7436520000001,335.76904300000024,98.0771479999994,104.35888699999941,118.58984400000008,111.79492200000004,120.38476599999922,113.84619099999964,153.20507799999996,102.43603499999972,106.0258789999998,75.76904300000024
282,115.38476599999922,104.74365200000011,125.0,323.9741210000002,81.9228520000006,99.23095699999976,111.9228520000006,101.41015599999992,111.0258789999998,107.56396500000028,139.10253900000043,100.89746099999957,98.7177729999994,70.89746099999957
283,110.12841800000024,98.58984400000008,115.38476599999922,309.87158199999976,72.43603499999972,98.46142599999985,104.87158199999976,93.84619099999964,102.69238299999961,104.35888699999941,130.38476599999922,98.46142599999985,90.76904300000024,65.76904300000024
284,109.61523400000078,96.41015599999992,111.6665039999998,297.05126999999993,77.05126999999993,102.82031300000017,101.53857400000015,93.46142599999985,99.87158199999976,105.89746099999957,132.94873000000007,96.6665039999998,87.05126999999993,63.7177729999994
285,116.9228520000006,102.05126999999993,117.05126999999993,288.20507799999996,96.41015599999992,111.2822270000006,103.84619099999964,101.6665039999998,105.38476599999922,112.17968800000017,146.15380900000036,97.30761700000039,90.76904300000024,68.20507799999996
286,130.51269500000035,115.25634799999989,129.61523400000078,281.79492200000004,122.94873000000007,119.87158199999976,110.64111300000059,115.38476599999922,118.84619099999964,121.15380900000036,163.3334960000002,101.53857400000015,101.53857400000015,79.23095699999976
287,143.84619099999964,130.0,143.84619099999964,272.94873000000007,143.20507799999996,124.10253900000043,118.7177729999994,128.3334960000002,135.12841800000024,129.7436520000001,175.2563479999999,107.56396500000028,114.48730499999965,92.69238299999961
288,149.10253900000043,136.9228520000006,151.6665039999998,255.51269500000035,145.51269500000035,121.2822270000006,124.23095699999976,133.58984400000008,146.0258789999998,134.23095699999976,175.6411130000006,112.30761700000039,122.05126999999993,101.2822270000006
289,142.43603499999972,130.38476599999922,148.84619099999964,227.6923829999996,127.82031300000017,113.46142599999985,124.35888699999941,128.0771479999994,145.2563479999999,132.82031300000017,164.23095699999976,112.94873000000007,119.23095699999976,99.87158199999976
290,127.69238299999961,114.10253900000043,137.43603499999972,195.12841800000024,100.38476599999922,106.0258789999998,120.0,115.25634799999989,133.0771479999994,127.17968800000017,148.7177729999994,109.10253900000043,108.7177729999994,90.38476599999922
291,114.48730499999965,99.35888699999941,125.51269500000035,168.84619099999964,80.51269500000035,102.94873000000007,114.74365200000011,102.69238299999961,117.05126999999993,121.2822270000006,138.84619099999964,103.7177729999994,98.20507799999996,80.51269500000035
292,110.12841800000024,96.15380900000036,120.76904300000024,156.41015599999992,80.64111300000059,105.0,111.53857400000015,96.53857400000015,106.6665039999998,117.82031300000017,139.10253900000043,99.48730499999965,94.74365200000011,77.17968800000017
293,113.9741210000002,104.23095699999976,124.87158199999976,155.51269500000035,98.7177729999994,109.23095699999976,111.2822270000006,97.94873000000007,106.2822270000006,115.89746099999957,146.41015599999992,98.3334960000002,98.46142599999985,81.0258789999998
294,119.35888699999941,114.48730499999965,132.94873000000007,156.2822270000006,119.74365200000011,112.17968800000017,112.69238299999961,103.0771479999994,112.82031300000017,113.20507799999996,153.58984400000008,99.87158199999976,103.46142599999985,87.17968800000017
295,120.0,116.6665039999998,137.6923829999996,148.20507799999996,126.79492200000004,111.6665039999998,113.84619099999964,107.05126999999993,118.58984400000008,109.10253900000043,155.0,101.53857400000015,103.7177729999994,89.23095699999976
296,115.0,107.94873000000007,135.2563479999999,128.3334960000002,114.10253900000043,107.56396500000028,114.23095699999976,107.05126999999993,117.94873000000007,105.51269500000035,149.87158199999976,101.2822270000006,97.82031300000017,85.51269500000035
297,109.10253900000043,96.2822270000006,128.0771479999994,102.69238299999961,93.3334960000002,102.56396500000028,113.9741210000002,105.25634799999989,112.05126999999993,104.74365200000011,142.05126999999993,99.10253900000043,90.76904300000024,80.38476599999922
298,108.84619099999964,92.43603499999972,122.94873000000007,81.6665039999998,81.9228520000006,100.12841800000024,114.61523400000078,105.76904300000024,107.17968800000017,107.30761700000039,137.43603499999972,97.69238299999961,89.48730499999965,79.74365200000011
299,116.9228520000006,101.53857400000015,125.12841800000024,71.2822270000006,88.84619099999964,101.53857400000015,116.41015599999992,110.64111300000059,109.23095699999976,111.2822270000006,138.9741210000002,99.10253900000043,96.6665039999998,87.30761700000039
300,129.7436520000001,118.58984400000008,134.87158199999976,68.9741210000002,108.7177729999994,105.38476599999922,119.35888699999941,117.94873000000007,118.58984400000008,114.74365200000011,145.76904300000024,103.20507799999996,108.84619099999964,100.38476599999922
301,139.48730499999965,132.56396500000028,146.79492200000004,66.15380900000036,128.58984400000008,108.58984400000008,123.0771479999994,123.84619099999964,130.0,117.69238299999961,154.10253900000043,107.56396500000028,119.10253900000043,112.17968800000017
302,140.76904300000024,135.76904300000024,153.58984400000008,56.153809000000365,138.58984400000008,108.9741210000002,126.2822270000006,126.0258789999998,136.41015599999992,119.87158199999976,159.3588869999994,109.48730499999965,122.43603499999972,116.2822270000006
303,133.7177729999994,128.20507799999996,150.51269500000035,37.94873000000007,136.6665039999998,106.53857400000015,126.79492200000004,124.10253900000043,133.7177729999994,119.87158199999976,158.84619099999964,108.0771479999994,117.82031300000017,110.76904300000024
304,122.69238299999961,116.53857400000015,138.84619099999964,16.538574000000153,127.56396500000028,103.3334960000002,123.20507799999996,119.23095699999976,123.58984400000008,116.41015599999992,153.3334960000002,104.48730499999965,108.46142599999985,99.10253900000043
305,113.84619099999964,108.3334960000002,125.76904300000024,-1.9228520000006029,117.82031300000017,100.89746099999957,117.30761700000039,113.58984400000008,113.46142599999985,110.64111300000059,147.17968800000017,100.76904300000024,99.48730499999965,88.3334960000002
306,111.53857400000015,106.9228520000006,118.84619099999964,-14.8718259999996,111.0258789999998,100.12841800000024,113.20507799999996,110.38476599999922,111.0258789999998,106.2822270000006,145.0,98.58984400000008,94.87158199999976,84.61523400000078
307,115.12841800000024,109.74365200000011,120.64111300000059,-25.1281740000004,106.0258789999998,100.64111300000059,113.3334960000002,110.38476599999922,118.46142599999985,106.41015599999992,148.3334960000002,98.84619099999964,95.38476599999922,88.58984400000008
308,120.25634799999989,111.2822270000006,126.2822270000006,-37.435790999999426,100.51269500000035,101.79492200000004,115.51269500000035,111.9228520000006,129.48730499999965,111.53857400000015,153.20507799999996,100.38476599999922,98.7177729999994,94.87158199999976
309,121.9228520000006,108.58984400000008,128.9741210000002,-53.33325200000036,94.23095699999976,103.0771479999994,115.25634799999989,112.43603499999972,135.12841800000024,118.9741210000002,154.7436520000001,101.2822270000006,101.53857400000015,97.17968800000017
310,118.20507799999996,102.94873000000007,125.51269500000035,-69.74365200000011,90.12841800000024,103.20507799999996,110.76904300000024,109.74365200000011,130.6411130000006,125.12841800000024,150.6411130000006,100.25634799999989,102.30761700000039,92.82031300000017
311,111.79492200000004,98.0771479999994,119.48730499999965,-82.56420900000057,91.0258789999998,101.79492200000004,104.61523400000078,105.0,119.74365200000011,127.43603499999972,143.0771479999994,97.69238299999961,101.15380900000036,84.74365200000011
312,108.46142599999985,98.3334960000002,117.30761700000039,-88.46142599999985,97.17968800000017,100.25634799999989,102.43603499999972,101.41015599999992,111.79492200000004,126.79492200000004,137.05126999999993,95.12841800000024,100.51269500000035,79.48730499999965
313,112.17968800000017,105.38476599999922,123.3334960000002,-87.30761700000039,106.15380900000036,100.64111300000059,108.0771479999994,103.3334960000002,114.61523400000078,126.0258789999998,136.41015599999992,94.48730499999965,103.58984400000008,82.30761700000039
314,122.94873000000007,116.79492200000004,135.76904300000024,-81.28198199999997,113.58984400000008,104.10253900000043,120.51269500000035,111.6665039999998,127.69238299999961,127.30761700000039,141.9228520000006,96.79492200000004,110.89746099999957,93.58984400000008
315,135.2563479999999,126.9228520000006,147.56396500000028,-74.48706099999981,117.56396500000028,109.61523400000078,132.94873000000007,122.56396500000028,141.9228520000006,129.10253900000043,149.7436520000001,101.0258789999998,119.48730499999965,106.9228520000006
316,141.2822270000006,130.6411130000006,150.6411130000006,-71.53857400000015,118.7177729999994,114.87158199999976,137.43603499999972,128.9741210000002,146.53857400000015,127.94873000000007,153.9741210000002,104.61523400000078,124.48730499999965,113.84619099999964
317,137.05126999999993,127.17968800000017,142.56396500000028,-75.0,118.7177729999994,117.30761700000039,130.89746099999957,126.6665039999998,137.82031300000017,122.05126999999993,151.41015599999992,105.25634799999989,122.82031300000017,109.35888699999941
318,125.0,120.38476599999922,128.0771479999994,-84.74365200000011,117.56396500000028,116.41015599999992,117.82031300000017,117.05126999999993,122.05126999999993,113.84619099999964,143.20507799999996,101.9228520000006,115.38476599999922,96.79492200000004
319,112.30761700000039,114.35888699999941,115.89746099999957,-97.56420900000057,113.3334960000002,112.56396500000028,106.15380900000036,105.89746099999957,109.87158199999976,108.0771479999994,134.7436520000001,96.41015599999992,106.15380900000036,84.74365200000011
320,105.25634799999989,111.0258789999998,112.17968800000017,-108.97436500000003,106.0258789999998,107.69238299999961,101.53857400000015,99.23095699999976,106.79492200000004,107.17968800000017,130.51269500000035,91.53857400000015,99.23095699999976,80.51269500000035
321,105.76904300000024,109.74365200000011,116.9228520000006,-115.38452099999995,98.7177729999994,103.20507799999996,104.48730499999965,98.9741210000002,110.25634799999989,109.23095699999976,132.56396500000028,90.38476599999922,96.6665039999998,84.74365200000011
322,112.30761700000039,109.87158199999976,126.15380900000036,-115.0,95.89746099999957,101.41015599999992,111.15380900000036,103.84619099999964,114.10253900000043,111.15380900000036,139.87158199999976,93.46142599999985,98.20507799999996,92.82031300000017
323,122.30761700000039,112.82031300000017,135.89746099999957,-108.33325200000036,99.87158199999976,103.58984400000008,117.43603499999972,110.89746099999957,115.12841800000024,112.82031300000017,149.61523400000078,99.10253900000043,103.3334960000002,100.25634799999989
324,132.17968800000017,119.61523400000078,144.23095699999976,-98.20507799999996,109.48730499999965,109.87158199999976,121.15380900000036,118.0771479999994,115.76904300000024,115.76904300000024,158.3334960000002,104.35888699999941,111.0258789999998,105.25634799999989
325,138.0771479999994,128.3334960000002,149.7436520000001,-89.48706099999981,119.87158199999976,116.6665039999998,122.30761700000039,123.0771479999994,120.0,120.51269500000035,161.6665039999998,106.6665039999998,119.10253900000043,108.20507799999996
326,137.17968800000017,134.7436520000001,150.51269500000035,-86.79492200000004,124.87158199999976,119.87158199999976,121.2822270000006,123.84619099999964,127.43603499999972,124.23095699999976,156.9228520000006,105.38476599999922,123.9741210000002,109.74365200000011
327,130.12841800000024,135.0,146.79492200000004,-91.41015600000037,121.79492200000004,117.94873000000007,118.9741210000002,119.48730499999965,133.84619099999964,124.23095699999976,145.89746099999957,102.30761700000039,123.3334960000002,109.87158199999976
328,121.53857400000015,129.3588869999994,141.41015599999992,-99.35888699999987,115.25634799999989,112.94873000000007,117.05126999999993,112.30761700000039,135.0,122.43603499999972,135.6411130000006,100.0,118.0771479999994,109.35888699999941
329,117.56396500000028,122.17968800000017,138.3334960000002,-105.1281740000004,113.0771479999994,108.20507799999996,116.6665039999998,106.79492200000004,130.51269500000035,123.0771479999994,132.05126999999993,100.38476599999922,111.9228520000006,108.84619099999964
330,119.87158199999976,117.56396500000028,139.23095699999976,-106.02563499999997,117.82031300000017,105.64111300000059,118.0771479999994,104.87158199999976,123.58984400000008,127.82031300000017,135.0,102.69238299999961,108.20507799999996,108.3334960000002
331,125.0,116.2822270000006,141.6665039999998,-104.23071300000038,124.23095699999976,105.38476599999922,119.48730499999965,105.25634799999989,117.05126999999993,132.17968800000017,138.58984400000008,104.87158199999976,107.43603499999972,106.2822270000006
332,128.0771479999994,116.79492200000004,142.56396500000028,-102.69238299999961,124.35888699999941,106.15380900000036,119.23095699999976,105.51269500000035,112.94873000000007,130.0,137.3076170000004,105.12841800000024,108.20507799999996,102.82031300000017
333,127.05126999999993,117.82031300000017,142.05126999999993,-103.07690400000001,115.64111300000059,107.17968800000017,117.69238299999961,104.61523400000078,112.17968800000017,120.0,131.79492200000004,103.58984400000008,109.48730499999965,100.25634799999989
334,123.3334960000002,118.9741210000002,142.17968800000017,-104.8718259999996,102.56396500000028,107.94873000000007,116.6665039999998,103.58984400000008,114.74365200000011,107.56396500000028,126.6665039999998,102.05126999999993,111.15380900000036,100.89746099999957
335,119.48730499999965,119.74365200000011,143.3334960000002,-108.20507799999996,92.30761700000039,108.0771479999994,117.05126999999993,103.3334960000002,118.58984400000008,100.51269500000035,126.15380900000036,102.05126999999993,112.05126999999993,103.46142599999985
336,116.53857400000015,118.9741210000002,143.7177729999994,-113.07690400000001,89.10253900000043,107.05126999999993,117.94873000000007,103.20507799999996,120.25634799999989,101.53857400000015,129.48730499999965,102.94873000000007,110.0,104.35888699999941
337,113.84619099999964,116.15380900000036,141.41015599999992,-118.07690400000001,92.30761700000039,105.0,117.82031300000017,102.05126999999993,117.69238299999961,107.69238299999961,133.0771479999994,103.3334960000002,104.35888699999941,101.0258789999998
338,110.0,112.05126999999993,137.82031300000017,-120.25634799999989,98.58984400000008,102.94873000000007,116.6665039999998,100.64111300000059,112.43603499999972,113.58984400000008,133.9741210000002,102.82031300000017,98.20507799999996,94.61523400000078
339,104.87158199999976,108.3334960000002,135.89746099999957,-117.17944299999999,105.12841800000024,102.94873000000007,115.89746099999957,100.38476599999922,107.94873000000007,115.76904300000024,132.56396500000028,102.17968800000017,96.2822270000006,89.23095699999976
340,99.87158199999976,107.30761700000039,137.17968800000017,-110.1281740000004,110.25634799999989,105.89746099999957,116.2822270000006,102.17968800000017,106.9228520000006,114.23095699999976,131.0258789999998,101.79492200000004,100.64111300000059,88.3334960000002
341,97.30761700000039,109.87158199999976,140.6411130000006,-102.43579099999943,114.74365200000011,111.0258789999998,117.30761700000039,105.12841800000024,108.9741210000002,111.41015599999992,130.76904300000024,101.0258789999998,107.94873000000007,92.30761700000039
342,98.7177729999994,116.0258789999998,144.10253900000043,-97.17944299999999,120.64111300000059,116.15380900000036,118.46142599999985,108.3334960000002,112.69238299999961,110.51269500000035,132.43603499999972,99.87158199999976,113.9741210000002,99.35888699999941
343,103.3334960000002,123.46142599999985,146.15380900000036,-95.0,128.58984400000008,119.23095699999976,119.48730499999965,111.41015599999992,116.9228520000006,112.17968800000017,135.12841800000024,99.23095699999976,115.89746099999957,106.2822270000006
344,106.9228520000006,127.94873000000007,145.76904300000024,-95.89746100000002,134.3588869999994,118.58984400000008,120.51269500000035,113.7177729999994,120.25634799999989,113.84619099999964,136.41015599999992,100.25634799999989,114.10253900000043,109.23095699999976
345,104.61523400000078,124.87158199999976,141.79492200000004,-100.51293900000019,129.87158199999976,114.10253900000043,121.0258789999998,113.3334960000002,120.64111300000059,111.6665039999998,133.3334960000002,102.05126999999993,108.9741210000002,105.64111300000059
346,95.25634799999989,113.46142599999985,134.10253900000043,-108.97436500000003,111.53857400000015,107.43603499999972,119.61523400000078,108.46142599999985,116.6665039999998,105.0,124.35888699999941,102.05126999999993,101.15380900000036,95.51269500000035
347,83.3334960000002,99.10253900000043,125.12841800000024,-117.43579099999943,86.15380900000036,102.05126999999993,116.0258789999998,100.51269500000035,110.0,97.43603499999972,111.9228520000006,98.3334960000002,92.69238299999961,83.3334960000002
348,76.15380900000036,90.64111300000059,119.61523400000078,-120.25634799999989,69.61523400000078,100.89746099999957,112.17968800000017,94.10253900000043,105.76904300000024,95.12841800000024,102.05126999999993,92.43603499999972,87.56396500000028,75.51269500000035
349,78.20507799999996,93.9741210000002,121.53857400000015,-114.35888699999987,75.0,103.7177729999994,111.15380900000036,94.48730499999965,108.58984400000008,102.05126999999993,100.25634799999989,88.9741210000002,89.23095699999976,76.9228520000006
350,88.20507799999996,107.56396500000028,130.12841800000024,-102.43579099999943,101.79492200000004,108.0771479999994,113.84619099999964,102.56396500000028,118.0771479999994,115.89746099999957,106.9228520000006,90.25634799999989,97.69238299999961,86.79492200000004
351,100.0,122.82031300000017,140.38476599999922,-91.92309599999999,134.7436520000001,110.89746099999957,118.0771479999994,113.58984400000008,127.69238299999961,128.7177729999994,117.05126999999993,94.87158199999976,108.46142599999985,99.10253900000043
352,106.41015599999992,129.48730499999965,145.2563479999999,-89.8718259999996,153.84619099999964,110.64111300000059,120.0,119.48730499999965,129.7436520000001,131.41015599999992,124.10253900000043,98.46142599999985,114.48730499999965,105.89746099999957
353,103.9741210000002,123.84619099999964,140.89746099999957,-98.20507799999996,148.3334960000002,107.94873000000007,117.30761700000039,115.76904300000024,121.79492200000004,120.76904300000024,124.48730499999965,98.20507799999996,110.89746099999957,103.58984400000008
354,95.0,111.0258789999998,130.0,-111.79492200000004,123.3334960000002,104.74365200000011,111.6665039999998,105.51269500000035,109.48730499999965,102.94873000000007,120.76904300000024,94.87158199999976,99.87158199999976,94.87158199999976
355,86.0258789999998,100.0,119.87158199999976,-122.43579099999943,94.74365200000011,102.94873000000007,107.30761700000039,96.79492200000004,101.0258789999998,88.20507799999996,117.82031300000017,91.6665039999998,88.0771479999994,86.41015599999992
356,82.17968800000017,96.0258789999998,116.41015599999992,-124.10253899999998,77.82031300000017,103.0771479999994,107.56396500000028,96.15380900000036,99.87158199999976,82.56396500000028,117.82031300000017,90.89746099999957,82.43603499999972,83.0771479999994
357,82.82031300000017,97.17968800000017,120.12841800000024,-117.43579099999943,77.94873000000007,104.35888699999941,112.30761700000039,102.69238299999961,102.69238299999961,84.74365200000011,118.20507799999996,92.17968800000017,84.10253900000043,84.48730499999965
358,84.35888699999941,98.84619099999964,127.17968800000017,-107.43579099999943,90.0,105.51269500000035,118.0771479999994,110.0,103.3334960000002,89.48730499999965,115.12841800000024,93.0771479999994,89.35888699999941,86.41015599999992
359,84.35888699999941,98.20507799999996,131.9228520000006,-99.48706099999981,103.84619099999964,105.76904300000024,120.76904300000024,111.9228520000006,99.35888699999941,92.69238299999961,108.3334960000002,91.79492200000004,92.94873000000007,85.51269500000035
360,83.58984400000008,96.6665039999998,131.6665039999998,-95.64111300000013,112.05126999999993,105.12841800000024,118.84619099999964,107.30761700000039,93.58984400000008,94.35888699999941,101.79492200000004,88.84619099999964,92.56396500000028,82.69238299999961
361,84.35888699999941,98.0771479999994,127.94873000000007,-94.10253899999998,113.20507799999996,104.61523400000078,114.35888699999941,100.64111300000059,91.41015599999992,97.05126999999993,100.0,86.9228520000006,90.38476599999922,81.41015599999992
362,88.0771479999994,104.23095699999976,125.0,-91.15380900000036,111.15380900000036,105.12841800000024,111.53857400000015,97.69238299999961,96.79492200000004,103.84619099999964,105.25634799999989,88.84619099999964,91.41015599999992,85.0
363,92.82031300000017,112.43603499999972,125.64111300000059,-85.0,109.35888699999941,106.53857400000015,113.0771479999994,100.51269500000035,108.0771479999994,112.69238299999961,114.61523400000078,94.61523400000078,97.30761700000039,92.30761700000039
364,94.48730499999965,116.9228520000006,128.3334960000002,-78.20507799999996,107.69238299999961,107.69238299999961,117.30761700000039,105.89746099999957,118.20507799999996,117.05126999999993,121.2822270000006,100.76904300000024,104.10253900000043,98.0771479999994
365,90.12841800000024,112.82031300000017,129.10253900000043,-75.64111300000013,104.23095699999976,107.17968800000017,120.12841800000024,108.46142599999985,120.38476599999922,110.89746099999957,119.61523400000078,102.94873000000007,105.25634799999989,96.2822270000006
366,81.2822270000006,101.9228520000006,126.79492200000004,-78.71801800000003,100.0,105.12841800000024,118.9741210000002,106.2822270000006,114.23095699999976,97.05126999999993,110.89746099999957,100.25634799999989,98.9741210000002,86.79492200000004
367,74.23095699999976,92.56396500000028,124.35888699999941,-82.94872999999961,100.38476599999922,103.0771479999994,115.76904300000024,104.10253900000043,107.82031300000017,87.56396500000028,103.84619099999964,96.6665039999998,91.0258789999998,77.05126999999993
368,75.38476599999922,93.20507799999996,126.2822270000006,-81.79492200000004,109.61523400000078,102.56396500000028,114.35888699999941,107.17968800000017,109.23095699999976,93.20507799999996,106.6665039999998,96.0258789999998,89.74365200000011,77.43603499999972
369,84.61523400000078,103.58984400000008,132.6923829999996,-73.71801800000003,123.58984400000008,103.58984400000008,116.15380900000036,115.89746099999957,117.69238299999961,112.43603499999972,118.7177729999994,98.84619099999964,97.05126999999993,90.0
370,94.23095699999976,114.23095699999976,138.3334960000002,-64.35888699999987,131.15380900000036,104.35888699999941,118.58984400000008,123.3334960000002,124.74365200000011,130.38476599999922,129.3588869999994,101.41015599999992,106.53857400000015,105.0
371,95.89746099999957,114.87158199999976,137.6923829999996,-61.025634999999966,123.3334960000002,103.58984400000008,118.9741210000002,122.94873000000007,122.56396500000028,131.41015599999992,128.0771479999994,100.25634799999989,108.9741210000002,108.84619099999964
372,86.41015599999992,103.3334960000002,130.12841800000024,-66.53857400000015,102.30761700000039,101.6665039999998,117.05126999999993,114.87158199999976,111.9228520000006,113.9741210000002,113.46142599999985,95.64111300000059,101.0258789999998,95.89746099999957
373,71.0258789999998,87.17968800000017,120.25634799999989,-77.30761700000039,80.51269500000035,100.12841800000024,114.23095699999976,105.89746099999957,100.64111300000059,90.76904300000024,94.48730499999965,90.12841800000024,87.30761700000039,73.58984400000008
374,58.0771479999994,76.79492200000004,113.58984400000008,-86.92309599999999,70.12841800000024,99.87158199999976,112.17968800000017,102.05126999999993,94.87158199999976,78.0771479999994,82.05126999999993,85.89746099999957,76.15380900000036,56.2822270000006
375,54.23095699999976,76.9228520000006,112.94873000000007,-90.1281740000004,73.84619099999964,100.38476599999922,111.41015599999992,103.9741210000002,94.87158199999976,83.0771479999994,81.2822270000006,83.20507799999996,74.23095699999976,54.35888699999941
376,60.897460999999566,85.38476599999922,117.30761700000039,-85.25634799999989,85.76904300000024,101.41015599999992,112.43603499999972,109.10253900000043,97.30761700000039,99.61523400000078,90.38476599999922,82.56396500000028,82.82031300000017,68.46142599999985
377,74.35888699999941,96.41015599999992,124.61523400000078,-75.1281740000004,98.7177729999994,102.82031300000017,115.38476599999922,113.9741210000002,100.38476599999922,116.15380900000036,102.94873000000007,84.48730499999965,97.82031300000017,90.25634799999989
378,87.43603499999972,104.61523400000078,132.3076170000004,-66.02563499999997,108.7177729999994,103.9741210000002,119.10253900000043,117.05126999999993,104.74365200000011,123.0771479999994,112.82031300000017,89.23095699999976,112.17968800000017,108.7177729999994
379,93.58984400000008,106.79492200000004,136.79492200000004,-63.71801800000003,115.38476599999922,103.9741210000002,121.2822270000006,117.17968800000017,110.64111300000059,118.9741210000002,116.9228520000006,95.12841800000024,118.9741210000002,116.0258789999998
380,89.74365200000011,102.56396500000028,135.76904300000024,-69.10253899999998,119.10253900000043,102.17968800000017,119.74365200000011,113.84619099999964,115.76904300000024,108.84619099999964,116.15380900000036,99.10253900000043,115.64111300000059,111.79492200000004
381,79.74365200000011,95.38476599999922,130.51269500000035,-76.53857400000015,120.89746099999957,100.25634799999989,114.74365200000011,108.58984400000008,117.82031300000017,100.64111300000059,114.87158199999976,99.48730499999965,106.15380900000036,102.30761700000039
382,71.6665039999998,90.51269500000035,126.53857400000015,-77.43579099999943,121.9228520000006,99.87158199999976,109.61523400000078,105.12841800000024,116.79492200000004,98.84619099999964,117.30761700000039,97.69238299999961,98.84619099999964,96.41015599999992
383,72.17968800000017,91.2822270000006,128.46142599999985,-68.71801800000003,122.05126999999993,101.15380900000036,108.20507799999996,106.41015599999992,114.87158199999976,102.30761700000039,123.20507799999996,96.2822270000006,99.74365200000011,98.3334960000002
