,EEG.AF3,EEG.F7,EEG.F3,EEG.FC5,EEG.T7,EEG.P7,EEG.O1,EEG.O2,EEG.P8,EEG.T8,EEG.FC6,EEG.F4,EEG.F8,EEG.AF4
0,63.46142599999985,99.74365200000011,116.79492200000004,377.3076170000004,85.12841800000024,102.17968800000017,87.69238299999961,107.17968800000017,94.61523400000078,88.20507799999996,88.20507799999996,98.0771479999994,93.46142599999985,86.53857400000015
1,66.15380900000036,102.30761700000039,121.15380900000036,383.46142599999985,72.94873000000007,101.53857400000015,92.69238299999961,106.2822270000006,96.0258789999998,93.46142599999985,90.51269500000035,97.69238299999961,96.41015599999992,92.30761700000039
2,73.20507799999996,110.76904300000024,127.43603499999972,390.0,69.23095699999976,102.82031300000017,98.7177729999994,109.10253900000043,101.79492200000004,100.38476599999922,97.17968800000017,98.58984400000008,104.10253900000043,99.48730499999965
3,80.12841800000024,119.87158199999976,130.6411130000006,393.7177729999994,72.43603499999972,106.53857400000015,101.9228520000006,113.3334960000002,107.69238299999961,105.64111300000059,103.9741210000002,99.35888699999941,111.0258789999998,102.94873000000007
4,85.0,126.41015599999992,130.6411130000006,396.0258789999998,78.3334960000002,111.9228520000006,102.30761700000039,117.05126999999993,112.69238299999961,109.23095699999976,108.84619099999964,100.0,115.12841800000024,102.56396500000028
5,89.87158199999976,130.2563479999999,131.2822270000006,401.6665039999998,81.6665039999998,116.79492200000004,103.46142599999985,120.64111300000059,117.94873000000007,114.74365200000011,113.0771479999994,101.15380900000036,118.0771479999994,102.56396500000028
6,96.0258789999998,132.3076170000004,135.51269500000035,412.17968800000017,78.0771479999994,118.9741210000002,108.20507799999996,123.84619099999964,122.56396500000028,122.43603499999972,117.17968800000017,102.69238299999961,121.41015599999992,105.25634799999989
7,101.6665039999998,131.9228520000006,141.6665039999998,423.20507799999996,66.2822270000006,117.43603499999972,114.74365200000011,124.61523400000078,122.43603499999972,126.79492200000004,119.61523400000078,103.7177729999994,123.20507799999996,109.23095699999976
8,103.84619099999964,128.46142599999985,144.87158199999976,427.94873000000007,50.38476599999922,113.58984400000008,118.20507799999996,120.38476599999922,114.23095699999976,120.76904300000024,117.94873000000007,103.0771479999994,120.12841800000024,110.51269500000035
9,101.9228520000006,122.43603499999972,141.2822270000006,423.84619099999964,38.46142599999985,110.25634799999989,115.0,111.79492200000004,99.74365200000011,104.48730499999965,111.6665039999998,101.2822270000006,112.43603499999972,107.43603499999972
10,98.58984400000008,116.53857400000015,132.6923829999996,414.23095699999976,37.56396500000028,109.48730499999965,106.0258789999998,103.46142599999985,85.89746099999957,86.6665039999998,103.0771479999994,99.23095699999976,104.74365200000011,102.56396500000028
11,97.94873000000007,114.23095699999976,125.12841800000024,407.05126999999993,48.589844000000085,110.89746099999957,97.17968800000017,100.89746099999957,80.51269500000035,77.94873000000007,96.9228520000006,98.3334960000002,103.20507799999996,100.64111300000059
12,102.17968800000017,116.6665039999998,123.84619099999964,407.82031300000017,64.61523400000078,113.58984400000008,94.61523400000078,105.51269500000035,86.79492200000004,82.56396500000028,96.53857400000015,99.10253900000043,108.58984400000008,104.74365200000011
13,108.20507799999996,120.38476599999922,128.20507799999996,415.6411130000006,74.61523400000078,115.89746099999957,98.84619099999964,113.58984400000008,99.48730499999965,94.35888699999941,100.89746099999957,101.2822270000006,115.64111300000059,112.30761700000039
14,110.64111300000059,120.64111300000059,132.17968800000017,423.7177729999994,71.2822270000006,117.05126999999993,104.35888699999941,118.46142599999985,108.84619099999964,102.05126999999993,104.87158199999976,102.94873000000007,116.9228520000006,116.9228520000006
15,107.30761700000039,115.51269500000035,130.89746099999957,425.76904300000024,57.56396500000028,116.53857400000015,105.12841800000024,116.41015599999992,108.7177729999994,99.35888699999941,103.9741210000002,102.30761700000039,110.25634799999989,115.25634799999989
16,102.82031300000017,109.35888699999941,126.15380900000036,422.17968800000017,45.51269500000035,115.0,101.15380900000036,110.12841800000024,101.53857400000015,90.12841800000024,98.9741210000002,99.74365200000011,101.2822270000006,110.25634799999989
17,105.0,108.46142599999985,123.9741210000002,419.10253900000043,45.25634799999989,113.84619099999964,97.05126999999993,105.64111300000059,95.89746099999957,84.10253900000043,95.76904300000024,98.20507799999996,98.46142599999985,109.23095699999976
18,118.84619099999964,115.25634799999989,129.7436520000001,422.17968800000017,55.51269500000035,113.3334960000002,97.69238299999961,107.56396500000028,98.3334960000002,87.82031300000017,99.48730499999965,100.25634799999989,105.51269500000035,118.20507799999996
19,142.17968800000017,125.12841800000024,142.56396500000028,430.76904300000024,64.35888699999941,112.43603499999972,103.0771479999994,114.48730499999965,107.30761700000039,99.10253900000043,110.38476599999922,106.2822270000006,118.46142599999985,137.94873000000007
20,166.0258789999998,130.51269500000035,155.51269500000035,439.87158199999976,60.76904300000024,110.38476599999922,109.23095699999976,120.89746099999957,114.61523400000078,109.87158199999976,123.7177729999994,113.20507799999996,128.84619099999964,162.43603499999972
21,179.10253900000043,126.6665039999998,161.2822270000006,443.46142599999985,44.74365200000011,107.30761700000039,111.15380900000036,122.05126999999993,113.46142599999985,113.84619099999964,132.94873000000007,116.9228520000006,130.51269500000035,181.2822270000006
22,174.7436520000001,116.53857400000015,157.56396500000028,440.6411130000006,27.56396500000028,105.0,108.20507799999996,117.69238299999961,105.64111300000059,111.53857400000015,134.61523400000078,115.38476599999922,123.9741210000002,186.53857400000015
23,154.61523400000078,108.46142599999985,148.7177729999994,435.51269500000035,23.846190999999635,105.12841800000024,103.3334960000002,112.30761700000039,99.35888699999941,108.84619099999964,130.38476599999922,109.87158199999976,115.89746099999957,178.9741210000002
24,127.17968800000017,108.84619099999964,141.15380900000036,433.46142599999985,39.102539000000434,108.46142599999985,100.38476599999922,111.15380900000036,101.0258789999998,109.35888699999941,124.87158199999976,103.58984400000008,112.82031300000017,168.84619099999964
25,101.2822270000006,116.6665039999998,137.3076170000004,435.89746099999957,64.74365200000011,113.3334960000002,101.0258789999998,114.74365200000011,108.84619099999964,110.51269500000035,120.89746099999957,99.87158199999976,115.89746099999957,167.94873000000007
26,82.94873000000007,124.48730499999965,134.48730499999965,439.7436520000001,83.3334960000002,117.05126999999993,104.10253900000043,119.48730499999965,114.87158199999976,106.41015599999992,117.56396500000028,99.48730499999965,120.12841800000024,182.05126999999993
27,74.10253900000043,124.87158199999976,129.23095699999976,441.79492200000004,81.9228520000006,117.56396500000028,106.6665039999998,121.41015599999992,112.82031300000017,95.25634799999989,111.53857400000015,100.38476599999922,119.35888699999941,209.3588869999994
28,74.74365200000011,116.0258789999998,121.41015599999992,442.6923829999996,62.30761700000039,115.25634799999989,106.6665039999998,119.48730499999965,104.74365200000011,83.20507799999996,102.94873000000007,100.25634799999989,111.2822270000006,245.0
29,83.7177729999994,103.7177729999994,114.74365200000011,446.4101559999999,40.76904300000024,111.79492200000004,103.9741210000002,115.76904300000024,99.10253900000043,79.10253900000043,95.89746099999957,98.0771479999994,99.87158199999976,285.51269500000035
30,100.38476599999922,96.41015599999992,113.20507799999996,457.05126999999993,35.64111300000059,109.10253900000043,100.51269500000035,113.58984400000008,103.0771479999994,87.17968800000017,95.64111300000059,96.0258789999998,91.79492200000004,330.12841800000024
31,124.87158199999976,98.7177729999994,118.9741210000002,475.2563479999999,51.2822270000006,106.41015599999992,98.9741210000002,114.48730499999965,115.12841800000024,102.30761700000039,103.7177729999994,96.79492200000004,91.9228520000006,377.4360349999997
32,157.6923829999996,108.3334960000002,130.38476599999922,497.5639650000003,75.25634799999989,102.56396500000028,100.38476599999922,117.05126999999993,124.74365200000011,115.0,115.64111300000059,101.2822270000006,100.64111300000059,423.20507799999996
33,196.0258789999998,119.23095699999976,143.46142599999985,519.3588869999994,88.0771479999994,97.94873000000007,104.35888699999941,118.84619099999964,123.20507799999996,118.46142599999985,125.76904300000024,108.20507799999996,113.84619099999964,462.82031300000017
34,231.41015599999992,126.15380900000036,153.46142599999985,537.5639650000003,81.53857400000015,95.76904300000024,109.74365200000011,118.3334960000002,112.17968800000017,114.23095699999976,131.9228520000006,114.87158199999976,126.41015599999992,495.51269500000035
35,253.9741210000002,129.23095699999976,158.3334960000002,551.4101559999999,65.76904300000024,99.10253900000043,115.76904300000024,117.17968800000017,103.7177729999994,109.74365200000011,136.2822270000006,118.84619099999964,133.9741210000002,527.6923829999996
36,259.23095699999976,130.89746099999957,158.58984400000008,561.4101559999999,59.61523400000078,107.56396500000028,120.89746099999957,117.94873000000007,107.56396500000028,110.76904300000024,141.41015599999992,119.74365200000011,135.76904300000024,570.3847659999992
37,252.6923829999996,132.82031300000017,156.6665039999998,566.794922,72.30761700000039,116.15380900000036,123.3334960000002,121.79492200000004,120.51269500000035,114.74365200000011,146.41015599999992,118.20507799999996,133.58984400000008,630.1284180000002
38,246.41015599999992,133.9741210000002,153.9741210000002,565.2563479999999,94.61523400000078,118.58984400000008,121.41015599999992,126.6665039999998,129.3588869999994,114.61523400000078,147.3076170000004,115.51269500000035,131.2822270000006,702.3076170000004
39,250.6411130000006,131.53857400000015,150.51269500000035,555.8974609999996,107.05126999999993,112.94873000000007,115.25634799999989,127.94873000000007,123.9741210000002,105.89746099999957,141.15380900000036,111.6665039999998,131.79492200000004,770.2563479999999
40,267.3076170000004,124.48730499999965,145.76904300000024,541.5385740000002,97.56396500000028,103.7177729999994,106.9228520000006,122.05126999999993,106.6665039999998,92.94873000000007,129.48730499999965,106.79492200000004,134.48730499999965,814.4873049999997
41,289.7436520000001,116.15380900000036,140.38476599999922,529.8715819999998,72.30761700000039,98.3334960000002,99.61523400000078,110.12841800000024,90.25634799999989,85.12841800000024,118.20507799999996,102.17968800000017,136.6665039999998,824.6152340000008
42,309.23095699999976,111.2822270000006,136.9228520000006,528.4614259999998,52.05126999999993,100.76904300000024,95.76904300000024,98.20507799999996,86.0258789999998,88.3334960000002,113.46142599999985,99.74365200000011,136.15380900000036,807.5639650000003
43,321.53857400000015,113.46142599999985,137.6923829999996,539.2309569999998,55.25634799999989,109.10253900000043,96.53857400000015,93.58984400000008,95.76904300000024,99.74365200000011,117.30761700000039,101.0258789999998,134.23095699999976,782.0512699999999
44,327.3076170000004,121.2822270000006,142.94873000000007,556.4101559999999,82.94873000000007,117.30761700000039,100.51269500000035,98.9741210000002,111.2822270000006,111.53857400000015,127.30761700000039,105.25634799999989,134.7436520000001,765.3847659999992
45,330.2563479999999,130.6411130000006,150.38476599999922,571.0258789999998,117.94873000000007,120.51269500000035,105.64111300000059,111.53857400000015,124.35888699999941,118.9741210000002,139.10253900000043,110.64111300000059,141.53857400000015,762.8203130000002
46,334.23095699999976,137.82031300000017,157.82031300000017,577.0512699999999,138.84619099999964,118.20507799999996,111.0258789999998,125.51269500000035,133.3334960000002,124.35888699999941,151.0258789999998,115.0,155.89746099999957,767.9487300000001
47,341.4101559999999,141.15380900000036,163.9741210000002,575.3847659999992,135.51269500000035,113.58984400000008,116.41015599999992,136.2822270000006,141.9228520000006,132.05126999999993,163.46142599999985,117.94873000000007,173.7177729999994,771.6665039999998
48,350.2563479999999,140.38476599999922,168.46142599999985,571.2822270000006,115.0,110.0,121.0258789999998,140.89746099999957,152.05126999999993,141.79492200000004,175.12841800000024,120.12841800000024,187.56396500000028,768.7177729999994
49,357.82031300000017,135.6411130000006,170.6411130000006,570.1284180000002,92.43603499999972,107.69238299999961,122.56396500000028,139.10253900000043,159.10253900000043,147.43603499999972,180.89746099999957,122.17968800000017,191.2822270000006,760.1284180000002
50,362.17968800000017,127.69238299999961,170.2563479999999,572.8203130000002,79.87158199999976,105.38476599999922,119.35888699999941,132.3076170000004,155.38476599999922,143.58984400000008,176.2822270000006,123.84619099999964,183.7177729999994,749.3588869999994
51,363.20507799999996,119.74365200000011,168.0771479999994,576.5385740000002,81.2822270000006,102.94873000000007,112.56396500000028,123.7177729999994,139.10253900000043,131.53857400000015,162.94873000000007,123.9741210000002,170.6411130000006,738.3334960000002
52,360.51269500000035,116.53857400000015,165.89746099999957,578.5898440000001,94.61523400000078,101.79492200000004,106.41015599999992,117.56396500000028,118.9741210000002,120.25634799999989,150.89746099999957,122.30761700000039,161.2822270000006,727.1796880000002
53,353.46142599999985,120.12841800000024,164.87158199999976,578.205078,112.82031300000017,103.84619099999964,105.25634799999989,117.43603499999972,108.58984400000008,118.3334960000002,150.0,119.74365200000011,160.51269500000035,715.2563479999999
54,341.9228520000006,127.69238299999961,163.84619099999964,576.2822270000006,127.05126999999993,108.0771479999994,110.12841800000024,122.82031300000017,113.58984400000008,125.12841800000024,159.87158199999976,117.69238299999961,165.38476599999922,701.4101559999999
55,329.7436520000001,132.3076170000004,160.51269500000035,573.7177729999994,129.48730499999965,110.76904300000024,116.9228520000006,128.58984400000008,126.15380900000036,132.05126999999993,168.9741210000002,116.9228520000006,167.3076170000004,686.5385740000002
56,324.10253900000043,129.10253900000043,154.10253900000043,571.2822270000006,119.74365200000011,108.7177729999994,119.74365200000011,128.46142599999985,133.20507799999996,130.89746099999957,165.2563479999999,116.6665039999998,160.2563479999999,674.3588869999994
57,330.3847659999992,120.38476599999922,147.82031300000017,569.7436520000001,105.25634799999989,102.69238299999961,116.2822270000006,120.64111300000059,128.9741210000002,122.69238299999961,147.94873000000007,116.2822270000006,146.79492200000004,669.4873049999997
58,347.3076170000004,113.46142599999985,146.53857400000015,570.5126950000003,96.53857400000015,96.9228520000006,110.0,111.0258789999998,120.25634799999989,116.6665039999998,129.10253900000043,115.38476599999922,136.15380900000036,672.9487300000001
59,366.15380900000036,114.74365200000011,152.94873000000007,574.3588869999994,99.87158199999976,95.89746099999957,107.56396500000028,108.84619099999964,118.9741210000002,120.76904300000024,122.82031300000017,114.61523400000078,136.2822270000006,680.5126950000003
60,377.4360349999997,123.3334960000002,163.84619099999964,580.2563479999999,112.69238299999961,100.25634799999989,112.43603499999972,118.20507799999996,129.87158199999976,132.6923829999996,133.20507799999996,115.64111300000059,146.9228520000006,685.1284180000002
61,375.76904300000024,131.15380900000036,171.0258789999998,584.1025390000004,125.25634799999989,106.0258789999998,121.2822270000006,134.10253900000043,146.41015599999992,141.53857400000015,149.3588869999994,118.46142599999985,159.23095699999976,681.0258789999998
62,361.53857400000015,129.23095699999976,167.17968800000017,581.4101559999999,128.46142599999985,108.58984400000008,126.2822270000006,145.2563479999999,156.41015599999992,138.46142599999985,155.12841800000024,120.64111300000059,162.17968800000017,667.3076170000004
63,340.0,115.25634799999989,152.17968800000017,572.1796880000002,121.2822270000006,106.15380900000036,122.05126999999993,143.84619099999964,152.3076170000004,124.35888699999941,142.6923829999996,119.48730499999965,151.41015599999992,647.8203130000002
64,320.12841800000024,97.05126999999993,134.7436520000001,561.6665039999998,111.6665039999998,101.6665039999998,110.64111300000059,131.2822270000006,137.05126999999993,109.87158199999976,119.74365200000011,113.9741210000002,132.82031300000017,630.6411130000006
65,312.3076170000004,87.17968800000017,126.2822270000006,556.794922,108.9741210000002,99.61523400000078,100.51269500000035,118.46142599999985,121.9228520000006,106.53857400000015,103.9741210000002,107.82031300000017,118.58984400000008,622.5639650000003
66,321.15380900000036,92.30761700000039,132.3076170000004,559.6152340000008,115.64111300000059,102.56396500000028,99.61523400000078,116.2822270000006,117.69238299999961,116.6665039999998,108.20507799999996,105.76904300000024,116.6665039999998,625.2563479999999
67,340.0,108.3334960000002,147.56396500000028,565.3847659999992,125.12841800000024,109.35888699999941,108.3334960000002,125.64111300000059,126.53857400000015,132.05126999999993,128.7177729999994,109.23095699999976,124.61523400000078,632.9487300000001
68,354.6152340000008,122.43603499999972,159.48730499999965,566.4101559999999,127.30761700000039,115.51269500000035,118.46142599999985,137.05126999999993,140.2563479999999,140.89746099999957,148.0771479999994,114.48730499999965,131.9228520000006,636.0258789999998
69,354.7436520000001,125.38476599999922,159.61523400000078,559.3588869999994,119.48730499999965,117.56396500000028,121.6665039999998,139.23095699999976,148.84619099999964,138.20507799999996,150.51269500000035,117.05126999999993,131.0258789999998,628.9741210000002
70,342.6923829999996,118.7177729999994,150.38476599999922,548.9741210000002,110.25634799999989,115.76904300000024,116.6665039999998,130.89746099999957,149.10253900000043,129.7436520000001,135.6411130000006,115.25634799999989,124.61523400000078,615.0
71,329.7436520000001,112.05126999999993,141.79492200000004,543.4614259999998,110.89746099999957,113.3334960000002,110.76904300000024,121.15380900000036,145.76904300000024,125.76904300000024,116.6665039999998,112.05126999999993,121.41015599999992,602.4360349999997
72,324.23095699999976,112.43603499999972,141.6665039999998,547.1796880000002,124.10253900000043,112.69238299999961,111.6665039999998,119.74365200000011,144.87158199999976,130.51269500000035,107.82031300000017,110.51269500000035,125.51269500000035,596.1538090000004
73,326.2822270000006,117.69238299999961,148.0771479999994,556.1538090000004,139.7436520000001,113.7177729999994,119.61523400000078,127.30761700000039,146.6665039999998,137.6923829999996,112.56396500000028,111.53857400000015,131.41015599999992,594.8715819999998
74,329.48730499999965,119.61523400000078,152.82031300000017,562.0512699999999,144.3588869999994,114.61523400000078,128.20507799999996,135.2563479999999,146.79492200000004,137.6923829999996,123.3334960000002,112.94873000000007,130.38476599999922,594.4873049999997
75,329.6152340000008,113.7177729999994,150.12841800000024,560.0,133.20507799999996,114.74365200000011,130.51269500000035,134.3588869999994,142.05126999999993,127.56396500000028,130.51269500000035,112.17968800000017,119.61523400000078,592.5639650000003
76,327.17968800000017,102.82031300000017,141.2822270000006,551.9228520000006,113.46142599999985,114.23095699999976,125.12841800000024,123.20507799999996,132.43603499999972,113.3334960000002,129.10253900000043,108.84619099999964,105.51269500000035,590.2563479999999
77,324.23095699999976,93.0771479999994,132.94873000000007,543.9741210000002,97.30761700000039,114.23095699999976,116.53857400000015,109.23095699999976,121.2822270000006,103.84619099999964,120.51269500000035,104.74365200000011,97.82031300000017,587.9487300000001
78,320.89746099999957,88.84619099999964,130.2563479999999,540.6411130000006,93.46142599999985,114.87158199999976,110.64111300000059,102.30761700000039,112.05126999999993,103.46142599999985,109.48730499999965,101.9228520000006,100.25634799999989,584.4873049999997
79,314.6152340000008,91.0258789999998,133.0771479999994,541.2822270000006,103.3334960000002,115.89746099999957,111.0258789999998,107.17968800000017,108.3334960000002,109.74365200000011,101.15380900000036,101.53857400000015,108.84619099999964,577.3076170000004
80,303.3334960000002,97.56396500000028,136.15380900000036,542.4360349999997,120.0,116.9228520000006,115.76904300000024,120.12841800000024,111.41015599999992,116.15380900000036,97.56396500000028,102.94873000000007,114.48730499999965,566.0258789999998
81,287.6923829999996,103.9741210000002,134.3588869999994,541.0258789999998,131.9228520000006,117.30761700000039,120.12841800000024,131.15380900000036,119.61523400000078,116.9228520000006,96.53857400000015,104.10253900000043,110.51269500000035,552.4360349999997
82,272.05126999999993,104.61523400000078,126.6665039999998,537.4360349999997,130.2563479999999,115.89746099999957,119.87158199999976,131.53857400000015,127.69238299999961,110.76904300000024,95.0,103.20507799999996,97.43603499999972,540.8974609999996
83,263.20507799999996,97.56396500000028,117.05126999999993,534.1025390000004,116.15380900000036,113.20507799999996,115.51269500000035,121.0258789999998,131.53857400000015,101.9228520000006,92.69238299999961,100.38476599999922,83.20507799999996,535.3847659999992
84,264.7436520000001,86.79492200000004,111.15380900000036,534.2309569999998,100.12841800000024,111.0258789999998,110.51269500000035,107.82031300000017,130.89746099999957,97.30761700000039,92.43603499999972,97.17968800000017,76.79492200000004,536.9228520000006
85,273.5898440000001,80.12841800000024,112.43603499999972,538.0771479999994,94.23095699999976,111.79492200000004,109.23095699999976,102.43603499999972,129.10253900000043,100.38476599999922,96.6665039999998,96.0258789999998,82.30761700000039,541.5385740000002
86,280.12841800000024,83.0771479999994,120.12841800000024,544.1025390000004,103.3334960000002,116.15380900000036,113.0771479999994,110.12841800000024,129.23095699999976,108.46142599999985,104.35888699999941,97.82031300000017,95.76904300000024,543.4614259999998
87,276.9228520000006,95.25634799999989,130.38476599999922,549.7436520000001,123.58984400000008,122.43603499999972,120.89746099999957,126.79492200000004,132.82031300000017,115.38476599999922,113.0771479999994,101.79492200000004,109.23095699999976,538.8461909999996
88,264.23095699999976,110.38476599999922,138.58984400000008,553.4614259999998,144.7436520000001,127.69238299999961,129.87158199999976,143.20507799999996,139.23095699999976,118.0771479999994,120.0,106.41015599999992,117.82031300000017,529.1025390000004
89,249.7436520000001,119.87158199999976,141.0258789999998,553.9741210000002,156.0258789999998,129.10253900000043,136.6665039999998,151.6665039999998,146.15380900000036,118.3334960000002,123.84619099999964,110.12841800000024,120.38476599999922,518.8461909999996
90,240.38476599999922,117.05126999999993,136.6665039999998,550.2563479999999,151.2822270000006,126.0258789999998,138.3334960000002,149.87158199999976,148.9741210000002,119.23095699999976,123.9741210000002,111.15380900000036,117.94873000000007,511.2822270000006
91,236.9228520000006,101.79492200000004,127.05126999999993,542.3076170000004,132.56396500000028,120.0,134.3588869999994,140.6411130000006,143.7177729999994,120.12841800000024,119.74365200000011,108.0771479999994,111.15380900000036,506.79492200000004
92,236.6665039999998,81.6665039999998,116.6665039999998,532.5639650000003,108.9741210000002,114.10253900000043,126.9228520000006,129.23095699999976,131.79492200000004,118.84619099999964,112.17968800000017,101.9228520000006,101.53857400000015,504.7436520000001
93,239.61523400000078,68.46142599999985,112.17968800000017,526.1538090000004,93.84619099999964,111.2822270000006,120.89746099999957,121.9228520000006,120.89746099999957,115.51269500000035,105.12841800000024,96.6665039999998,94.23095699999976,506.0258789999998
94,247.94873000000007,72.05126999999993,118.58984400000008,528.4614259999998,96.9228520000006,112.69238299999961,120.64111300000059,123.20507799999996,120.25634799999989,115.38476599999922,104.35888699999941,97.30761700000039,95.76904300000024,512.3076170000004
95,261.0258789999998,91.0258789999998,134.10253900000043,539.1025390000004,117.56396500000028,117.17968800000017,126.9228520000006,133.20507799999996,132.56396500000028,123.0771479999994,112.30761700000039,103.9741210000002,108.46142599999985,520.6411130000006
96,269.48730499999965,111.2822270000006,148.58984400000008,549.1025390000004,140.89746099999957,121.15380900000036,134.10253900000043,144.87158199999976,148.84619099999964,134.48730499999965,123.46142599999985,111.79492200000004,124.35888699999941,522.0512699999999
97,261.15380900000036,114.61523400000078,148.9741210000002,545.8974609999996,147.17968800000017,121.6665039999998,134.3588869999994,147.05126999999993,154.10253900000043,137.6923829999996,126.9228520000006,113.7177729999994,129.87158199999976,507.6923829999996
98,232.56396500000028,94.61523400000078,130.76904300000024,524.3588869999994,127.56396500000028,117.94873000000007,123.84619099999964,133.58984400000008,139.61523400000078,122.56396500000028,115.38476599999922,107.17968800000017,116.6665039999998,478.9741210000002
99,196.41015599999992,63.46142599999985,104.10253900000043,494.3588869999994,92.56396500000028,113.0771479999994,108.0771479999994,110.25634799999989,111.53857400000015,92.56396500000028,93.7177729999994,96.15380900000036,91.0258789999998,449.3588869999994
100,173.58984400000008,43.0771479999994,87.56396500000028,474.6152340000008,65.25634799999989,110.76904300000024,98.58984400000008,91.6665039999998,87.94873000000007,65.76904300000024,75.89746099999957,88.3334960000002,70.89746099999957,435.6411130000006
101,177.3076170000004,47.82031300000017,94.48730499999965,478.5898440000001,64.23095699999976,112.69238299999961,103.7177729999994,90.25634799999989,85.89746099999957,62.05126999999993,75.38476599999922,89.10253900000043,72.30761700000039,443.5898440000001
102,202.82031300000017,74.35888699999941,121.15380900000036,502.6923829999996,90.38476599999922,117.05126999999993,121.15380900000036,106.2822270000006,107.82031300000017,87.05126999999993,94.61523400000078,97.17968800000017,96.0258789999998,464.87158199999976
103,229.87158199999976,103.9741210000002,148.9741210000002,527.4360349999997,126.53857400000015,120.89746099999957,139.3588869999994,127.30761700000039,138.3334960000002,124.10253900000043,122.17968800000017,106.41015599999992,125.51269500000035,481.2822270000006
104,237.43603499999972,116.9228520000006,158.58984400000008,532.6923829999996,149.7436520000001,121.9228520000006,145.38476599999922,138.3334960000002,155.38476599999922,146.2822270000006,140.6411130000006,110.64111300000059,139.87158199999976,477.17968800000017
105,219.61523400000078,106.6665039999998,145.0,513.3334960000002,147.43603499999972,119.48730499999965,135.38476599999922,133.58984400000008,147.43603499999972,137.6923829999996,140.0,107.69238299999961,130.12841800000024,449.7436520000001
106,190.2563479999999,84.48730499999965,120.64111300000059,482.82031300000017,126.9228520000006,115.51269500000035,117.82031300000017,119.74365200000011,122.17968800000017,108.9741210000002,125.0,101.15380900000036,106.53857400000015,408.9741210000002
107,172.05126999999993,71.15380900000036,105.76904300000024,462.05126999999993,107.43603499999972,112.69238299999961,107.05126999999993,110.64111300000059,102.43603499999972,88.20507799999996,111.41015599999992,96.53857400000015,90.25634799999989,367.6923829999996
108,179.10253900000043,80.25634799999989,111.6665039999998,462.82031300000017,104.48730499999965,112.94873000000007,111.2822270000006,115.76904300000024,106.6665039999998,96.6665039999998,112.17968800000017,97.56396500000028,96.15380900000036,329.7436520000001
109,206.0258789999998,106.2822270000006,132.17968800000017,478.0771479999994,116.0258789999998,116.0258789999998,126.0258789999998,132.17968800000017,133.46142599999985,128.9741210000002,126.0258789999998,102.82031300000017,120.12841800000024,288.0771479999994
110,233.7177729999994,128.7177729999994,149.3588869999994,488.0771479999994,126.41015599999992,119.23095699999976,138.0771479999994,146.9228520000006,162.05126999999993,157.56396500000028,139.23095699999976,107.05126999999993,143.9741210000002,234.10253900000043
111,244.61523400000078,128.7177729999994,148.0771479999994,478.20507799999996,121.2822270000006,120.12841800000024,137.05126999999993,146.9228520000006,169.3588869999994,157.43603499999972,138.20507799999996,105.76904300000024,149.48730499999965,168.7177729999994
112,236.53857400000015,105.0,127.94873000000007,450.12841800000024,100.25634799999989,118.20507799999996,122.30761700000039,130.2563479999999,148.3334960000002,127.17968800000017,120.51269500000035,98.7177729999994,133.3334960000002,103.7177729999994
113,224.7436520000001,75.0,103.3334960000002,420.3847659999992,77.56396500000028,115.12841800000024,103.84619099999964,108.20507799999996,112.94873000000007,90.12841800000024,97.82031300000017,90.51269500000035,108.84619099999964,53.589844000000085
114,230.51269500000035,61.53857400000015,92.69238299999961,405.89746099999957,70.38476599999922,113.58984400000008,94.74365200000011,97.43603499999972,88.3334960000002,73.46142599999985,86.53857400000015,86.79492200000004,94.87158199999976,25.128418000000238
115,265.76904300000024,74.35888699999941,103.7177729999994,410.2563479999999,84.35888699999941,114.87158199999976,101.6665039999998,106.53857400000015,91.2822270000006,87.43603499999972,95.0,90.76904300000024,101.6665039999998,11.666503999999804
116,323.46142599999985,103.46142599999985,126.6665039999998,420.89746099999957,109.48730499999965,117.94873000000007,118.46142599999985,128.0771479999994,117.30761700000039,117.69238299999961,115.38476599999922,99.87158199999976,122.69238299999961,-1.2822270000006029
117,383.3334960000002,126.9228520000006,142.43603499999972,421.0258789999998,127.56396500000028,120.12841800000024,130.89746099999957,144.23095699999976,143.7177729999994,137.94873000000007,130.89746099999957,107.05126999999993,140.51269500000035,-25.0
118,426.9228520000006,127.94873000000007,137.82031300000017,403.9741210000002,127.43603499999972,119.35888699999941,128.3334960000002,141.79492200000004,148.20507799999996,131.2822270000006,129.3588869999994,106.2822270000006,141.15380900000036,-57.69238299999961
119,451.2822270000006,108.46142599999985,117.05126999999993,379.6152340000008,112.94873000000007,115.89746099999957,113.84619099999964,122.56396500000028,127.56396500000028,104.10253900000043,113.84619099999964,97.69238299999961,125.89746099999957,-86.15380900000036
120,467.17968800000017,86.0258789999998,97.56396500000028,364.23095699999976,98.20507799999996,112.43603499999972,100.38476599999922,101.41015599999992,99.48730499999965,80.12841800000024,98.9741210000002,87.69238299999961,109.35888699999941,-95.89746100000002
121,486.53857400000015,79.48730499999965,94.74365200000011,366.79492200000004,95.25634799999989,112.17968800000017,99.61523400000078,93.20507799999996,86.53857400000015,79.35888699999941,97.05126999999993,84.10253900000043,105.64111300000059,-83.71801800000003
122,510.6411130000006,93.3334960000002,109.61523400000078,380.89746099999957,103.9741210000002,115.64111300000059,111.53857400000015,101.2822270000006,97.05126999999993,101.6665039999998,107.69238299999961,88.7177729999994,116.53857400000015,-60.25634799999989
123,528.5898440000001,115.51269500000035,128.84619099999964,390.76904300000024,113.9741210000002,120.12841800000024,125.76904300000024,116.53857400000015,119.48730499999965,128.0771479999994,119.35888699999941,96.79492200000004,131.0258789999998,-43.33325200000036
124,528.3334960000002,128.46142599999985,137.17968800000017,385.6411130000006,113.46142599999985,121.2822270000006,131.53857400000015,125.89746099999957,135.2563479999999,138.9741210000002,120.25634799999989,101.0258789999998,136.0258789999998,-43.974365000000034
125,507.3076170000004,123.84619099999964,129.61523400000078,368.3334960000002,100.25634799999989,116.9228520000006,125.38476599999922,122.94873000000007,134.10253900000043,128.58984400000008,108.84619099999964,97.82031300000017,127.17968800000017,-60.1281740000004
126,474.10253900000043,107.43603499999972,113.7177729999994,352.05126999999993,83.46142599999985,108.46142599999985,112.05126999999993,111.0258789999998,119.48730499999965,105.76904300000024,93.58984400000008,90.25634799999989,110.76904300000024,-79.23071300000038
127,441.6665039999998,92.30761700000039,102.17968800000017,348.3334960000002,75.12841800000024,100.76904300000024,99.61523400000078,99.61523400000078,102.30761700000039,83.46142599999985,84.87158199999976,84.61523400000078,97.30761700000039,-88.97436500000003
128,418.3334960000002,88.20507799999996,102.69238299999961,357.4360349999997,79.87158199999976,97.56396500000028,93.7177729999994,96.0258789999998,91.0258789999998,69.87158199999976,86.2822270000006,85.12841800000024,94.35888699999941,-86.02563499999997
129,404.6152340000008,96.41015599999992,113.84619099999964,369.87158199999976,92.69238299999961,100.25634799999989,95.38476599999922,100.38476599999922,87.56396500000028,67.43603499999972,93.20507799999996,90.89746099999957,101.6665039999998,-75.1281740000004
130,395.51269500000035,110.76904300000024,127.94873000000007,376.15380900000036,103.58984400000008,106.79492200000004,101.79492200000004,106.53857400000015,90.0,75.64111300000059,98.84619099999964,97.82031300000017,113.7177729999994,-63.846190999999635
131,386.4101559999999,123.84619099999964,137.82031300000017,374.3588869999994,107.05126999999993,113.84619099999964,109.35888699999941,108.20507799999996,95.76904300000024,91.2822270000006,101.15380900000036,101.79492200000004,123.3334960000002,-57.30761700000039
132,375.89746099999957,131.53857400000015,141.9228520000006,369.23095699999976,104.74365200000011,118.20507799999996,115.25634799999989,105.0,103.58984400000008,108.20507799999996,103.0771479999994,102.05126999999993,127.56396500000028,-55.38452099999995
133,364.6152340000008,133.58984400000008,142.6923829999996,367.05126999999993,101.53857400000015,117.82031300000017,118.0771479999994,101.9228520000006,111.41015599999992,118.84619099999964,108.0771479999994,100.76904300000024,127.30761700000039,-55.51293900000019
134,352.3076170000004,130.89746099999957,142.3076170000004,368.7177729999994,100.25634799999989,112.69238299999961,117.30761700000039,102.05126999999993,115.51269500000035,118.0771479999994,114.74365200000011,100.12841800000024,125.25634799999989,-55.38452099999995
135,336.6665039999998,123.84619099999964,139.48730499999965,370.12841800000024,99.35888699999941,105.12841800000024,112.56396500000028,103.58984400000008,112.05126999999993,106.41015599999992,116.9228520000006,100.0,121.9228520000006,-55.38452099999995
136,317.4360349999997,113.9741210000002,133.0771479999994,367.4360349999997,97.05126999999993,99.61523400000078,104.48730499999965,102.43603499999972,101.41015599999992,91.79492200000004,111.0258789999998,99.23095699999976,116.79492200000004,-56.53857400000015
137,299.48730499999965,106.2822270000006,125.89746099999957,363.0771479999994,95.76904300000024,100.12841800000024,96.9228520000006,98.20507799999996,90.76904300000024,85.25634799999989,101.79492200000004,97.94873000000007,112.17968800000017,-57.82055700000001
138,290.6411130000006,107.05126999999993,123.84619099999964,363.0771479999994,100.0,107.05126999999993,95.76904300000024,96.41015599999992,90.51269500000035,94.48730499999965,100.25634799999989,98.20507799999996,112.94873000000007,-56.025634999999966
139,292.94873000000007,117.30761700000039,130.51269500000035,370.3847659999992,110.51269500000035,116.0258789999998,103.0771479999994,101.15380900000036,103.58984400000008,116.0258789999998,111.6665039999998,101.0258789999998,121.41015599999992,-50.0
140,298.0771479999994,129.48730499999965,141.53857400000015,379.10253900000043,119.61523400000078,120.89746099999957,114.35888699999941,110.12841800000024,120.89746099999957,136.2822270000006,128.58984400000008,103.9741210000002,132.17968800000017,-43.58984399999963
141,293.5898440000001,132.56396500000028,147.3076170000004,379.6152340000008,117.56396500000028,117.82031300000017,121.41015599999992,116.0258789999998,128.20507799999996,140.38476599999922,135.76904300000024,103.7177729999994,135.89746099999957,-43.33325200000036
142,274.23095699999976,122.30761700000039,141.41015599999992,367.82031300000017,102.56396500000028,108.7177729999994,119.74365200000011,113.84619099999964,118.7177729999994,124.61523400000078,124.87158199999976,99.35888699999941,127.17968800000017,-51.41015600000037
143,247.43603499999972,106.0258789999998,126.53857400000015,350.51269500000035,85.89746099999957,100.51269500000035,112.17968800000017,105.51269500000035,100.12841800000024,99.35888699999941,102.30761700000039,93.84619099999964,110.89746099999957,-62.435790999999426
144,226.41015599999992,95.89746099999957,112.69238299999961,339.87158199999976,82.82031300000017,99.23095699999976,105.0,97.69238299999961,86.79492200000004,80.0,83.20507799999996,91.79492200000004,98.20507799999996,-67.94872999999961
145,218.20507799999996,98.0771479999994,107.30761700000039,342.6923829999996,97.82031300000017,105.51269500000035,101.79492200000004,95.25634799999989,86.0258789999998,74.35888699999941,78.20507799999996,94.10253900000043,96.2822270000006,-64.61547900000005
146,218.58984400000008,107.82031300000017,110.51269500000035,353.84619099999964,119.23095699999976,113.20507799999996,101.2822270000006,97.43603499999972,92.30761700000039,78.20507799999996,85.12841800000024,97.17968800000017,102.82031300000017,-57.051270000000386
147,216.79492200000004,114.61523400000078,115.89746099999957,362.17968800000017,128.46142599999985,115.25634799999989,100.89746099999957,100.76904300000024,95.12841800000024,82.94873000000007,93.7177729999994,96.53857400000015,108.46142599999985,-52.948729999999614
148,206.15380900000036,113.0771479999994,117.69238299999961,360.3847659999992,117.05126999999993,109.48730499999965,100.89746099999957,102.94873000000007,91.41015599999992,84.61523400000078,95.38476599999922,91.15380900000036,107.17968800000017,-55.38452099999995
149,188.58984400000008,106.41015599999992,115.64111300000059,351.2822270000006,93.84619099999964,100.89746099999957,103.0771479999994,104.87158199999976,88.3334960000002,86.15380900000036,90.89746099999957,85.0,100.25634799999989,-60.51293900000019
150,171.0258789999998,102.43603499999972,112.82031300000017,343.5898440000001,76.0258789999998,97.17968800000017,107.82031300000017,108.0771479999994,94.48730499999965,91.79492200000004,86.53857400000015,82.17968800000017,93.9741210000002,-62.17944299999999
151,159.7436520000001,105.76904300000024,112.43603499999972,344.87158199999976,76.2822270000006,102.05126999999993,113.0771479999994,113.3334960000002,110.38476599999922,101.79492200000004,88.20507799999996,84.48730499999965,94.48730499999965,-57.051270000000386
152,156.15380900000036,114.87158199999976,115.38476599999922,354.48730499999965,93.9741210000002,112.17968800000017,116.2822270000006,119.74365200000011,127.94873000000007,112.56396500000028,96.0258789999998,89.74365200000011,102.43603499999972,-47.69238299999961
153,156.79492200000004,123.20507799999996,119.74365200000011,366.0258789999998,116.6665039999998,120.76904300000024,116.41015599999992,124.61523400000078,136.0258789999998,120.12841800000024,104.74365200000011,93.9741210000002,112.94873000000007,-40.25634799999989
154,155.38476599999922,124.74365200000011,121.6665039999998,371.4101559999999,128.9741210000002,122.56396500000028,112.94873000000007,124.87158199999976,128.84619099999964,121.2822270000006,107.56396500000028,93.7177729999994,118.7177729999994,-40.0
155,148.3334960000002,118.3334960000002,119.23095699999976,367.6923829999996,124.61523400000078,118.84619099999964,106.79492200000004,119.35888699999941,110.38476599999922,115.38476599999922,101.6665039999998,89.10253900000043,115.76904300000024,-47.051270000000386
156,137.94873000000007,110.38476599999922,114.87158199999976,359.10253900000043,111.53857400000015,114.23095699999976,101.0258789999998,111.9228520000006,93.20507799999996,106.15380900000036,92.82031300000017,83.46142599999985,108.0771479999994,-55.1281740000004
157,130.89746099999957,108.9741210000002,113.7177729999994,353.84619099999964,103.0771479999994,112.82031300000017,100.0,108.3334960000002,89.74365200000011,100.25634799999989,90.38476599999922,82.17968800000017,104.23095699999976,-56.79492200000004
158,131.15380900000036,116.0258789999998,117.56396500000028,356.15380900000036,104.74365200000011,114.10253900000043,104.74365200000011,110.76904300000024,101.53857400000015,102.05126999999993,98.46142599999985,86.79492200000004,108.58984400000008,-50.25634799999989
159,135.38476599999922,124.61523400000078,122.69238299999961,362.3076170000004,110.12841800000024,115.12841800000024,111.0258789999998,115.51269500000035,118.20507799999996,109.23095699999976,111.15380900000036,93.7177729999994,117.30761700000039,-41.025634999999966
160,136.2822270000006,125.76904300000024,123.58984400000008,364.6152340000008,108.84619099999964,113.46142599999985,112.94873000000007,116.53857400000015,125.25634799999989,114.61523400000078,117.43603499999972,97.56396500000028,121.41015599999992,-36.66674799999964
161,128.84619099999964,116.53857400000015,117.56396500000028,358.9741210000002,98.20507799999996,109.61523400000078,107.56396500000028,110.12841800000024,117.43603499999972,112.82031300000017,111.15380900000036,95.76904300000024,115.38476599999922,-40.64111300000013
162,115.25634799999989,102.17968800000017,107.30761700000039,347.5639650000003,85.25634799999989,105.51269500000035,98.0771479999994,97.94873000000007,100.76904300000024,104.48730499999965,96.2822270000006,89.87158199999976,102.05126999999993,-49.48706099999981
163,102.17968800000017,91.2822270000006,98.84619099999964,337.3076170000004,79.23095699999976,102.69238299999961,90.89746099999957,86.15380900000036,86.41015599999992,94.74365200000011,82.69238299999961,83.7177729999994,89.87158199999976,-56.41015600000037
164,96.0258789999998,90.0,97.17968800000017,334.87158199999976,84.61523400000078,101.79492200000004,90.64111300000059,81.79492200000004,81.53857400000015,89.35888699999941,78.84619099999964,81.6665039999998,87.05126999999993,-56.53857400000015
165,98.9741210000002,98.84619099999964,103.7177729999994,342.5639650000003,98.7177729999994,102.56396500000028,97.82031300000017,88.0771479999994,86.6665039999998,91.79492200000004,86.79492200000004,85.25634799999989,95.25634799999989,-49.23071300000038
166,107.43603499999972,112.82031300000017,115.64111300000059,356.53857400000015,114.74365200000011,103.58984400000008,108.46142599999985,102.05126999999993,97.56396500000028,101.2822270000006,101.0258789999998,92.94873000000007,109.48730499999965,-38.33325200000036
167,114.23095699999976,124.35888699999941,126.6665039999998,369.3588869999994,125.89746099999957,103.84619099999964,116.41015599999992,115.89746099999957,107.69238299999961,112.05126999999993,112.56396500000028,100.38476599999922,121.0258789999998,-29.8718259999996
168,112.94873000000007,127.05126999999993,131.15380900000036,373.5898440000001,127.43603499999972,102.56396500000028,116.53857400000015,121.53857400000015,112.30761700000039,116.0258789999998,113.7177729999994,103.3334960000002,122.82031300000017,-28.333252000000357
169,102.69238299999961,119.74365200000011,127.56396500000028,366.2822270000006,118.20507799999996,100.25634799999989,108.7177729999994,115.89746099999957,110.0,109.23095699999976,103.7177729999994,100.25634799999989,114.23095699999976,-33.58984399999963
170,88.20507799999996,107.05126999999993,119.61523400000078,351.0258789999998,102.30761700000039,97.69238299999961,97.43603499999972,102.69238299999961,102.94873000000007,96.6665039999998,89.23095699999976,92.69238299999961,101.0258789999998,-41.66674799999964
171,77.17968800000017,97.43603499999972,112.56396500000028,336.4101559999999,87.82031300000017,96.2822270000006,89.48730499999965,90.76904300000024,95.64111300000059,88.7177729999994,80.0,85.12841800000024,92.05126999999993,-46.28198199999997
172,74.74365200000011,97.56396500000028,111.15380900000036,330.89746099999957,82.94873000000007,96.79492200000004,89.87158199999976,88.46142599999985,93.0771479999994,92.56396500000028,82.05126999999993,81.9228520000006,93.58984400000008,-43.846190999999635
173,80.25634799999989,108.9741210000002,117.05126999999993,338.20507799999996,90.25634799999989,99.10253900000043,98.3334960000002,98.3334960000002,97.94873000000007,107.05126999999993,94.74365200000011,85.0,105.0,-34.74365200000011
174,88.46142599999985,126.41015599999992,127.94873000000007,354.6152340000008,104.87158199999976,101.6665039999998,109.87158199999976,115.25634799999989,109.87158199999976,123.84619099999964,111.79492200000004,92.17968800000017,119.48730499999965,-23.846190999999635
175,93.46142599999985,140.76904300000024,139.10253900000043,370.76904300000024,118.3334960000002,102.82031300000017,118.46142599999985,130.38476599999922,124.23095699999976,133.9741210000002,126.0258789999998,99.61523400000078,129.48730499999965,-16.794922000000042
176,92.05126999999993,144.10253900000043,144.3588869999994,377.5639650000003,123.46142599999985,101.79492200000004,120.0,136.15380900000036,134.48730499999965,133.46142599999985,132.05126999999993,103.7177729999994,130.6411130000006,-16.794922000000042
177,84.87158199999976,134.87158199999976,140.2563479999999,371.0258789999998,118.46142599999985,99.74365200000011,114.10253900000043,130.0,135.2563479999999,122.82031300000017,127.94873000000007,103.0771479999994,124.23095699999976,-23.58984399999963
178,75.25634799999989,118.7177729999994,128.9741210000002,355.76904300000024,107.94873000000007,98.58984400000008,103.9741210000002,116.53857400000015,125.89746099999957,107.43603499999972,116.53857400000015,98.84619099999964,115.25634799999989,-32.82055700000001
179,67.82031300000017,106.41015599999992,118.3334960000002,342.5639650000003,100.38476599999922,99.87158199999976,96.2822270000006,105.38476599999922,112.94873000000007,95.64111300000059,105.76904300000024,94.61523400000078,109.87158199999976,-38.71801800000003
180,65.89746099999957,105.64111300000059,116.0258789999998,341.2822270000006,100.64111300000059,102.69238299999961,96.41015599999992,103.9741210000002,105.38476599999922,94.35888699999941,103.9741210000002,93.7177729999994,111.15380900000036,-37.435790999999426
181,68.3334960000002,113.9741210000002,122.30761700000039,351.53857400000015,104.87158199999976,104.48730499999965,103.7177729999994,111.6665039999998,107.43603499999972,103.3334960000002,112.05126999999993,96.2822270000006,116.15380900000036,-30.641113000000132
182,69.23095699999976,120.38476599999922,130.0,362.82031300000017,104.35888699999941,103.46142599999985,111.53857400000015,120.0,113.58984400000008,114.61523400000078,121.53857400000015,99.61523400000078,117.56396500000028,-24.8718259999996
183,63.589844000000085,116.53857400000015,132.05126999999993,364.7436520000001,95.76904300000024,100.38476599999922,113.0771479999994,120.64111300000059,114.74365200000011,118.84619099999964,122.17968800000017,100.76904300000024,111.53857400000015,-24.8718259999996
184,53.974121000000196,105.89746099999957,127.94873000000007,356.2822270000006,86.79492200000004,97.82031300000017,108.3334960000002,113.84619099999964,107.82031300000017,114.35888699999941,112.69238299999961,99.61523400000078,102.05126999999993,-29.61547900000005
185,47.56396500000028,99.61523400000078,123.46142599999985,345.89746099999957,87.94873000000007,97.82031300000017,103.3334960000002,107.05126999999993,98.58984400000008,107.69238299999961,101.79492200000004,98.46142599999985,97.43603499999972,-33.58984399999963
186,48.974121000000196,105.76904300000024,123.3334960000002,341.53857400000015,100.51269500000035,100.0,104.10253900000043,107.30761700000039,95.12841800000024,105.76904300000024,98.84619099999964,99.10253900000043,102.56396500000028,-32.30761700000039
187,54.61523400000078,120.76904300000024,126.53857400000015,343.3334960000002,114.23095699999976,102.30761700000039,109.48730499999965,113.58984400000008,99.23095699999976,108.58984400000008,104.35888699999941,100.25634799999989,113.20507799999996,-27.30761700000039
188,56.79492200000004,132.56396500000028,128.0771479999994,345.0,116.6665039999998,102.94873000000007,113.46142599999985,118.46142599999985,105.12841800000024,109.87158199999976,110.51269500000035,99.35888699999941,119.61523400000078,-23.846190999999635
189,51.666503999999804,132.17968800000017,125.12841800000024,341.79492200000004,105.38476599999922,101.53857400000015,111.0258789999998,115.0,106.41015599999992,105.51269500000035,110.12841800000024,95.38476599999922,115.64111300000059,-25.512939000000188
190,43.46142599999985,121.53857400000015,119.87158199999976,335.6411130000006,91.15380900000036,99.74365200000011,104.48730499999965,104.35888699999941,102.82031300000017,97.82031300000017,103.20507799999996,91.15380900000036,105.0,-30.0
191,40.897460999999566,112.05126999999993,118.3334960000002,333.46142599999985,87.69238299999961,99.61523400000078,101.15380900000036,95.64111300000059,100.0,93.7177729999994,96.79492200000004,90.76904300000024,98.3334960000002,-31.666747999999643
192,48.333496000000196,113.20507799999996,123.84619099999964,340.3847659999992,100.38476599999922,101.53857400000015,106.15380900000036,97.05126999999993,102.94873000000007,97.56396500000028,97.69238299999961,95.12841800000024,103.0771479999994,-27.179442999999992
193,61.025878999999804,124.61523400000078,133.7177729999994,353.84619099999964,121.6665039999998,104.23095699999976,116.79492200000004,107.94873000000007,110.76904300000024,107.82031300000017,106.0258789999998,101.6665039999998,115.89746099999957,-19.230713000000378
194,68.7177729999994,135.89746099999957,140.12841800000024,365.3847659999992,137.6923829999996,105.76904300000024,124.35888699999941,119.23095699999976,116.9228520000006,118.46142599999985,115.12841800000024,105.51269500000035,125.12841800000024,-14.102538999999979
195,64.10253900000043,136.2822270000006,136.9228520000006,366.9228520000006,139.3588869999994,105.76904300000024,121.41015599999992,120.51269500000035,115.38476599999922,122.69238299999961,117.17968800000017,103.58984400000008,121.53857400000015,-16.538574000000153
196,49.23095699999976,123.7177729999994,125.12841800000024,357.82031300000017,128.58984400000008,104.35888699999941,108.20507799999996,109.87158199999976,105.64111300000059,117.17968800000017,109.61523400000078,96.15380900000036,105.64111300000059,-25.0
197,33.333496000000196,106.53857400000015,112.17968800000017,344.6152340000008,114.61523400000078,102.56396500000028,93.3334960000002,93.9741210000002,93.0771479999994,104.23095699999976,97.05126999999993,86.79492200000004,87.82031300000017,-33.20507799999996
198,25.769043000000238,95.51269500000035,105.89746099999957,336.2822270000006,105.64111300000059,101.0258789999998,86.15380900000036,82.43603499999972,84.74365200000011,89.87158199999976,87.05126999999993,80.89746099999957,79.48730499999965,-35.51293900000019
199,29.230956999999762,96.15380900000036,108.9741210000002,337.17968800000017,103.20507799999996,100.25634799999989,90.12841800000024,80.64111300000059,84.35888699999941,81.0258789999998,85.12841800000024,81.53857400000015,84.48730499999965,-30.769286999999622
200,38.20507799999996,104.61523400000078,116.6665039999998,344.7436520000001,103.9741210000002,100.12841800000024,100.0,86.41015599999992,89.74365200000011,80.38476599999922,89.74365200000011,87.56396500000028,96.79492200000004,-23.205077999999958
201,43.0771479999994,111.0258789999998,121.9228520000006,351.53857400000015,103.7177729999994,100.12841800000024,106.9228520000006,93.46142599999985,94.48730499999965,84.48730499999965,94.23095699999976,94.35888699999941,105.0,-18.846190999999635
202,37.56396500000028,108.46142599999985,120.51269500000035,351.2822270000006,100.76904300000024,99.48730499999965,105.25634799999989,95.25634799999989,91.6665039999998,86.6665039999998,92.56396500000028,97.17968800000017,101.15380900000036,-21.025634999999966
203,23.846190999999635,98.7177729999994,113.84619099999964,344.7436520000001,96.6665039999998,98.3334960000002,96.9228520000006,90.76904300000024,80.76904300000024,83.46142599999985,85.38476599999922,94.74365200000011,87.82031300000017,-27.820557000000008
204,12.051269999999931,91.41015599999992,107.94873000000007,337.82031300000017,95.38476599999922,97.69238299999961,89.87158199999976,84.87158199999976,69.35888699999941,77.82031300000017,79.74365200000011,89.87158199999976,75.89746099999957,-32.69238299999961
205,12.56396500000028,95.76904300000024,108.9741210000002,337.5639650000003,101.6665039999998,98.7177729999994,91.2822270000006,84.61523400000078,67.82031300000017,76.41015599999992,82.82031300000017,86.79492200000004,76.6665039999998,-29.61547900000005
206,26.794922000000042,112.30761700000039,118.84619099999964,345.89746099999957,117.05126999999993,100.76904300000024,101.79492200000004,92.56396500000028,80.64111300000059,84.10253900000043,95.64111300000059,88.58984400000008,91.6665039999998,-18.205077999999958
207,46.153809000000365,131.15380900000036,133.0771479999994,357.6923829999996,135.76904300000024,102.17968800000017,114.48730499999965,103.84619099999964,101.41015599999992,100.25634799999989,111.53857400000015,94.61523400000078,111.53857400000015,-4.743652000000111
208,57.30761700000039,138.7177729999994,143.3334960000002,364.6152340000008,146.6665039999998,101.2822270000006,119.74365200000011,109.87158199999976,117.30761700000039,118.3334960000002,121.15380900000036,101.53857400000015,122.30761700000039,2.3076170000003913
209,52.82031300000017,128.84619099999964,143.46142599999985,361.79492200000004,142.17968800000017,97.82031300000017,112.69238299999961,105.12841800000024,119.10253900000043,129.48730499999965,118.9741210000002,104.74365200000011,117.94873000000007,-1.153809000000365
210,37.05126999999993,108.7177729999994,135.12841800000024,352.05126999999993,126.0258789999998,94.23095699999976,98.20507799999996,92.94873000000007,107.69238299999961,128.58984400000008,107.82031300000017,102.82031300000017,104.10253900000043,-10.897461000000021
211,22.17968800000017,93.9741210000002,126.9228520000006,343.3334960000002,111.41015599999992,93.46142599999985,87.17968800000017,83.84619099999964,93.0771479999994,116.6665039999998,97.17968800000017,98.46142599999985,93.58984400000008,-18.333252000000357
212,19.102539000000434,96.15380900000036,127.30761700000039,342.05126999999993,109.35888699999941,96.6665039999998,88.3334960000002,86.2822270000006,86.9228520000006,102.30761700000039,96.6665039999998,96.2822270000006,94.74365200000011,-16.923095999999987
213,28.717772999999397,113.20507799999996,137.17968800000017,348.0771479999994,119.61523400000078,101.53857400000015,101.41015599999992,100.12841800000024,93.84619099999964,95.0,108.0771479999994,98.7177729999994,105.25634799999989,-7.435790999999426
214,41.153809000000365,131.41015599999992,148.0771479999994,354.6152340000008,131.15380900000036,103.9741210000002,116.53857400000015,115.89746099999957,108.0771479999994,97.17968800000017,122.17968800000017,104.10253900000043,115.25634799999989,2.6923829999996087
215,42.82031300000017,134.87158199999976,148.9741210000002,353.7177729999994,131.53857400000015,101.6665039999998,121.15380900000036,121.41015599999992,116.79492200000004,101.0258789999998,125.12841800000024,106.41015599999992,114.10253900000043,3.9741210000001956
216,27.69238299999961,118.20507799999996,134.48730499999965,341.6665039999998,116.79492200000004,95.64111300000059,109.87158199999976,111.53857400000015,109.74365200000011,95.64111300000059,109.87158199999976,101.0258789999998,98.46142599999985,-7.692382999999609
217,3.077147999999397,92.43603499999972,111.41015599999992,323.7177729999994,95.89746099999957,90.51269500000035,89.74365200000011,92.94873000000007,89.10253900000043,79.35888699999941,83.58984400000008,89.61523400000078,75.64111300000059,-26.41015600000037
218,-14.230713000000378,76.41015599999992,94.35888699999941,309.7436520000001,84.10253900000043,90.12841800000024,75.64111300000059,79.74365200000011,69.48730499999965,63.333496000000196,62.56396500000028,79.35888699999941,60.12841800000024,-39.10253899999998
219,-11.666747999999643,82.30761700000039,94.87158199999976,307.6923829999996,90.89746099999957,94.87158199999976,79.10253900000043,82.94873000000007,65.89746099999957,61.9228520000006,60.25634799999989,77.69238299999961,62.82031300000017,-35.89746100000002
220,8.589844000000085,104.74365200000011,111.79492200000004,317.17968800000017,112.05126999999993,101.15380900000036,98.46142599999985,100.76904300000024,80.89746099999957,78.84619099999964,75.89746099999957,85.89746099999957,81.9228520000006,-18.461425999999847
221,30.897460999999566,126.2822270000006,131.79492200000004,330.12841800000024,132.17968800000017,104.48730499999965,119.74365200000011,120.51269500000035,102.56396500000028,103.46142599999985,97.17968800000017,97.94873000000007,103.9741210000002,1.4101559999999154
222,39.74365200000011,132.05126999999993,141.0258789999998,337.4360349999997,138.0771479999994,102.94873000000007,127.69238299999961,127.82031300000017,115.64111300000059,119.61523400000078,110.64111300000059,105.76904300000024,114.48730499999965,10.769043000000238
223,31.282227000000603,121.15380900000036,134.87158199999976,334.7436520000001,129.61523400000078,99.10253900000043,117.82031300000017,118.3334960000002,113.84619099999964,119.87158199999976,110.64111300000059,104.48730499999965,109.10253900000043,5.256347999999889
224,14.743652000000111,105.38476599999922,120.25634799999989,325.2563479999999,118.3334960000002,96.6665039999998,98.3334960000002,99.23095699999976,103.3334960000002,109.23095699999976,101.79492200000004,95.38476599999922,95.12841800000024,-8.71801800000003
225,3.2050779999999577,98.58984400000008,107.94873000000007,315.6411130000006,113.9741210000002,97.43603499999972,83.0771479999994,82.94873000000007,94.74365200000011,99.35888699999941,92.69238299999961,84.61523400000078,83.7177729999994,-20.512939000000188
226,3.3334960000001956,104.35888699999941,104.61523400000078,311.6665039999998,115.64111300000059,100.38476599999922,80.64111300000059,77.56396500000028,94.48730499999965,98.46142599999985,89.61523400000078,79.23095699999976,82.05126999999993,-22.051270000000386
227,12.82031300000017,116.15380900000036,109.74365200000011,313.9741210000002,115.0,102.82031300000017,90.25634799999989,82.94873000000007,100.64111300000059,106.0258789999998,93.0771479999994,82.69238299999961,88.84619099999964,-13.71801800000003
228,24.48730499999965,124.23095699999976,118.58984400000008,319.23095699999976,107.69238299999961,103.58984400000008,103.0771479999994,93.3334960000002,107.56396500000028,114.87158199999976,99.61523400000078,92.43603499999972,98.3334960000002,-1.5385740000001533
229,31.794922000000042,124.61523400000078,125.51269500000035,323.7177729999994,98.0771479999994,102.82031300000017,110.12841800000024,101.6665039999998,110.0,116.6665039999998,104.35888699999941,101.53857400000015,104.48730499999965,7.051269999999931
230,31.666503999999804,119.48730499999965,127.30761700000039,324.7436520000001,92.82031300000017,101.53857400000015,107.17968800000017,103.46142599999985,106.0258789999998,108.3334960000002,104.35888699999941,103.84619099999964,104.48730499999965,7.56396500000028
231,25.0,113.3334960000002,123.46142599999985,322.05126999999993,93.20507799999996,100.51269500000035,96.6665039999998,97.56396500000028,96.9228520000006,94.10253900000043,99.48730499999965,98.20507799999996,99.74365200000011,1.0258789999998044
232,16.153809000000365,108.7177729999994,116.15380900000036,317.82031300000017,95.25634799999989,99.87158199999976,85.25634799999989,86.9228520000006,86.9228520000006,82.05126999999993,92.56396500000028,89.23095699999976,94.61523400000078,-6.923095999999987
233,11.153809000000365,106.9228520000006,110.25634799999989,315.3847659999992,96.15380900000036,98.9741210000002,79.74365200000011,77.56396500000028,80.64111300000059,77.82031300000017,88.20507799999996,83.7177729999994,93.84619099999964,-9.61547900000005
234,13.589844000000085,109.23095699999976,110.38476599999922,317.82031300000017,98.46142599999985,97.82031300000017,83.3334960000002,75.51269500000035,81.2822270000006,81.79492200000004,90.89746099999957,85.51269500000035,100.0,-4.102538999999979
235,23.333496000000196,116.79492200000004,117.82031300000017,325.2563479999999,105.89746099999957,97.17968800000017,93.7177729999994,82.94873000000007,88.3334960000002,91.41015599999992,101.9228520000006,93.20507799999996,111.15380900000036,7.56396500000028
236,36.2822270000006,128.46142599999985,129.23095699999976,334.3588869999994,116.79492200000004,97.43603499999972,104.87158199999976,95.76904300000024,98.58984400000008,103.58984400000008,117.30761700000039,101.9228520000006,121.9228520000006,19.230956999999762
237,45.76904300000024,138.9741210000002,138.0771479999994,340.3847659999992,123.3334960000002,98.46142599999985,110.76904300000024,105.76904300000024,107.05126999999993,114.35888699999941,128.46142599999985,106.79492200000004,126.79492200000004,24.615234000000783
238,46.2822270000006,141.6665039999998,138.46142599999985,339.23095699999976,117.17968800000017,98.9741210000002,108.20507799999996,106.15380900000036,109.10253900000043,118.3334960000002,128.3334960000002,105.76904300000024,122.17968800000017,21.025878999999804
239,37.30761700000039,132.6923829999996,129.48730499999965,331.15380900000036,98.20507799999996,98.0771479999994,98.9741210000002,96.53857400000015,103.7177729999994,110.89746099999957,116.79492200000004,100.51269500000035,109.35888699999941,10.897460999999566
240,23.846190999999635,115.76904300000024,116.6665039999998,320.2563479999999,77.56396500000028,96.79492200000004,88.7177729999994,83.84619099999964,95.76904300000024,95.51269500000035,102.56396500000028,94.87158199999976,94.23095699999976,0.769043000000238
241,15.897460999999566,101.79492200000004,109.61523400000078,313.5898440000001,70.0,97.05126999999993,83.84619099999964,78.3334960000002,93.58984400000008,83.9741210000002,97.56396500000028,92.69238299999961,85.51269500000035,-2.1796869999998307
242,20.51269500000035,100.89746099999957,114.61523400000078,316.53857400000015,81.15380900000036,99.61523400000078,88.20507799999996,86.2822270000006,101.9228520000006,89.10253900000043,107.43603499999972,95.51269500000035,89.87158199999976,4.871581999999762
243,36.025878999999804,114.35888699999941,129.10253900000043,328.20507799999996,101.41015599999992,102.05126999999993,99.87158199999976,104.35888699999941,117.05126999999993,111.79492200000004,126.2822270000006,101.0258789999998,104.61523400000078,17.05126999999993
244,51.79492200000004,132.3076170000004,143.3334960000002,341.79492200000004,114.61523400000078,101.2822270000006,111.6665039999998,122.30761700000039,128.46142599999985,138.0771479999994,141.0258789999998,105.12841800000024,119.61523400000078,25.641113000000587
245,56.9228520000006,141.53857400000015,147.82031300000017,348.0771479999994,112.05126999999993,96.41015599999992,116.2822270000006,130.38476599999922,127.94873000000007,148.3334960000002,141.41015599999992,105.64111300000059,124.35888699999941,25.25634799999989
246,48.46142599999985,136.6665039999998,140.51269500000035,342.4360349999997,100.64111300000059,91.0258789999998,111.79492200000004,126.41015599999992,115.76904300000024,134.3588869999994,127.17968800000017,103.0771479999994,117.05126999999993,16.922852000000603
247,33.333496000000196,123.84619099999964,127.82031300000017,327.4360349999997,94.35888699999941,88.7177729999994,102.69238299999961,115.51269500000035,101.0258789999998,105.51269500000035,107.82031300000017,99.87158199999976,104.48730499999965,7.307617000000391
248,21.538574000000153,114.35888699999941,117.94873000000007,310.0,99.48730499999965,90.51269500000035,95.12841800000024,105.25634799999989,93.9741210000002,81.0258789999998,94.61523400000078,97.43603499999972,95.76904300000024,2.6923829999996087
249,17.82031300000017,113.84619099999964,114.48730499999965,297.3076170000004,108.0771479999994,93.7177729999994,92.69238299999961,100.0,97.69238299999961,74.61523400000078,92.69238299999961,96.2822270000006,94.10253900000043,4.358886999999413
250,19.615234000000783,118.20507799999996,114.61523400000078,291.2822270000006,106.0258789999998,94.87158199999976,93.9741210000002,98.46142599999985,105.89746099999957,84.61523400000078,98.3334960000002,95.76904300000024,95.89746099999957,8.333496000000196
251,21.410155999999915,119.23095699999976,114.48730499999965,290.0,89.10253900000043,93.46142599999985,94.61523400000078,96.9228520000006,109.23095699999976,98.58984400000008,103.7177729999994,95.51269500000035,95.38476599999922,9.871581999999762
252,21.025878999999804,113.9741210000002,113.20507799999996,290.0,69.35888699999941,91.2822270000006,92.56396500000028,94.35888699999941,104.48730499999965,104.10253900000043,104.35888699999941,95.51269500000035,90.89746099999957,8.333496000000196
253,20.641113000000587,107.56396500000028,113.46142599999985,290.12841800000024,64.10253900000043,91.53857400000015,90.12841800000024,93.7177729999994,96.79492200000004,98.7177729999994,101.9228520000006,96.53857400000015,86.6665039999998,7.948730000000069
254,24.230956999999762,107.17968800000017,117.94873000000007,292.3076170000004,79.87158199999976,95.38476599999922,91.2822270000006,97.69238299999961,94.35888699999941,90.89746099999957,102.56396500000028,98.84619099999964,88.46142599999985,12.307617000000391
255,31.410155999999915,113.9741210000002,125.64111300000059,297.17968800000017,104.23095699999976,100.76904300000024,96.41015599999992,104.61523400000078,99.74365200000011,89.87158199999976,109.10253900000043,101.53857400000015,96.41015599999992,20.25634799999989
256,37.05126999999993,120.89746099999957,130.76904300000024,302.05126999999993,116.0258789999998,103.58984400000008,100.64111300000059,108.7177729999994,106.79492200000004,95.76904300000024,117.30761700000039,102.69238299999961,104.10253900000043,25.25634799999989
257,35.51269500000035,119.61523400000078,128.3334960000002,302.5639650000003,105.25634799999989,101.6665039999998,99.10253900000043,105.12841800000024,106.9228520000006,100.38476599999922,119.87158199999976,101.15380900000036,103.7177729999994,21.794922000000042
258,27.17968800000017,109.87158199999976,119.23095699999976,298.3334960000002,83.3334960000002,97.43603499999972,92.30761700000039,96.15380900000036,98.20507799999996,97.17968800000017,115.0,98.58984400000008,94.74365200000011,12.17968800000017
259,18.717772999999397,99.35888699999941,110.51269500000035,293.46142599999985,71.2822270000006,95.76904300000024,85.51269500000035,89.10253900000043,87.94873000000007,88.9741210000002,107.69238299999961,97.30761700000039,84.35888699999941,4.743652000000111
260,16.153809000000365,96.0258789999998,108.9741210000002,291.15380900000036,79.48730499999965,98.20507799999996,83.58984400000008,89.61523400000078,85.38476599999922,83.3334960000002,104.35888699999941,98.46142599999985,80.64111300000059,5.641113000000587
261,19.358886999999413,99.74365200000011,114.10253900000043,290.12841800000024,97.69238299999961,101.79492200000004,86.6665039999998,96.0258789999998,91.2822270000006,84.35888699999941,105.25634799999989,100.51269500000035,83.9741210000002,12.56396500000028
262,23.077147999999397,104.35888699999941,120.12841800000024,287.94873000000007,107.56396500000028,101.9228520000006,91.2822270000006,102.82031300000017,99.10253900000043,90.25634799999989,106.0258789999998,100.64111300000059,88.0771479999994,18.589844000000085
263,23.333496000000196,104.74365200000011,122.43603499999972,284.48730499999965,101.0258789999998,97.82031300000017,94.74365200000011,105.76904300000024,101.79492200000004,97.05126999999993,103.58984400000008,98.3334960000002,87.69238299999961,18.717772999999397
264,20.897460999999566,101.53857400000015,120.89746099999957,283.0771479999994,85.38476599999922,93.0771479999994,96.79492200000004,106.15380900000036,99.74365200000011,102.82031300000017,99.61523400000078,95.25634799999989,83.46142599999985,14.615234000000783
265,19.358886999999413,99.23095699999976,119.23095699999976,286.2822270000006,74.23095699999976,91.2822270000006,99.23095699999976,107.69238299999961,98.46142599999985,107.30761700000039,98.46142599999985,94.35888699999941,81.0258789999998,11.282227000000603
266,21.538574000000153,101.9228520000006,120.38476599999922,293.9741210000002,75.12841800000024,93.3334960000002,103.0771479999994,112.43603499999972,102.69238299999961,111.53857400000015,102.56396500000028,96.53857400000015,84.74365200000011,12.948730000000069
267,26.538574000000153,109.10253900000043,123.9741210000002,303.20507799999996,86.2822270000006,96.9228520000006,106.79492200000004,118.46142599999985,111.41015599999992,114.61523400000078,110.64111300000059,100.38476599999922,93.46142599999985,19.358886999999413
268,30.25634799999989,115.25634799999989,126.2822270000006,310.0,100.25634799999989,98.9741210000002,107.17968800000017,121.2822270000006,118.20507799999996,113.20507799999996,117.69238299999961,103.0771479999994,100.76904300000024,26.025878999999804
269,29.230956999999762,114.48730499999965,124.23095699999976,311.9228520000006,110.0,97.82031300000017,103.20507799999996,118.3334960000002,116.9228520000006,104.87158199999976,119.74365200000011,103.20507799999996,100.89746099999957,28.077147999999397
270,24.74365200000011,108.0771479999994,119.23095699999976,309.3588869999994,113.0771479999994,94.48730499999965,98.0771479999994,111.6665039999998,108.20507799999996,92.43603499999972,117.17968800000017,101.53857400000015,93.84619099999964,25.25634799999989
271,21.538574000000153,102.82031300000017,115.64111300000059,304.48730499999965,111.6665039999998,91.41015599999992,96.53857400000015,105.76904300000024,98.9741210000002,82.82031300000017,114.35888699999941,99.87158199999976,85.76904300000024,21.794922000000042
272,22.69238299999961,103.9741210000002,115.76904300000024,298.84619099999964,108.46142599999985,90.76904300000024,99.48730499999965,103.3334960000002,95.89746099999957,81.41015599999992,114.74365200000011,99.74365200000011,82.30761700000039,21.538574000000153
273,25.769043000000238,109.48730499999965,118.20507799999996,292.5639650000003,103.84619099999964,92.30761700000039,102.94873000000007,103.3334960000002,98.9741210000002,86.79492200000004,117.05126999999993,100.64111300000059,83.58984400000008,23.717772999999397
274,26.282227000000603,112.56396500000028,119.23095699999976,285.76904300000024,96.9228520000006,94.23095699999976,101.41015599999992,101.53857400000015,102.05126999999993,92.43603499999972,117.30761700000039,101.0258789999998,85.38476599999922,25.0
275,23.205077999999958,109.61523400000078,117.82031300000017,280.6411130000006,89.35888699999941,94.61523400000078,94.74365200000011,96.9228520000006,99.61523400000078,92.94873000000007,113.7177729999994,99.74365200000011,84.23095699999976,23.461425999999847
276,20.897460999999566,105.0,116.6665039999998,280.76904300000024,87.30761700000039,92.82031300000017,88.58984400000008,93.20507799999996,93.0771479999994,88.58984400000008,109.23095699999976,98.46142599999985,82.69238299999961,21.922852000000603
277,24.74365200000011,106.15380900000036,119.87158199999976,288.3334960000002,96.53857400000015,90.38476599999922,89.61523400000078,95.89746099999957,89.48730499999965,84.74365200000011,109.61523400000078,99.87158199999976,86.15380900000036,25.128418000000238
278,34.74365200000011,115.89746099999957,127.69238299999961,300.6411130000006,114.61523400000078,88.9741210000002,98.58984400000008,105.89746099999957,94.10253900000043,86.2822270000006,116.0258789999998,104.10253900000043,96.15380900000036,33.846190999999635
279,43.46142599999985,127.05126999999993,134.61523400000078,308.9741210000002,129.10253900000043,88.84619099999964,108.20507799999996,116.15380900000036,103.7177729999994,91.9228520000006,122.56396500000028,108.0771479999994,106.6665039999998,42.56396500000028
280,40.25634799999989,127.43603499999972,131.79492200000004,304.3588869999994,125.89746099999957,88.0771479999994,108.46142599999985,116.15380900000036,107.82031300000017,94.74365200000011,119.87158199999976,107.17968800000017,107.30761700000039,42.69238299999961
281,21.794922000000042,110.89746099999957,115.38476599999922,284.6152340000008,103.0771479999994,85.89746099999957,95.38476599999922,101.79492200000004,99.10253900000043,89.61523400000078,105.38476599999922,99.74365200000011,92.82031300000017,31.282227000000603
282,-2.6923829999996087,85.76904300000024,92.30761700000039,259.7436520000001,75.76904300000024,83.58984400000008,76.15380900000036,80.76904300000024,81.9228520000006,79.48730499999965,87.56396500000028,89.10253900000043,70.64111300000059,15.512695000000349
283,-16.923095999999987,70.76904300000024,77.17968800000017,245.2563479999999,65.38476599999922,83.46142599999985,64.61523400000078,68.7177729999994,70.89746099999957,74.35888699999941,80.64111300000059,82.05126999999993,56.53857400000015,7.820313000000169
284,-10.38452099999995,78.46142599999985,80.89746099999957,251.0258789999998,81.41015599999992,86.2822270000006,70.64111300000059,76.6665039999998,77.56396500000028,81.9228520000006,91.79492200000004,83.7177729999994,61.79492200000004,15.256347999999889
285,13.077147999999397,104.35888699999941,101.53857400000015,272.4360349999997,112.17968800000017,89.87158199999976,91.79492200000004,101.2822270000006,99.48730499999965,99.35888699999941,114.48730499999965,92.94873000000007,82.94873000000007,33.333496000000196
286,37.94873000000007,130.0,125.76904300000024,294.87158199999976,135.12841800000024,92.30761700000039,114.35888699999941,127.56396500000028,120.64111300000059,114.74365200000011,133.46142599999985,103.0771479999994,104.48730499999965,50.12841800000024
287,49.35888699999941,137.56396500000028,138.7177729999994,303.7177729999994,135.0,92.82031300000017,124.48730499999965,140.12841800000024,126.0258789999998,116.41015599999992,137.56396500000028,107.43603499999972,111.9228520000006,55.25634799999989
288,43.20507799999996,123.84619099999964,134.61523400000078,294.7436520000001,114.48730499999965,91.15380900000036,117.69238299999961,134.3588869999994,113.0771479999994,103.3334960000002,126.53857400000015,104.23095699999976,102.82031300000017,47.43603499999972
289,27.43603499999972,100.38476599999922,119.48730499999965,274.87158199999976,89.87158199999976,87.69238299999961,101.41015599999992,118.20507799999996,93.84619099999964,85.12841800000024,109.48730499999965,97.30761700000039,86.41015599999992,33.7177729999994
290,13.333496000000196,83.3334960000002,104.23095699999976,257.17968800000017,77.30761700000039,83.58984400000008,87.43603499999972,104.23095699999976,83.7177729999994,74.74365200000011,96.6665039999998,92.17968800000017,73.84619099999964,23.333496000000196
291,7.43603499999972,80.51269500000035,97.30761700000039,251.15380900000036,80.25634799999989,81.41015599999992,82.69238299999961,100.12841800000024,88.84619099999964,78.7177729999994,92.69238299999961,91.2822270000006,70.12841800000024,21.410155999999915
292,9.487304999999651,88.46142599999985,100.12841800000024,258.5898440000001,91.2822270000006,82.56396500000028,86.79492200000004,105.0,103.46142599999985,93.7177729999994,95.64111300000059,93.84619099999964,73.3334960000002,27.05126999999993
293,15.769043000000238,98.9741210000002,109.35888699999941,274.23095699999976,101.41015599999992,86.9228520000006,95.38476599999922,113.58984400000008,116.79492200000004,110.89746099999957,101.9228520000006,97.94873000000007,80.25634799999989,36.153809000000365
294,25.0,107.94873000000007,120.38476599999922,290.2563479999999,108.9741210000002,92.56396500000028,103.9741210000002,122.56396500000028,122.82031300000017,122.56396500000028,110.12841800000024,102.43603499999972,90.12841800000024,45.25634799999989
295,37.05126999999993,116.79492200000004,130.0,300.6411130000006,118.58984400000008,97.43603499999972,110.25634799999989,132.05126999999993,123.58984400000008,125.76904300000024,121.15380900000036,107.17968800000017,103.84619099999964,53.20507799999996
296,48.974121000000196,125.89746099999957,135.38476599999922,302.05126999999993,131.79492200000004,99.74365200000011,113.20507799999996,141.6665039999998,123.3334960000002,121.79492200000004,132.82031300000017,111.41015599999992,118.58984400000008,58.589844000000085
297,54.35888699999941,130.76904300000024,134.23095699999976,294.6152340000008,140.6411130000006,98.20507799999996,111.2822270000006,146.41015599999992,122.56396500000028,113.20507799999996,138.9741210000002,112.43603499999972,126.15380900000036,58.7177729999994
298,47.69238299999961,125.38476599999922,125.51269500000035,281.15380900000036,134.10253900000043,93.0771479999994,103.84619099999964,140.12841800000024,118.46142599999985,102.05126999999993,133.0771479999994,108.0771479999994,119.74365200000011,51.410155999999915
299,31.282227000000603,109.87158199999976,112.69238299999961,267.6923829999996,110.38476599999922,86.41015599999992,92.82031300000017,122.94873000000007,109.23095699999976,91.15380900000036,116.15380900000036,99.35888699999941,100.38476599999922,39.61523400000078
300,15.512695000000349,93.58984400000008,103.0771479999994,261.0258789999998,82.94873000000007,82.30761700000039,84.10253900000043,104.23095699999976,98.9741210000002,83.9741210000002,98.20507799999996,91.2822270000006,79.87158199999976,30.384765999999217
301,11.922852000000603,88.84619099999964,103.7177729999994,265.12841800000024,71.15380900000036,83.7177729999994,83.7177729999994,97.17968800000017,94.61523400000078,84.10253900000043,91.79492200000004,89.61523400000078,71.79492200000004,30.51269500000035
302,23.717772999999397,99.74365200000011,114.35888699999941,277.6923829999996,82.43603499999972,89.35888699999941,92.56396500000028,107.05126999999993,100.51269500000035,91.9228520000006,102.05126999999993,95.12841800000024,80.51269500000035,40.51269500000035
303,41.666503999999804,116.79492200000004,126.6665039999998,290.2563479999999,104.35888699999941,94.10253900000043,104.23095699999976,125.12841800000024,112.30761700000039,102.43603499999972,120.51269500000035,102.94873000000007,97.05126999999993,52.56396500000028
304,50.51269500000035,123.7177729999994,129.23095699999976,293.5898440000001,115.51269500000035,93.84619099999964,108.84619099999964,134.87158199999976,118.9741210000002,107.69238299999961,131.2822270000006,105.64111300000059,106.0258789999998,56.666503999999804
305,41.2822270000006,112.43603499999972,117.69238299999961,284.3588869999994,105.25634799999989,88.9741210000002,101.41015599999992,126.15380900000036,111.41015599999992,102.05126999999993,123.3334960000002,99.10253900000043,98.9741210000002,48.846190999999635
306,19.871581999999762,91.0258789999998,99.23095699999976,270.0,84.48730499999965,84.48730499999965,86.6665039999998,105.38476599999922,92.82031300000017,88.9741210000002,100.25634799999989,87.30761700000039,82.56396500000028,35.12841800000024
307,3.4614259999998467,78.9741210000002,88.3334960000002,263.3334960000002,75.89746099999957,85.12841800000024,76.41015599999992,90.51269500000035,77.43603499999972,79.23095699999976,79.23095699999976,79.10253900000043,72.30761700000039,27.69238299999961
308,5.769043000000238,89.10253900000043,94.48730499999965,272.3076170000004,92.05126999999993,90.89746099999957,79.74365200000011,95.25634799999989,79.87158199999976,82.56396500000028,76.2822270000006,81.6665039999998,78.58984400000008,33.20507799999996
309,25.128418000000238,114.87158199999976,113.3334960000002,292.4360349999997,122.05126999999993,97.56396500000028,94.35888699999941,117.17968800000017,101.0258789999998,98.9741210000002,92.82031300000017,93.58984400000008,96.53857400000015,48.0771479999994
310,45.897460999999566,136.15380900000036,130.0,308.84619099999964,141.0258789999998,99.87158199999976,108.7177729999994,140.2563479999999,127.17968800000017,118.58984400000008,115.12841800000024,105.64111300000059,110.51269500000035,60.76904300000024
311,51.79492200000004,135.51269500000035,131.0258789999998,309.10253900000043,133.0771479999994,95.89746099999957,111.79492200000004,147.82031300000017,140.38476599999922,128.7177729999994,125.51269500000035,108.7177729999994,108.58984400000008,61.2822270000006
312,38.589844000000085,113.3334960000002,114.87158199999976,292.94873000000007,105.64111300000059,88.3334960000002,101.6665039999998,136.53857400000015,132.6923829999996,123.7177729999994,117.05126999999993,100.51269500000035,92.17968800000017,49.48730499999965
313,17.17968800000017,86.6665039999998,93.20507799999996,272.5639650000003,82.56396500000028,82.30761700000039,86.41015599999992,117.30761700000039,111.15380900000036,106.79492200000004,97.43603499999972,87.82031300000017,73.9741210000002,34.48730499999965
314,3.3334960000001956,74.23095699999976,80.38476599999922,261.9228520000006,82.56396500000028,81.9228520000006,77.05126999999993,105.12841800000024,91.0258789999998,87.17968800000017,81.79492200000004,79.87158199999976,66.41015599999992,27.56396500000028
315,5.769043000000238,82.94873000000007,82.82031300000017,266.2822270000006,103.46142599999985,87.43603499999972,78.7177729999994,106.41015599999992,84.48730499999965,74.23095699999976,80.64111300000059,81.6665039999998,72.69238299999961,33.0771479999994
316,20.25634799999989,102.17968800000017,95.51269500000035,279.23095699999976,125.51269500000035,94.87158199999976,88.0771479999994,115.38476599999922,91.6665039999998,72.56396500000028,91.9228520000006,90.51269500000035,85.25634799999989,45.25634799999989
317,34.74365200000011,114.87158199999976,107.30761700000039,289.7436520000001,129.23095699999976,99.48730499999965,97.43603499999972,121.53857400000015,103.20507799999996,80.89746099999957,104.61523400000078,99.48730499999965,92.94873000000007,53.846190999999635
318,39.87158199999976,111.15380900000036,111.0258789999998,291.53857400000015,112.69238299999961,99.87158199999976,101.9228520000006,120.51269500000035,109.23095699999976,93.3334960000002,109.35888699999941,103.20507799999996,91.0258789999998,53.46142599999985
319,36.666503999999804,96.9228520000006,108.84619099999964,288.20507799999996,92.30761700000039,98.58984400000008,103.0771479999994,117.82031300000017,107.82031300000017,104.10253900000043,107.56396500000028,101.79492200000004,84.74365200000011,47.82031300000017
320,33.0771479999994,86.2822270000006,107.82031300000017,287.6923829999996,87.82031300000017,98.9741210000002,104.35888699999941,121.6665039999998,104.23095699999976,110.25634799999989,107.30761700000039,99.48730499999965,83.20507799999996,44.74365200000011
321,33.974121000000196,87.17968800000017,111.6665039999998,292.6923829999996,102.94873000000007,100.89746099999957,106.15380900000036,132.17968800000017,103.7177729999994,109.87158199999976,113.46142599999985,99.23095699999976,88.9741210000002,47.69238299999961
322,36.410155999999915,96.0258789999998,116.2822270000006,297.17968800000017,123.20507799999996,101.41015599999992,104.61523400000078,139.87158199999976,106.6665039999998,102.43603499999972,120.76904300000024,99.87158199999976,95.51269500000035,52.69238299999961
323,34.48730499999965,102.69238299999961,115.51269500000035,293.3334960000002,129.7436520000001,97.82031300000017,97.17968800000017,135.89746099999957,108.7177729999994,90.12841800000024,120.12841800000024,98.7177729999994,94.23095699999976,53.46142599999985
324,26.922852000000603,101.53857400000015,108.20507799999996,281.15380900000036,117.82031300000017,91.9228520000006,87.43603499999972,122.17968800000017,106.2822270000006,79.61523400000078,108.58984400000008,94.74365200000011,83.84619099999964,48.46142599999985
325,19.74365200000011,95.25634799999989,100.12841800000024,269.6152340000008,99.10253900000043,87.94873000000007,82.56396500000028,109.74365200000011,100.38476599999922,78.46142599999985,93.58984400000008,91.0258789999998,71.9228520000006,42.05126999999993
326,19.615234000000783,91.0258789999998,99.10253900000043,268.3334960000002,90.38476599999922,88.58984400000008,87.43603499999972,108.9741210000002,96.0258789999998,89.48730499999965,85.76904300000024,90.89746099999957,68.3334960000002,40.25634799999989
327,27.17968800000017,93.0771479999994,106.9228520000006,278.5898440000001,98.20507799999996,93.3334960000002,99.23095699999976,120.12841800000024,97.56396500000028,106.41015599999992,90.38476599999922,95.51269500000035,75.76904300000024,44.61523400000078
328,36.2822270000006,99.23095699999976,118.3334960000002,291.2822270000006,114.87158199999976,98.84619099999964,110.0,134.7436520000001,103.9741210000002,118.84619099999964,102.30761700000039,101.6665039999998,88.0771479999994,52.05126999999993
329,39.35888699999941,103.9741210000002,125.0,295.51269500000035,126.9228520000006,102.17968800000017,112.43603499999972,142.43603499999972,111.41015599999992,119.10253900000043,111.41015599999992,104.87158199999976,95.51269500000035,57.17968800000017
330,35.0,104.87158199999976,123.46142599999985,288.20507799999996,127.17968800000017,102.30761700000039,106.41015599999992,138.7177729999994,116.6665039999998,108.7177729999994,111.15380900000036,103.0771479999994,93.3334960000002,57.43603499999972
331,29.102539000000434,103.58984400000008,116.9228520000006,276.6665039999998,119.35888699999941,100.89746099999957,97.82031300000017,127.69238299999961,119.10253900000043,96.53857400000015,103.84619099999964,98.20507799999996,85.0,53.846190999999635
332,28.846190999999635,103.58984400000008,112.17968800000017,271.79492200000004,112.56396500000028,100.0,93.9741210000002,118.3334960000002,119.61523400000078,90.12841800000024,96.79492200000004,94.87158199999976,78.58984400000008,50.897460999999566
333,37.17968800000017,107.05126999999993,114.10253900000043,278.3334960000002,112.05126999999993,101.0258789999998,96.9228520000006,117.94873000000007,117.94873000000007,91.79492200000004,95.89746099999957,95.64111300000059,80.25634799999989,51.79492200000004
334,49.74365200000011,113.0771479999994,122.05126999999993,291.6665039999998,116.0258789999998,103.0771479999994,103.46142599999985,126.41015599999992,114.23095699999976,98.7177729999994,102.43603499999972,99.87158199999976,89.35888699999941,56.79492200000004
335,59.35888699999941,118.58984400000008,130.6411130000006,302.3076170000004,119.61523400000078,104.10253900000043,107.82031300000017,137.82031300000017,110.0,107.17968800000017,112.56396500000028,103.84619099999964,99.87158199999976,62.56396500000028
336,61.9228520000006,121.79492200000004,135.2563479999999,304.48730499999965,120.89746099999957,103.58984400000008,107.56396500000028,145.38476599999922,108.3334960000002,114.61523400000078,121.6665039999998,105.0,105.25634799999989,66.2822270000006
337,59.23095699999976,123.0771479999994,134.61523400000078,300.2563479999999,122.82031300000017,102.17968800000017,104.87158199999976,147.05126999999993,112.43603499999972,119.61523400000078,126.53857400000015,103.58984400000008,104.74365200000011,67.82031300000017
338,56.53857400000015,124.23095699999976,131.0258789999998,295.12841800000024,128.46142599999985,101.2822270000006,103.84619099999964,144.48730499999965,122.17968800000017,120.51269500000035,126.41015599999992,101.9228520000006,101.9228520000006,68.58984400000008
339,56.2822270000006,124.74365200000011,126.2822270000006,291.79492200000004,135.2563479999999,101.15380900000036,105.76904300000024,139.61523400000078,132.43603499999972,116.41015599999992,122.69238299999961,101.53857400000015,99.87158199999976,68.9741210000002
340,57.05126999999993,122.17968800000017,120.89746099999957,289.3588869999994,137.43603499999972,100.38476599999922,107.56396500000028,133.84619099999964,136.6665039999998,108.58984400000008,117.69238299999961,101.9228520000006,98.84619099999964,67.43603499999972
341,56.153809000000365,116.2822270000006,116.15380900000036,286.6665039999998,133.0771479999994,99.10253900000043,106.41015599999992,129.10253900000043,131.2822270000006,101.9228520000006,114.10253900000043,101.79492200000004,97.94873000000007,64.61523400000078
342,54.23095699999976,111.15380900000036,114.48730499999965,285.3847659999992,128.0771479999994,98.84619099999964,102.94873000000007,128.3334960000002,120.25634799999989,102.30761700000039,113.84619099999964,101.15380900000036,97.82031300000017,63.0771479999994
343,54.23095699999976,111.9228520000006,117.17968800000017,288.3334960000002,130.38476599999922,100.51269500000035,100.25634799999989,133.3334960000002,111.53857400000015,112.17968800000017,117.30761700000039,101.0258789999998,100.76904300000024,65.64111300000059
344,57.05126999999993,118.7177729999994,122.43603499999972,295.51269500000035,140.38476599999922,103.20507799999996,100.51269500000035,141.6665039999998,111.41015599999992,126.6665039999998,122.17968800000017,101.6665039999998,106.41015599999992,70.89746099999957
345,59.35888699999941,124.48730499999965,125.89746099999957,301.4101559999999,147.56396500000028,104.35888699999941,102.69238299999961,146.6665039999998,117.94873000000007,135.89746099999957,123.84619099999964,102.56396500000028,109.87158199999976,74.23095699999976
346,55.64111300000059,120.76904300000024,123.58984400000008,299.7436520000001,138.7177729999994,102.43603499999972,104.23095699999976,142.6923829999996,122.82031300000017,131.6665039999998,119.10253900000043,101.9228520000006,105.51269500000035,71.0258789999998
347,45.25634799999989,106.0258789999998,115.89746099999957,289.7436520000001,112.43603499999972,99.23095699999976,103.20507799999996,130.51269500000035,118.84619099999964,115.64111300000059,108.84619099999964,99.23095699999976,92.82031300000017,61.9228520000006
348,34.48730499999965,89.61523400000078,108.0771479999994,279.10253900000043,84.23095699999976,98.9741210000002,101.0258789999998,118.3334960000002,108.7177729999994,100.12841800000024,99.23095699999976,96.15380900000036,79.48730499999965,53.0771479999994
349,31.794922000000042,85.0,106.53857400000015,277.82031300000017,76.2822270000006,103.7177729999994,100.51269500000035,115.64111300000059,103.0771479999994,98.0771479999994,97.82031300000017,95.38476599999922,76.6665039999998,51.53857400000015
350,40.51269500000035,98.20507799999996,112.43603499999972,289.48730499999965,98.58984400000008,111.6665039999998,103.20507799999996,125.76904300000024,111.2822270000006,112.56396500000028,107.56396500000028,98.0771479999994,88.9741210000002,59.35888699999941
351,54.61523400000078,121.6665039999998,120.76904300000024,307.05126999999993,138.3334960000002,117.69238299999961,107.17968800000017,142.05126999999993,130.51269500000035,132.94873000000007,123.0771479999994,102.43603499999972,109.10253900000043,71.41015599999992
352,63.333496000000196,139.23095699999976,123.9741210000002,318.3334960000002,168.20507799999996,117.56396500000028,108.46142599999985,153.0771479999994,147.56396500000028,143.46142599999985,133.58984400000008,104.61523400000078,122.82031300000017,79.10253900000043
353,59.74365200000011,139.23095699999976,118.7177729999994,315.76904300000024,167.6923829999996,111.53857400000015,105.0,151.2822270000006,150.2563479999999,135.6411130000006,131.0258789999998,102.05126999999993,119.87158199999976,77.05126999999993
354,46.153809000000365,122.56396500000028,108.0771479999994,301.15380900000036,140.38476599999922,103.58984400000008,98.46142599999985,138.7177729999994,137.3076170000004,114.87158199999976,116.2822270000006,95.64111300000059,102.05126999999993,67.05126999999993
355,31.666503999999804,101.9228520000006,98.58984400000008,284.10253900000043,109.35888699999941,98.58984400000008,92.82031300000017,124.87158199999976,118.84619099999964,95.89746099999957,98.3334960000002,89.61523400000078,81.6665039999998,56.153809000000365
356,25.384765999999217,90.64111300000059,95.25634799999989,274.3588869999994,96.2822270000006,98.7177729999994,91.9228520000006,119.10253900000043,106.9228520000006,90.0,86.9228520000006,87.56396500000028,71.41015599999992,51.153809000000365
357,28.846190999999635,92.94873000000007,97.56396500000028,274.23095699999976,103.7177729999994,102.05126999999993,95.89746099999957,122.17968800000017,105.89746099999957,96.0258789999998,85.76904300000024,89.10253900000043,74.61523400000078,52.94873000000007
358,35.64111300000059,101.0258789999998,100.38476599999922,278.9741210000002,115.89746099999957,105.12841800000024,101.15380900000036,127.05126999999993,110.12841800000024,101.6665039999998,90.76904300000024,91.15380900000036,82.82031300000017,56.79492200000004
359,38.0771479999994,103.84619099999964,99.48730499999965,281.9228520000006,116.9228520000006,106.2822270000006,103.20507799999996,126.15380900000036,110.76904300000024,96.41015599999992,95.38476599999922,90.51269500000035,85.64111300000059,57.69238299999961
360,35.51269500000035,98.3334960000002,96.2822270000006,281.79492200000004,106.53857400000015,107.30761700000039,101.6665039999998,119.61523400000078,104.61523400000078,82.56396500000028,97.05126999999993,87.94873000000007,81.0258789999998,56.025878999999804
361,34.23095699999976,91.15380900000036,96.79492200000004,282.6923829999996,99.35888699999941,109.74365200000011,100.0,114.74365200000011,97.56396500000028,74.61523400000078,98.9741210000002,86.79492200000004,77.05126999999993,57.05126999999993
362,40.51269500000035,92.17968800000017,104.23095699999976,287.3076170000004,109.35888699999941,113.46142599999985,101.41015599999992,117.94873000000007,97.56396500000028,85.0,104.48730499999965,90.0,82.05126999999993,63.846190999999635
363,52.05126999999993,103.20507799999996,114.48730499999965,292.94873000000007,134.10253900000043,116.0258789999998,105.0,128.20507799999996,106.2822270000006,112.30761700000039,112.69238299999961,96.53857400000015,95.12841800000024,73.20507799999996
364,59.48730499999965,115.51269500000035,119.87158199999976,293.3334960000002,155.51269500000035,115.38476599999922,106.79492200000004,136.6665039999998,116.0258789999998,139.23095699999976,117.17968800000017,101.41015599999992,105.76904300000024,77.30761700000039
365,55.0,117.30761700000039,115.12841800000024,285.51269500000035,154.61523400000078,111.9228520000006,103.84619099999964,135.2563479999999,117.43603499999972,147.05126999999993,112.17968800000017,100.38476599999922,103.9741210000002,72.17968800000017
366,39.87158199999976,105.25634799999989,102.56396500000028,272.5639650000003,129.10253900000043,107.69238299999961,97.05126999999993,123.84619099999964,108.46142599999985,130.76904300000024,97.94873000000007,92.82031300000017,89.74365200000011,61.153809000000365
367,24.358886999999413,87.69238299999961,90.0,262.94873000000007,96.6665039999998,104.74365200000011,90.89746099999957,110.64111300000059,97.43603499999972,102.69238299999961,82.82031300000017,83.84619099999964,73.20507799999996,52.56396500000028
368,19.102539000000434,77.82031300000017,86.2822270000006,262.4360349999997,80.51269500000035,103.84619099999964,89.74365200000011,105.89746099999957,95.51269500000035,82.17968800000017,77.17968800000017,80.25634799999989,65.38476599999922,52.30761700000039
369,25.897460999999566,81.15380900000036,93.3334960000002,269.87158199999976,90.51269500000035,104.35888699999941,94.74365200000011,112.56396500000028,105.12841800000024,80.89746099999957,84.61523400000078,84.74365200000011,70.0,59.35888699999941
370,37.17968800000017,92.05126999999993,105.12841800000024,278.46142599999985,115.0,105.12841800000024,102.69238299999961,124.48730499999965,118.3334960000002,94.35888699999941,98.20507799999996,93.9741210000002,80.51269500000035,66.6665039999998
371,43.0771479999994,99.87158199999976,112.30761700000039,282.17968800000017,132.82031300000017,106.15380900000036,108.0771479999994,132.17968800000017,124.74365200000011,108.58984400000008,107.05126999999993,101.15380900000036,87.43603499999972,68.3334960000002
372,40.51269500000035,100.25634799999989,111.53857400000015,281.4101559999999,133.58984400000008,107.94873000000007,109.10253900000043,132.43603499999972,122.05126999999993,112.69238299999961,106.6665039999998,102.69238299999961,87.56396500000028,64.74365200000011
373,35.897460999999566,97.56396500000028,107.94873000000007,282.17968800000017,125.12841800000024,110.76904300000024,108.7177729999994,130.6411130000006,118.46142599999985,107.94873000000007,102.43603499999972,100.12841800000024,86.15380900000036,62.30761700000039
374,37.43603499999972,99.10253900000043,109.35888699999941,289.87158199999976,123.58984400000008,114.61523400000078,111.2822270000006,133.84619099999964,122.56396500000028,104.61523400000078,102.94873000000007,98.0771479999994,90.38476599999922,66.2822270000006
375,47.43603499999972,106.9228520000006,118.20507799999996,302.94873000000007,135.12841800000024,117.94873000000007,117.30761700000039,142.82031300000017,134.48730499999965,110.64111300000059,110.51269500000035,99.10253900000043,101.2822270000006,75.64111300000059
376,59.48730499999965,115.89746099999957,128.9741210000002,315.12841800000024,150.38476599999922,119.61523400000078,122.94873000000007,151.6665039999998,145.38476599999922,123.7177729999994,119.87158199999976,102.05126999999993,111.41015599999992,83.58984400000008
377,65.12841800000024,118.9741210000002,133.46142599999985,320.51269500000035,154.61523400000078,118.58984400000008,123.3334960000002,153.3334960000002,145.76904300000024,133.3334960000002,124.61523400000078,104.23095699999976,112.69238299999961,83.58984400000008
378,60.76904300000024,112.94873000000007,128.46142599999985,318.84619099999964,141.9228520000006,115.38476599999922,116.53857400000015,146.15380900000036,134.7436520000001,131.53857400000015,122.17968800000017,103.84619099999964,103.20507799999996,75.25634799999989
379,50.12841800000024,101.53857400000015,117.17968800000017,314.23095699999976,119.61523400000078,110.76904300000024,105.76904300000024,133.84619099999964,119.61523400000078,120.76904300000024,115.38476599999922,101.41015599999992,89.61523400000078,64.48730499999965
380,41.410155999999915,92.30761700000039,107.17968800000017,311.53857400000015,101.6665039999998,105.89746099999957,97.17968800000017,123.84619099999964,109.87158199999976,111.0258789999998,109.48730499999965,98.9741210000002,81.53857400000015,58.589844000000085
381,40.64111300000059,91.41015599999992,104.35888699999941,313.7177729999994,99.23095699999976,102.17968800000017,95.25634799999989,121.6665039999998,109.74365200000011,110.76904300000024,108.3334960000002,98.0771479999994,84.48730499999965,61.53857400000015
382,48.0771479999994,99.74365200000011,109.74365200000011,321.15380900000036,114.61523400000078,100.89746099999957,99.87158199999976,128.0771479999994,116.15380900000036,120.89746099999957,112.94873000000007,99.23095699999976,96.15380900000036,71.53857400000015
383,59.48730499999965,112.30761700000039,119.74365200000011,332.05126999999993,139.87158199999976,102.69238299999961,106.53857400000015,138.84619099999964,122.69238299999961,135.12841800000024,121.9228520000006,101.53857400000015,108.9741210000002,82.56396500000028
