,EEG.AF3,EEG.F7,EEG.F3,EEG.FC5,EEG.T7,EEG.P7,EEG.O1,EEG.O2,EEG.P8,EEG.T8,EEG.FC6,EEG.F4,EEG.F8,EEG.AF4
0,114.48730499999965,119.23095699999976,102.56396500000028,-10.256347999999889,99.48730499999965,113.3334960000002,116.6665039999998,102.94873000000007,109.48730499999965,104.61523400000078,101.2822270000006,100.0,102.43603499999972,103.7177729999994
1,111.15380900000036,117.30761700000039,101.15380900000036,-8.846190999999635,101.0258789999998,111.79492200000004,117.43603499999972,101.2822270000006,110.12841800000024,104.10253900000043,99.87158199999976,97.94873000000007,102.43603499999972,103.0771479999994
2,105.89746099999957,114.87158199999976,98.9741210000002,-6.41015600000037,103.7177729999994,107.94873000000007,115.89746099999957,100.38476599999922,108.3334960000002,103.20507799999996,99.10253900000043,96.41015599999992,101.9228520000006,101.2822270000006
3,101.41015599999992,112.43603499999972,97.30761700000039,-2.3076170000003913,104.61523400000078,104.61523400000078,113.20507799999996,101.53857400000015,105.89746099999957,102.82031300000017,99.35888699999941,96.2822270000006,100.38476599999922,99.61523400000078
4,99.10253900000043,110.25634799999989,97.05126999999993,2.9487300000000687,102.82031300000017,105.12841800000024,111.53857400000015,103.84619099999964,105.12841800000024,103.46142599999985,100.12841800000024,97.17968800000017,97.43603499999972,98.9741210000002
5,98.58984400000008,107.56396500000028,98.3334960000002,8.205077999999958,99.74365200000011,109.74365200000011,112.56396500000028,105.51269500000035,106.2822270000006,104.48730499999965,100.25634799999989,98.58984400000008,93.0771479999994,99.74365200000011
6,99.23095699999976,103.84619099999964,100.25634799999989,12.692382999999609,98.7177729999994,115.38476599999922,115.64111300000059,105.25634799999989,107.82031300000017,104.74365200000011,99.35888699999941,99.87158199999976,88.9741210000002,100.76904300000024
7,100.38476599999922,100.12841800000024,102.17968800000017,17.17968800000017,100.89746099999957,118.20507799999996,118.58984400000008,103.9741210000002,107.17968800000017,102.94873000000007,98.3334960000002,101.15380900000036,87.30761700000039,101.2822270000006
8,101.53857400000015,98.58984400000008,103.3334960000002,23.077147999999397,105.0,115.89746099999957,118.9741210000002,102.82031300000017,103.7177729999994,100.25634799999989,98.3334960000002,102.43603499999972,90.0,101.41015599999992
9,102.30761700000039,100.51269500000035,103.20507799999996,31.282227000000603,108.7177729999994,109.74365200000011,116.6665039999998,102.94873000000007,99.10253900000043,98.7177729999994,99.87158199999976,103.0771479999994,96.0258789999998,101.41015599999992
10,102.30761700000039,104.87158199999976,102.43603499999972,41.153809000000365,110.25634799999989,103.3334960000002,113.9741210000002,105.12841800000024,97.05126999999993,100.38476599999922,102.82031300000017,102.69238299999961,102.05126999999993,101.6665039999998
11,101.9228520000006,109.23095699999976,102.43603499999972,51.153809000000365,110.12841800000024,101.0258789999998,113.20507799999996,109.23095699999976,100.25634799999989,105.38476599999922,106.6665039999998,101.2822270000006,105.38476599999922,101.9228520000006
12,101.6665039999998,111.15380900000036,104.23095699999976,59.74365200000011,110.0,104.61523400000078,114.74365200000011,114.35888699999941,107.69238299999961,111.9228520000006,110.64111300000059,99.35888699999941,105.51269500000035,102.17968800000017
13,102.05126999999993,110.0,107.69238299999961,66.2822270000006,110.64111300000059,111.79492200000004,116.6665039999998,117.69238299999961,115.0,117.17968800000017,113.84619099999964,97.94873000000007,104.23095699999976,102.56396500000028
14,104.35888699999941,106.41015599999992,111.41015599999992,71.2822270000006,112.69238299999961,117.43603499999972,117.82031300000017,117.43603499999972,117.56396500000028,119.35888699999941,115.51269500000035,98.20507799999996,103.46142599999985,103.20507799999996
15,108.9741210000002,101.6665039999998,114.10253900000043,76.0258789999998,117.05126999999993,118.3334960000002,118.58984400000008,114.74365200000011,115.38476599999922,119.61523400000078,115.51269500000035,100.51269500000035,104.10253900000043,104.10253900000043
16,114.35888699999941,96.9228520000006,115.76904300000024,81.41015599999992,124.48730499999965,115.76904300000024,120.0,113.0771479999994,112.82031300000017,120.76904300000024,114.61523400000078,104.48730499999965,105.38476599999922,104.61523400000078
17,117.69238299999961,93.3334960000002,116.53857400000015,86.79492200000004,134.61523400000078,112.94873000000007,122.30761700000039,114.61523400000078,115.12841800000024,124.74365200000011,113.84619099999964,108.3334960000002,105.51269500000035,104.23095699999976
18,116.9228520000006,91.41015599999992,116.9228520000006,90.12841800000024,145.2563479999999,112.56396500000028,124.48730499999965,118.58984400000008,122.82031300000017,130.51269500000035,113.84619099999964,109.87158199999976,103.84619099999964,102.56396500000028
19,112.94873000000007,90.51269500000035,117.30761700000039,89.10253900000043,153.58984400000008,114.23095699999976,125.12841800000024,121.41015599999992,131.41015599999992,134.87158199999976,115.64111300000059,108.9741210000002,102.43603499999972,100.51269500000035
20,109.35888699999941,89.35888699999941,117.82031300000017,82.30761700000039,158.84619099999964,116.41015599999992,124.23095699999976,121.2822270000006,135.38476599999922,135.2563479999999,119.61523400000078,106.41015599999992,104.23095699999976,99.35888699999941
21,109.48730499999965,86.9228520000006,118.58984400000008,70.12841800000024,162.17968800000017,117.69238299999961,122.17968800000017,117.43603499999972,131.79492200000004,131.6665039999998,125.51269500000035,104.23095699999976,110.51269500000035,99.87158199999976
22,113.0771479999994,83.0771479999994,119.61523400000078,54.48730499999965,166.15380900000036,118.20507799999996,119.48730499999965,110.51269500000035,120.64111300000059,125.76904300000024,131.6665039999998,103.9741210000002,117.82031300000017,101.9228520000006
23,117.30761700000039,78.3334960000002,119.87158199999976,37.30761700000039,172.43603499999972,118.46142599999985,116.0258789999998,102.17968800000017,105.64111300000059,119.23095699999976,135.0,105.0,120.76904300000024,103.58984400000008
24,118.0771479999994,73.46142599999985,118.7177729999994,20.51269500000035,181.9228520000006,118.46142599999985,112.05126999999993,94.35888699999941,91.79492200000004,112.69238299999961,134.3588869999994,105.0,116.41015599999992,103.46142599999985
25,113.7177729999994,68.9741210000002,117.05126999999993,4.743652000000111,194.87158199999976,118.20507799999996,108.84619099999964,89.10253900000043,83.7177729999994,107.82031300000017,132.17968800000017,102.69238299999961,106.41015599999992,101.2822270000006
26,106.0258789999998,65.25634799999989,116.2822270000006,-9.358886999999868,210.12841800000024,117.69238299999961,107.69238299999961,87.30761700000039,83.20507799999996,107.17968800000017,133.0771479999994,99.10253900000043,96.41015599999992,98.7177729999994
27,99.10253900000043,62.82031300000017,117.17968800000017,-21.794922000000042,225.51269500000035,118.0771479999994,108.84619099999964,88.20507799999996,88.58984400000008,113.3334960000002,141.0258789999998,97.05126999999993,92.82031300000017,97.94873000000007
28,97.05126999999993,61.53857400000015,119.10253900000043,-32.435790999999426,238.20507799999996,120.0,111.0258789999998,90.51269500000035,95.25634799999989,125.51269500000035,156.15380900000036,97.94873000000007,98.20507799999996,99.74365200000011
29,99.87158199999976,59.74365200000011,119.35888699999941,-42.435790999999426,246.2822270000006,123.0771479999994,111.2822270000006,92.30761700000039,98.3334960000002,138.7177729999994,173.20507799999996,100.64111300000059,108.9741210000002,102.43603499999972
30,103.9741210000002,55.12841800000024,116.2822270000006,-53.58984399999963,249.23095699999976,126.0258789999998,107.69238299999961,91.79492200000004,94.87158199999976,146.15380900000036,185.0,102.56396500000028,117.17968800000017,103.84619099999964
31,104.74365200000011,47.05126999999993,110.0,-66.92309599999999,248.3334960000002,127.82031300000017,101.79492200000004,88.20507799999996,85.64111300000059,144.48730499999965,187.56396500000028,101.15380900000036,115.89746099999957,102.69238299999961
32,100.51269500000035,37.17968800000017,102.82031300000017,-80.89746100000002,246.79492200000004,127.56396500000028,96.6665039999998,82.17968800000017,75.12841800000024,137.56396500000028,182.94873000000007,96.15380900000036,104.87158199999976,99.74365200000011
33,93.7177729999994,28.077147999999397,97.69238299999961,-92.05127000000039,246.9228520000006,125.51269500000035,94.87158199999976,76.15380900000036,68.0771479999994,132.6923829999996,177.56396500000028,89.74365200000011,89.87158199999976,97.05126999999993
34,88.20507799999996,21.922852000000603,96.0258789999998,-97.82055700000001,249.3588869999994,122.82031300000017,96.2822270000006,72.56396500000028,67.30761700000039,134.7436520000001,176.9228520000006,85.38476599999922,79.23095699999976,96.0258789999998
35,86.79492200000004,19.230956999999762,96.79492200000004,-98.33325200000036,253.7177729999994,121.0258789999998,97.82031300000017,72.94873000000007,71.41015599999992,143.58984400000008,181.6665039999998,85.12841800000024,77.69238299999961,96.79492200000004
36,89.35888699999941,18.974121000000196,97.82031300000017,-95.89746100000002,258.7177729999994,121.2822270000006,96.79492200000004,76.6665039999998,77.05126999999993,154.87158199999976,188.84619099999964,88.0771479999994,84.48730499999965,98.0771479999994
37,92.94873000000007,19.74365200000011,97.43603499999972,-94.48706099999981,263.7177729999994,123.7177729999994,93.58984400000008,81.79492200000004,81.0258789999998,164.61523400000078,195.12841800000024,91.0258789999998,94.23095699999976,98.46142599999985
38,95.25634799999989,19.48730499999965,96.15380900000036,-97.43579099999943,268.3334960000002,127.69238299999961,91.0258789999998,85.89746099999957,82.69238299999961,171.2822270000006,198.84619099999964,91.79492200000004,101.41015599999992,97.94873000000007
39,95.89746099999957,17.17968800000017,95.89746099999957,-105.51293900000019,272.82031300000017,131.53857400000015,92.17968800000017,88.0771479999994,83.46142599999985,176.53857400000015,200.76904300000024,90.64111300000059,104.10253900000043,97.56396500000028
40,96.79492200000004,13.717772999999397,97.56396500000028,-115.76928699999962,277.4360349999997,133.9741210000002,96.41015599999992,88.3334960000002,84.87158199999976,182.94873000000007,202.82031300000017,89.10253900000043,103.3334960000002,98.7177729999994
41,99.61523400000078,12.17968800000017,100.38476599999922,-123.71801800000003,281.9228520000006,134.23095699999976,100.12841800000024,86.6665039999998,86.41015599999992,190.76904300000024,206.0258789999998,88.9741210000002,102.43603499999972,101.2822270000006
42,105.0,15.769043000000238,102.43603499999972,-126.53857400000015,286.0258789999998,133.46142599999985,100.51269500000035,84.10253900000043,86.53857400000015,197.56396500000028,210.38476599999922,91.41015599999992,103.9741210000002,104.74365200000011
43,111.79492200000004,24.615234000000783,103.58984400000008,-124.48706099999981,290.12841800000024,132.82031300000017,98.58984400000008,82.30761700000039,84.87158199999976,200.6411130000006,215.51269500000035,96.2822270000006,108.58984400000008,108.3334960000002
44,118.0771479999994,35.64111300000059,104.23095699999976,-120.38452099999995,295.0,133.20507799999996,97.43603499999972,83.20507799999996,83.3334960000002,199.87158199999976,221.0258789999998,101.9228520000006,114.74365200000011,111.53857400000015
45,121.41015599999992,43.589844000000085,104.61523400000078,-117.82055700000001,299.48730499999965,134.3588869999994,98.3334960000002,86.15380900000036,83.46142599999985,197.43603499999972,226.15380900000036,104.87158199999976,118.84619099999964,112.69238299999961
46,120.64111300000059,43.974121000000196,104.10253900000043,-119.23071300000038,300.89746099999957,135.38476599999922,99.61523400000078,88.46142599999985,85.0,195.76904300000024,229.10253900000043,102.56396500000028,117.56396500000028,110.64111300000059
47,116.9228520000006,36.9228520000006,102.69238299999961,-124.23071300000038,298.0771479999994,135.51269500000035,98.9741210000002,88.20507799999996,85.76904300000024,196.41015599999992,228.84619099999964,95.64111300000059,111.79492200000004,106.15380900000036
48,113.46142599999985,27.43603499999972,101.79492200000004,-129.61547900000005,294.48730499999965,134.48730499999965,96.41015599999992,85.89746099999957,84.87158199999976,200.2563479999999,226.79492200000004,88.3334960000002,106.2822270000006,102.30761700000039
49,112.82031300000017,22.82031300000017,102.82031300000017,-132.0512700000004,295.76904300000024,133.20507799999996,94.61523400000078,84.35888699999941,83.7177729999994,207.3076170000004,225.76904300000024,85.51269500000035,106.2822270000006,102.17968800000017
50,115.25634799999989,26.922852000000603,106.2822270000006,-130.2563479999999,304.6152340000008,133.3334960000002,95.76904300000024,85.51269500000035,84.35888699999941,215.76904300000024,226.9228520000006,88.9741210000002,111.9228520000006,106.15380900000036
51,118.46142599999985,36.53857400000015,110.25634799999989,-126.15380900000036,317.05126999999993,134.61523400000078,99.48730499999965,88.7177729999994,87.05126999999993,222.05126999999993,229.10253900000043,95.38476599999922,118.3334960000002,111.53857400000015
52,118.58984400000008,44.23095699999976,112.17968800000017,-123.46142599999985,325.6411130000006,135.89746099999957,102.43603499999972,90.76904300000024,89.61523400000078,223.3334960000002,229.3588869999994,99.87158199999976,119.74365200000011,114.48730499999965
53,113.9741210000002,43.7177729999994,110.38476599999922,-125.38452099999995,325.3847659999992,135.51269500000035,101.2822270000006,89.35888699999941,89.35888699999941,219.23095699999976,225.2563479999999,98.7177729999994,114.10253900000043,112.30761700000039
54,105.76904300000024,34.87158199999976,104.87158199999976,-131.15380900000036,318.3334960000002,133.7177729999994,95.38476599999922,84.87158199999976,85.12841800000024,212.43603499999972,217.6923829999996,92.82031300000017,105.12841800000024,106.0258789999998
55,98.58984400000008,23.461425999999847,98.20507799999996,-136.15380900000036,311.0258789999998,131.9228520000006,88.20507799999996,80.25634799999989,79.10253900000043,207.82031300000017,210.6411130000006,86.41015599999992,99.74365200000011,100.0
56,96.9228520000006,16.666503999999804,93.20507799999996,-135.38452099999995,308.84619099999964,131.2822270000006,84.23095699999976,78.9741210000002,74.35888699999941,208.46142599999985,208.3334960000002,82.82031300000017,101.79492200000004,98.46142599999985
57,100.25634799999989,16.153809000000365,90.76904300000024,-128.46142599999985,310.89746099999957,131.6665039999998,85.25634799999989,80.64111300000059,72.69238299999961,212.56396500000028,210.76904300000024,83.3334960000002,108.84619099999964,101.53857400000015
58,104.10253900000043,17.94873000000007,89.61523400000078,-119.61547900000005,312.4360349999997,132.43603499999972,88.7177729999994,82.17968800000017,72.94873000000007,215.51269500000035,213.7177729999994,85.51269500000035,113.46142599999985,105.38476599999922
59,103.20507799999996,16.282227000000603,87.43603499999972,-113.84619099999964,310.12841800000024,132.6923829999996,90.89746099999957,80.25634799999989,72.56396500000028,213.46142599999985,212.6923829999996,86.2822270000006,109.74365200000011,105.51269500000035
60,96.79492200000004,11.153809000000365,84.10253900000043,-112.05127000000039,307.05126999999993,132.56396500000028,89.87158199999976,74.87158199999976,69.74365200000011,207.3076170000004,207.6923829999996,84.48730499999965,98.20507799999996,100.64111300000059
61,89.87158199999976,7.56396500000028,81.79492200000004,-111.15380900000036,309.48730499999965,132.6923829999996,87.30761700000039,70.25634799999989,66.2822270000006,201.79492200000004,202.82031300000017,81.6665039999998,86.41015599999992,94.23095699999976
62,88.9741210000002,10.641113000000587,83.58984400000008,-107.43579099999943,320.89746099999957,133.46142599999985,86.41015599999992,70.76904300000024,65.51269500000035,202.3076170000004,202.56396500000028,80.76904300000024,82.43603499999972,91.2822270000006
63,96.53857400000015,20.25634799999989,89.74365200000011,-99.48706099999981,338.0771479999994,134.7436520000001,88.7177729999994,77.05126999999993,69.74365200000011,210.0,207.94873000000007,83.0771479999994,88.7177729999994,94.23095699999976
64,108.0771479999994,30.384765999999217,97.30761700000039,-90.0,351.9228520000006,135.6411130000006,92.43603499999972,84.74365200000011,77.56396500000028,220.89746099999957,215.12841800000024,87.05126999999993,100.0,100.38476599999922
65,116.15380900000036,34.35888699999941,101.9228520000006,-83.84619099999964,354.10253900000043,135.76904300000024,94.48730499999965,88.0771479999994,84.35888699999941,228.58984400000008,218.7177729999994,89.48730499999965,107.69238299999961,105.25634799999989
66,115.64111300000059,30.0,101.0258789999998,-84.10253899999998,343.9741210000002,135.12841800000024,93.20507799999996,85.64111300000059,86.0258789999998,228.7177729999994,216.15380900000036,88.84619099999964,107.05126999999993,105.64111300000059
67,107.94873000000007,21.666503999999804,96.2822270000006,-89.74365200000011,330.51269500000035,134.61523400000078,89.74365200000011,80.25634799999989,81.9228520000006,223.0771479999994,210.12841800000024,86.41015599999992,100.0,102.69238299999961
68,99.35888699999941,16.025878999999804,90.76904300000024,-95.25634799999989,324.10253900000043,134.61523400000078,86.15380900000036,76.79492200000004,75.25634799999989,217.17968800000017,205.89746099999957,84.87158199999976,93.7177729999994,99.61523400000078
69,96.15380900000036,17.69238299999961,87.30761700000039,-94.61547900000005,328.3334960000002,135.2563479999999,84.10253900000043,77.56396500000028,70.76904300000024,215.38476599999922,206.53857400000015,85.64111300000059,93.3334960000002,99.35888699999941
70,99.35888699999941,25.25634799999989,86.6665039999998,-86.41015600000037,337.05126999999993,135.89746099999957,84.10253900000043,80.76904300000024,70.64111300000059,218.58984400000008,210.6411130000006,88.20507799999996,98.58984400000008,102.05126999999993
71,105.0,32.30761700000039,87.17968800000017,-75.1281740000004,340.76904300000024,135.6411130000006,85.76904300000024,82.69238299999961,73.46142599999985,223.58984400000008,213.46142599999985,90.51269500000035,103.9741210000002,104.87158199999976
72,106.79492200000004,31.922852000000603,86.9228520000006,-68.46142599999985,334.3588869999994,134.48730499999965,87.17968800000017,80.25634799999989,75.64111300000059,225.6411130000006,211.0258789999998,90.25634799999989,103.58984400000008,104.87158199999976
73,102.17968800000017,22.30761700000039,84.35888699999941,-69.8718259999996,321.2822270000006,132.94873000000007,86.53857400000015,74.10253900000043,73.9741210000002,222.3076170000004,203.3334960000002,87.17968800000017,95.89746099999957,101.15380900000036
74,94.74365200000011,9.102539000000434,80.64111300000059,-75.51293900000019,311.2822270000006,131.9228520000006,84.10253900000043,67.69238299999961,69.35888699999941,215.51269500000035,194.48730499999965,83.46142599999985,85.0,96.6665039999998
75,92.17968800000017,2.1796880000001693,78.84619099999964,-77.17944299999999,312.82031300000017,132.05126999999993,82.56396500000028,65.76904300000024,66.0258789999998,210.76904300000024,191.0258789999998,82.69238299999961,79.35888699999941,95.89746099999957
76,99.48730499999965,8.589844000000085,81.53857400000015,-68.71801800000003,327.82031300000017,133.3334960000002,84.61523400000078,70.89746099999957,68.9741210000002,213.46142599999985,196.9228520000006,87.30761700000039,85.0,101.41015599999992
77,113.58984400000008,25.51269500000035,87.82031300000017,-51.41015600000037,348.7177729999994,135.12841800000024,90.51269500000035,81.53857400000015,78.7177729999994,223.58984400000008,209.61523400000078,96.2822270000006,100.38476599999922,110.51269500000035
78,124.48730499999965,41.53857400000015,93.20507799999996,-33.20507799999996,363.0771479999994,136.6665039999998,96.15380900000036,91.53857400000015,90.0,234.3588869999994,220.6411130000006,103.84619099999964,115.64111300000059,116.53857400000015
79,123.58984400000008,44.74365200000011,92.82031300000017,-23.58984399999963,361.79492200000004,136.6665039999998,97.17968800000017,94.48730499999965,95.0,237.56396500000028,221.79492200000004,104.10253900000043,120.0,114.35888699999941
80,110.51269500000035,32.94873000000007,86.53857400000015,-26.28198199999997,345.51269500000035,135.0,92.69238299999961,88.3334960000002,90.38476599999922,230.12841800000024,211.2822270000006,96.2822270000006,109.74365200000011,105.12841800000024
81,95.12841800000024,16.025878999999804,79.35888699999941,-36.92309599999999,325.0,132.82031300000017,86.6665039999998,77.94873000000007,80.38476599999922,217.56396500000028,196.15380900000036,85.89746099999957,92.30761700000039,95.51269500000035
82,88.7177729999994,7.56396500000028,76.9228520000006,-46.79492200000004,312.82031300000017,131.41015599999992,84.35888699999941,71.15380900000036,73.20507799999996,208.7177729999994,187.05126999999993,80.25634799999989,80.25634799999989,92.82031300000017
83,95.64111300000059,14.102539000000434,80.38476599999922,-49.35888699999987,314.3588869999994,131.2822270000006,88.3334960000002,72.56396500000028,73.58984400000008,208.84619099999964,189.7436520000001,82.56396500000028,81.15380900000036,98.3334960000002
84,109.87158199999976,29.615234000000783,86.0258789999998,-44.74365200000011,325.2563479999999,131.2822270000006,96.0258789999998,80.12841800000024,80.38476599999922,215.51269500000035,201.0258789999998,89.48730499999965,92.17968800000017,107.17968800000017
85,121.0258789999998,41.666503999999804,89.48730499999965,-38.46142599999985,335.51269500000035,130.89746099999957,102.69238299999961,87.69238299999961,87.43603499999972,222.3076170000004,212.05126999999993,95.76904300000024,104.10253900000043,113.0771479999994
86,122.17968800000017,41.666503999999804,88.84619099999964,-36.66674799999964,337.5639650000003,130.38476599999922,104.23095699999976,90.38476599999922,90.0,224.10253900000043,215.76904300000024,98.20507799999996,108.9741210000002,112.82031300000017
87,113.58984400000008,30.769043000000238,85.12841800000024,-41.92309599999999,329.3588869999994,130.12841800000024,100.0,86.6665039999998,86.53857400000015,219.61523400000078,210.38476599999922,96.53857400000015,104.10253900000043,107.56396500000028
88,101.6665039999998,17.69238299999961,80.51269500000035,-52.30761700000039,313.9741210000002,129.7436520000001,93.58984400000008,79.87158199999976,79.23095699999976,210.76904300000024,200.0,92.82031300000017,92.82031300000017,101.15380900000036
89,92.94873000000007,11.666503999999804,77.05126999999993,-63.71801800000003,297.4360349999997,128.84619099999964,89.74365200000011,75.0,71.9228520000006,200.2563479999999,190.38476599999922,89.74365200000011,80.76904300000024,96.6665039999998
90,89.87158199999976,14.743652000000111,75.76904300000024,-71.92309599999999,285.76904300000024,128.20507799999996,91.41015599999992,75.0,67.82031300000017,191.41015599999992,185.76904300000024,88.84619099999964,72.94873000000007,95.38476599999922
91,90.38476599999922,21.410155999999915,76.2822270000006,-75.25634799999989,281.9228520000006,128.9741210000002,97.05126999999993,79.23095699999976,67.69238299999961,186.0258789999998,186.15380900000036,89.61523400000078,71.2822270000006,95.89746099999957
92,90.89746099999957,23.846190999999635,77.17968800000017,-74.10253899999998,285.3847659999992,131.15380900000036,102.43603499999972,84.10253900000043,69.87158199999976,183.84619099999964,188.46142599999985,90.64111300000059,73.7177729999994,96.6665039999998
93,90.12841800000024,19.74365200000011,77.69238299999961,-69.8718259999996,292.82031300000017,132.94873000000007,104.48730499999965,86.9228520000006,72.56396500000028,184.10253900000043,189.48730499999965,91.2822270000006,77.17968800000017,97.30761700000039
94,89.23095699999976,13.205077999999958,77.94873000000007,-63.974365000000034,300.2563479999999,132.05126999999993,103.3334960000002,87.69238299999961,75.38476599999922,187.05126999999993,188.9741210000002,92.30761700000039,79.23095699999976,98.9741210000002
95,89.35888699999941,10.512695000000349,77.82031300000017,-57.948729999999614,303.5898440000001,127.94873000000007,100.25634799999989,87.69238299999961,78.7177729999994,191.6665039999998,188.58984400000008,93.7177729999994,79.48730499999965,101.2822270000006
96,89.61523400000078,13.077147999999397,76.2822270000006,-53.33325200000036,299.6152340000008,122.43603499999972,95.76904300000024,87.69238299999961,82.17968800000017,195.38476599999922,189.3588869999994,94.35888699999941,77.94873000000007,102.30761700000039
97,87.94873000000007,17.69238299999961,72.69238299999961,-50.64111300000013,287.94873000000007,118.58984400000008,90.76904300000024,86.9228520000006,84.10253900000043,195.2563479999999,190.38476599999922,93.0771479999994,75.25634799999989,101.0258789999998
98,85.0,20.384765999999217,68.3334960000002,-48.71801800000003,272.17968800000017,118.7177729999994,87.17968800000017,85.76904300000024,84.23095699999976,190.38476599999922,189.61523400000078,89.87158199999976,72.43603499999972,98.58984400000008
99,83.0771479999994,20.897460999999566,66.0258789999998,-45.51293900000019,258.9741210000002,122.43603499999972,87.17968800000017,85.64111300000059,84.48730499999965,183.9741210000002,186.53857400000015,87.05126999999993,70.89746099999957,97.94873000000007
100,83.84619099999964,21.282227000000603,67.17968800000017,-39.61547900000005,253.46142599999985,127.05126999999993,91.2822270000006,88.3334960000002,86.53857400000015,180.6411130000006,182.43603499999972,86.79492200000004,71.53857400000015,99.48730499999965
101,85.76904300000024,22.05126999999993,70.25634799999989,-31.28198199999997,255.2563479999999,129.48730499999965,96.6665039999998,92.94873000000007,89.87158199999976,181.9228520000006,178.9741210000002,88.84619099999964,72.82031300000017,101.2822270000006
102,85.76904300000024,21.794922000000042,72.17968800000017,-21.666747999999643,258.46142599999985,127.94873000000007,98.84619099999964,97.17968800000017,91.9228520000006,184.23095699999976,176.9228520000006,91.0258789999998,72.05126999999993,100.25634799999989
103,81.79492200000004,18.846190999999635,70.76904300000024,-11.28198199999997,256.4101559999999,123.20507799999996,96.15380900000036,98.7177729999994,91.0258789999998,183.20507799999996,176.0258789999998,91.0258789999998,68.7177729999994,96.41015599999992
104,75.12841800000024,14.230956999999762,67.30761700000039,-0.38476599999921746,246.6665039999998,118.0771479999994,90.64111300000059,98.0771479999994,88.3334960000002,177.43603499999972,176.41015599999992,89.10253900000043,65.38476599999922,92.30761700000039
105,68.9741210000002,9.871581999999762,64.10253900000043,9.102539000000434,232.05126999999993,115.12841800000024,86.2822270000006,97.05126999999993,86.6665039999998,169.48730499999965,177.82031300000017,87.17968800000017,65.12841800000024,90.25634799999989
106,65.0,6.922852000000603,62.56396500000028,14.487304999999651,217.3076170000004,114.87158199999976,84.87158199999976,96.41015599999992,88.3334960000002,163.20507799999996,179.3588869999994,86.2822270000006,68.0771479999994,90.51269500000035
107,61.9228520000006,4.6152340000007825,61.9228520000006,15.128418000000238,205.89746099999957,116.0258789999998,86.15380900000036,95.38476599999922,92.82031300000017,160.51269500000035,178.84619099999964,85.76904300000024,70.51269500000035,90.64111300000059
108,58.846190999999635,3.2050779999999577,61.153809000000365,15.0,200.2563479999999,116.79492200000004,88.20507799999996,92.82031300000017,97.56396500000028,161.2822270000006,176.0258789999998,85.38476599999922,69.74365200000011,89.23095699999976
109,57.05126999999993,4.230956999999762,60.76904300000024,20.641113000000587,201.41015599999992,117.30761700000039,90.38476599999922,89.87158199999976,100.64111300000059,164.23095699999976,172.82031300000017,85.76904300000024,66.9228520000006,87.82031300000017
110,58.846190999999635,9.871581999999762,62.30761700000039,34.35888699999941,207.82031300000017,118.20507799999996,92.69238299999961,88.84619099999964,101.41015599999992,167.43603499999972,172.56396500000028,88.0771479999994,65.76904300000024,89.10253900000043
111,64.48730499999965,19.48730499999965,66.15380900000036,52.05126999999993,215.0,119.35888699999941,95.0,91.0258789999998,101.0258789999998,168.3334960000002,176.15380900000036,91.53857400000015,68.58984400000008,93.9741210000002
112,72.05126999999993,29.615234000000783,71.0258789999998,66.79492200000004,217.94873000000007,120.0,96.2822270000006,95.38476599999922,100.38476599999922,166.15380900000036,181.6665039999998,94.48730499999965,74.87158199999976,100.25634799999989
113,78.9741210000002,37.17968800000017,75.51269500000035,74.87158199999976,214.87158199999976,119.35888699999941,96.53857400000015,99.35888699999941,100.89746099999957,162.56396500000028,186.79492200000004,95.76904300000024,82.82031300000017,104.74365200000011
114,83.58984400000008,40.897460999999566,79.10253900000043,78.7177729999994,206.9228520000006,118.7177729999994,96.79492200000004,101.2822270000006,103.20507799999996,160.89746099999957,190.0,95.64111300000059,90.38476599999922,105.76904300000024
115,85.38476599999922,41.410155999999915,81.15380900000036,83.3334960000002,196.79492200000004,119.10253900000043,97.56396500000028,100.64111300000059,106.15380900000036,162.3076170000004,191.15380900000036,95.38476599999922,95.38476599999922,103.9741210000002
116,84.74365200000011,40.64111300000059,81.41015599999992,91.9228520000006,186.9228520000006,119.87158199999976,98.58984400000008,99.10253900000043,107.82031300000017,164.10253900000043,191.0258789999998,96.0258789999998,96.6665039999998,101.53857400000015
117,83.3334960000002,40.64111300000059,79.74365200000011,103.3334960000002,179.10253900000043,119.87158199999976,99.23095699999976,98.58984400000008,106.79492200000004,162.3076170000004,190.51269500000035,97.43603499999972,94.48730499999965,100.76904300000024
118,82.69238299999961,41.79492200000004,77.30761700000039,114.35888699999941,173.3334960000002,118.9741210000002,98.7177729999994,100.38476599999922,104.23095699999976,155.6411130000006,191.15380900000036,98.9741210000002,90.76904300000024,102.69238299999961
119,82.69238299999961,42.94873000000007,75.25634799999989,122.94873000000007,168.7177729999994,117.82031300000017,97.05126999999993,103.20507799999996,102.05126999999993,146.15380900000036,193.46142599999985,100.0,88.3334960000002,105.25634799999989
120,82.30761700000039,42.05126999999993,73.9741210000002,129.3588869999994,164.23095699999976,117.43603499999972,94.74365200000011,104.10253900000043,101.53857400000015,137.82031300000017,195.12841800000024,99.74365200000011,88.20507799999996,106.0258789999998
121,81.0258789999998,39.102539000000434,72.69238299999961,134.48730499999965,158.7177729999994,117.82031300000017,93.3334960000002,101.41015599999992,101.9228520000006,132.94873000000007,192.43603499999972,97.94873000000007,89.10253900000043,103.7177729999994
122,80.0,35.76904300000024,70.89746099999957,139.48730499999965,151.6665039999998,118.0771479999994,93.84619099999964,96.2822270000006,101.79492200000004,131.15380900000036,183.46142599999985,95.38476599999922,88.84619099999964,100.51269500000035
123,80.12841800000024,35.0,69.23095699999976,144.3588869999994,144.48730499999965,117.69238299999961,96.0258789999998,91.41015599999992,100.51269500000035,130.6411130000006,170.12841800000024,93.58984400000008,86.53857400000015,98.84619099999964
124,81.0258789999998,37.43603499999972,68.84619099999964,148.84619099999964,139.23095699999976,116.53857400000015,98.3334960000002,89.74365200000011,98.7177729999994,130.12841800000024,158.7177729999994,93.9741210000002,83.58984400000008,99.61523400000078
125,82.05126999999993,42.17968800000017,70.89746099999957,153.20507799999996,137.05126999999993,115.64111300000059,99.23095699999976,92.05126999999993,97.94873000000007,129.48730499999965,155.51269500000035,96.41015599999992,82.82031300000017,101.79492200000004
126,82.56396500000028,46.79492200000004,75.38476599999922,158.58984400000008,136.9228520000006,115.76904300000024,98.84619099999964,97.05126999999993,99.74365200000011,129.10253900000043,162.17968800000017,98.9741210000002,85.12841800000024,103.3334960000002
127,81.6665039999998,48.846190999999635,80.64111300000059,164.61523400000078,136.15380900000036,116.9228520000006,98.20507799999996,101.41015599999992,103.0771479999994,129.10253900000043,173.3334960000002,99.61523400000078,88.20507799999996,102.94873000000007
128,78.7177729999994,46.153809000000365,83.0771479999994,168.9741210000002,132.6923829999996,118.0771479999994,98.0771479999994,102.56396500000028,105.51269500000035,127.94873000000007,180.51269500000035,97.56396500000028,88.0771479999994,100.12841800000024
129,73.46142599999985,38.46142599999985,80.0,168.58984400000008,126.2822270000006,118.20507799999996,98.0771479999994,100.51269500000035,105.25634799999989,124.35888699999941,178.20507799999996,93.7177729999994,83.7177729999994,95.64111300000059
130,67.56396500000028,27.82031300000017,72.56396500000028,164.87158199999976,118.46142599999985,117.05126999999993,97.43603499999972,97.56396500000028,103.3334960000002,118.7177729999994,168.84619099999964,89.87158199999976,78.46142599999985,91.6665039999998
131,64.35888699999941,18.717772999999397,65.76904300000024,163.7177729999994,112.56396500000028,115.76904300000024,96.79492200000004,97.56396500000028,102.56396500000028,113.58984400000008,160.2563479999999,88.46142599999985,77.05126999999993,90.76904300000024
132,66.2822270000006,15.897460999999566,65.12841800000024,171.9228520000006,110.38476599999922,115.51269500000035,97.30761700000039,102.69238299999961,105.38476599999922,111.9228520000006,159.87158199999976,90.89746099999957,82.56396500000028,93.3334960000002
133,72.82031300000017,20.51269500000035,71.2822270000006,189.3588869999994,110.76904300000024,116.6665039999998,99.48730499999965,111.6665039999998,111.9228520000006,114.74365200000011,168.58984400000008,95.76904300000024,92.30761700000039,97.82031300000017
134,80.12841800000024,29.48730499999965,79.87158199999976,208.20507799999996,108.7177729999994,118.0771479999994,102.43603499999972,119.48730499999965,119.10253900000043,119.87158199999976,179.10253900000043,99.48730499999965,99.48730499999965,101.41015599999992
135,83.58984400000008,36.79492200000004,84.35888699999941,218.3334960000002,101.79492200000004,118.58984400000008,104.35888699999941,121.79492200000004,123.20507799999996,122.82031300000017,182.17968800000017,99.23095699999976,98.7177729999994,102.56396500000028
136,81.9228520000006,39.35888699999941,82.05126999999993,215.38476599999922,93.20507799999996,118.0771479999994,104.35888699999941,117.69238299999961,122.17968800000017,121.79492200000004,173.9741210000002,95.89746099999957,91.0258789999998,101.79492200000004
137,77.30761700000039,38.7177729999994,75.38476599999922,203.9741210000002,88.84619099999964,117.43603499999972,103.7177729999994,111.15380900000036,117.82031300000017,118.7177729999994,160.12841800000024,92.56396500000028,83.46142599999985,101.0258789999998
138,72.94873000000007,38.333496000000196,69.10253900000043,193.84619099999964,90.0,117.17968800000017,103.84619099999964,106.53857400000015,113.0771479999994,116.2822270000006,149.61523400000078,91.9228520000006,81.41015599999992,100.64111300000059
139,69.23095699999976,38.846190999999635,65.89746099999957,192.17968800000017,90.12841800000024,117.30761700000039,104.23095699999976,104.35888699999941,108.84619099999964,113.7177729999994,146.9228520000006,93.46142599999985,83.58984400000008,99.61523400000078
140,65.76904300000024,38.0771479999994,65.64111300000059,199.23095699999976,81.15380900000036,117.17968800000017,103.3334960000002,101.6665039999998,103.84619099999964,107.56396500000028,148.9741210000002,94.10253900000043,84.23095699999976,97.05126999999993
141,63.333496000000196,34.23095699999976,66.6665039999998,210.12841800000024,62.69238299999961,116.15380900000036,100.38476599999922,96.9228520000006,97.94873000000007,96.79492200000004,150.2563479999999,91.79492200000004,80.12841800000024,94.23095699999976
142,63.974121000000196,29.358886999999413,68.46142599999985,219.48730499999965,45.0,114.48730499999965,97.05126999999993,92.17968800000017,93.9741210000002,85.89746099999957,148.7177729999994,87.94873000000007,74.87158199999976,93.3334960000002
143,69.23095699999976,27.43603499999972,71.41015599999992,225.2563479999999,41.410155999999915,113.58984400000008,96.79492200000004,92.43603499999972,95.76904300000024,82.56396500000028,147.17968800000017,86.79492200000004,74.74365200000011,96.0258789999998
144,78.0771479999994,32.43603499999972,76.0258789999998,229.48730499999965,56.410155999999915,114.10253900000043,101.79492200000004,100.25634799999989,104.87158199999976,90.89746099999957,149.7436520000001,91.0258789999998,82.69238299999961,101.79492200000004
145,86.2822270000006,43.333496000000196,80.76904300000024,234.87158199999976,80.25634799999989,115.89746099999957,110.25634799999989,113.7177729999994,118.20507799999996,106.9228520000006,155.0,98.58984400000008,94.74365200000011,107.17968800000017
146,89.87158199999976,54.74365200000011,82.56396500000028,240.89746099999957,95.12841800000024,117.56396500000028,116.9228520000006,125.76904300000024,128.9741210000002,120.51269500000035,156.9228520000006,104.35888699999941,103.0771479999994,108.7177729999994
147,87.43603499999972,60.25634799999989,80.38476599999922,244.87158199999976,89.35888699999941,117.56396500000028,117.30761700000039,129.23095699999976,131.15380900000036,122.94873000000007,150.0,104.23095699999976,102.30761700000039,105.76904300000024
148,83.20507799999996,58.0771479999994,76.41015599999992,245.2563479999999,67.05126999999993,116.2822270000006,111.9228520000006,123.0771479999994,124.74365200000011,113.3334960000002,136.6665039999998,99.87158199999976,95.12841800000024,101.0258789999998
149,83.3334960000002,52.69238299999961,75.25634799999989,244.48730499999965,43.974121000000196,114.61523400000078,105.89746099999957,113.58984400000008,115.89746099999957,100.25634799999989,125.76904300000024,96.0258789999998,89.74365200000011,99.10253900000043
150,91.0258789999998,50.897460999999566,79.48730499999965,246.0258789999998,35.12841800000024,113.9741210000002,104.61523400000078,109.23095699999976,112.17968800000017,94.10253900000043,125.0,96.53857400000015,92.69238299999961,102.17968800000017
151,101.15380900000036,54.74365200000011,85.89746099999957,250.76904300000024,42.82031300000017,114.61523400000078,108.9741210000002,113.3334960000002,116.53857400000015,98.46142599999985,132.94873000000007,101.15380900000036,102.43603499999972,107.17968800000017
152,104.87158199999976,59.23095699999976,88.20507799999996,255.2563479999999,54.87158199999976,115.76904300000024,114.87158199999976,121.2822270000006,123.84619099999964,107.43603499999972,139.61523400000078,105.0,111.0258789999998,108.7177729999994
153,95.89746099999957,57.17968800000017,81.9228520000006,254.3588869999994,55.12841800000024,116.41015599999992,116.2822270000006,124.23095699999976,126.0258789999998,111.0258789999998,135.38476599999922,102.82031300000017,110.12841800000024,103.58984400000008
154,77.94873000000007,45.897460999999566,68.7177729999994,245.6411130000006,37.94873000000007,116.15380900000036,111.0258789999998,117.17968800000017,118.84619099999964,103.84619099999964,119.23095699999976,93.9741210000002,97.56396500000028,93.84619099999964
155,62.17968800000017,31.538574000000153,56.025878999999804,231.2822270000006,13.077147999999397,115.51269500000035,102.56396500000028,104.10253900000043,106.6665039999998,90.0,100.51269500000035,83.84619099999964,80.51269500000035,85.64111300000059
156,60.0,25.897460999999566,51.9228520000006,216.2822270000006,-1.0258789999998044,115.51269500000035,97.30761700000039,95.51269500000035,99.61523400000078,80.51269500000035,91.0258789999998,79.74365200000011,71.15380900000036,84.48730499999965
157,73.0771479999994,36.53857400000015,58.7177729999994,205.12841800000024,6.538574000000153,116.41015599999992,99.48730499999965,99.23095699999976,104.87158199999976,83.58984400000008,96.41015599999992,84.61523400000078,77.05126999999993,91.9228520000006
158,91.53857400000015,58.846190999999635,71.0258789999998,198.20507799999996,29.48730499999965,117.69238299999961,106.79492200000004,113.20507799999996,119.61523400000078,97.30761700000039,112.17968800000017,94.61523400000078,94.35888699999941,103.0771479999994
159,101.2822270000006,78.0771479999994,79.74365200000011,191.0258789999998,49.48730499999965,118.3334960000002,111.79492200000004,126.15380900000036,132.56396500000028,110.12841800000024,126.41015599999992,102.56396500000028,109.87158199999976,110.0
160,95.25634799999989,81.6665039999998,79.61523400000078,178.3334960000002,50.38476599999922,117.94873000000007,109.23095699999976,127.17968800000017,133.0771479999994,111.0258789999998,129.3588869999994,103.84619099999964,112.43603499999972,108.0771479999994
161,78.9741210000002,69.87158199999976,73.20507799999996,158.3334960000002,31.922852000000603,116.41015599999992,100.38476599999922,115.25634799999989,120.38476599999922,98.9741210000002,120.64111300000059,99.74365200000011,102.17968800000017,99.87158199999976
162,65.38476599999922,54.48730499999965,68.58984400000008,134.87158199999976,8.589844000000085,114.87158199999976,92.69238299999961,99.48730499999965,104.35888699999941,83.3334960000002,108.84619099999964,95.76904300000024,89.35888699999941,93.0771479999994
163,64.61523400000078,49.35888699999941,71.15380900000036,113.7177729999994,-2.6923829999996087,114.23095699999976,92.94873000000007,91.53857400000015,96.53857400000015,75.25634799999989,102.82031300000017,95.89746099999957,85.25634799999989,93.46142599999985
164,75.64111300000059,58.589844000000085,79.23095699999976,96.9228520000006,4.487304999999651,114.48730499999965,101.9228520000006,96.2822270000006,101.15380900000036,78.7177729999994,103.9741210000002,99.61523400000078,93.20507799999996,100.76904300000024
165,88.20507799999996,75.0,86.53857400000015,82.69238299999961,21.794922000000042,115.25634799999989,113.3334960000002,108.9741210000002,112.30761700000039,88.58984400000008,106.41015599999992,102.94873000000007,105.89746099999957,108.58984400000008
166,92.69238299999961,87.82031300000017,87.30761700000039,68.84619099999964,35.0,115.76904300000024,119.61523400000078,120.12841800000024,120.0,96.41015599999992,103.84619099999964,103.0771479999994,112.69238299999961,111.15380900000036
167,88.0771479999994,92.94873000000007,82.17968800000017,56.025878999999804,35.12841800000024,115.76904300000024,118.84619099999964,123.58984400000008,120.12841800000024,98.0771479999994,96.9228520000006,100.76904300000024,109.35888699999941,107.69238299999961
168,82.43603499999972,94.35888699999941,77.30761700000039,46.666503999999804,25.25634799999989,115.64111300000059,114.87158199999976,120.25634799999989,116.53857400000015,96.2822270000006,92.69238299999961,99.87158199999976,101.9228520000006,103.3334960000002
169,84.23095699999976,98.46142599999985,78.0771479999994,40.51269500000035,15.128418000000238,115.51269500000035,113.3334960000002,115.89746099999957,116.53857400000015,96.0258789999998,96.53857400000015,102.82031300000017,100.12841800000024,103.46142599999985
170,93.9741210000002,106.0258789999998,84.74365200000011,33.20507799999996,12.56396500000028,116.0258789999998,115.51269500000035,114.61523400000078,121.6665039999998,98.84619099999964,106.41015599999992,108.20507799999996,107.30761700000039,108.46142599999985
171,103.84619099999964,112.17968800000017,91.79492200000004,20.769043000000238,17.17968800000017,116.79492200000004,117.82031300000017,115.51269500000035,126.6665039999998,101.15380900000036,112.94873000000007,111.6665039999998,117.82031300000017,113.3334960000002
172,104.87158199999976,112.82031300000017,93.20507799999996,4.743652000000111,22.17968800000017,116.0258789999998,115.76904300000024,115.51269500000035,124.87158199999976,98.0771479999994,108.9741210000002,110.25634799999989,122.05126999999993,112.43603499999972
173,95.64111300000059,109.10253900000043,87.94873000000007,-9.102538999999979,21.538574000000153,113.20507799999996,108.84619099999964,113.46142599999985,115.76904300000024,89.48730499999965,95.89746099999957,104.74365200000011,116.53857400000015,105.76904300000024
174,83.7177729999994,107.30761700000039,80.89746099999957,-16.025634999999966,15.256347999999889,109.74365200000011,101.15380900000036,111.0258789999998,106.15380900000036,79.61523400000078,84.10253900000043,99.23095699999976,106.2822270000006,98.84619099999964
175,79.35888699999941,112.30761700000039,77.82031300000017,-17.435790999999426,8.461425999999847,108.7177729999994,97.82031300000017,111.0258789999998,104.48730499999965,74.74365200000011,82.94873000000007,97.69238299999961,100.12841800000024,98.0771479999994
176,86.53857400000015,123.46142599999985,80.89746099999957,-19.487060999999812,6.922852000000603,111.15380900000036,100.76904300000024,115.0,112.56396500000028,77.30761700000039,93.7177729999994,100.64111300000059,102.82031300000017,105.0
177,99.74365200000011,133.9741210000002,87.05126999999993,-28.076904000000013,10.512695000000349,115.0,107.69238299999961,120.89746099999957,124.87158199999976,84.61523400000078,107.69238299999961,105.12841800000024,110.51269500000035,115.0
178,108.3334960000002,136.15380900000036,90.12841800000024,-43.46142599999985,13.974121000000196,116.9228520000006,113.84619099999964,124.74365200000011,131.9228520000006,90.89746099999957,112.82031300000017,107.30761700000039,115.0,120.51269500000035
179,104.87158199999976,128.20507799999996,86.41015599999992,-60.76928699999962,12.051269999999931,114.74365200000011,115.51269500000035,123.3334960000002,129.10253900000043,92.17968800000017,102.30761700000039,105.76904300000024,111.41015599999992,117.30761700000039
180,92.17968800000017,116.15380900000036,77.82031300000017,-73.07690400000001,5.3847659999992175,109.61523400000078,113.20507799999996,117.43603499999972,119.74365200000011,88.7177729999994,81.9228520000006,102.05126999999993,102.56396500000028,108.0771479999994
181,80.38476599999922,109.10253900000043,71.41015599999992,-76.02563499999997,-0.12841800000023795,105.38476599999922,110.76904300000024,111.2822270000006,111.79492200000004,84.35888699999941,65.64111300000059,99.35888699999941,96.15380900000036,99.74365200000011
182,78.84619099999964,111.2822270000006,73.0771479999994,-71.15380900000036,0.6411130000005869,105.12841800000024,111.53857400000015,109.23095699999976,111.79492200000004,83.0771479999994,64.87158199999976,100.38476599999922,97.69238299999961,97.94873000000007
183,88.9741210000002,120.0,82.94873000000007,-65.38452099999995,7.820313000000169,109.23095699999976,115.89746099999957,112.82031300000017,120.0,86.6665039999998,79.23095699999976,105.51269500000035,107.05126999999993,103.46142599999985
184,104.10253900000043,129.23095699999976,95.89746099999957,-65.1281740000004,17.43603499999972,114.35888699999941,121.0258789999998,119.87158199999976,131.0258789999998,93.9741210000002,97.69238299999961,112.56396500000028,120.0,112.43603499999972
185,115.25634799999989,134.7436520000001,104.74365200000011,-72.05127000000039,25.128418000000238,116.6665039999998,123.7177729999994,126.9228520000006,138.58984400000008,102.30761700000039,108.46142599999985,118.0771479999994,131.9228520000006,119.61523400000078
186,117.17968800000017,136.15380900000036,105.64111300000059,-82.43579099999943,27.94873000000007,113.9741210000002,122.94873000000007,130.2563479999999,138.84619099999964,107.56396500000028,107.17968800000017,119.74365200000011,138.9741210000002,121.53857400000015
187,110.76904300000024,134.87158199999976,99.74365200000011,-91.66674799999964,25.0,107.94873000000007,119.74365200000011,128.46142599999985,132.82031300000017,106.2822270000006,97.56396500000028,117.05126999999993,138.84619099999964,117.56396500000028
188,101.6665039999998,133.3334960000002,90.89746099999957,-97.94872999999961,16.922852000000603,102.43603499999972,116.41015599999992,122.56396500000028,124.74365200000011,98.20507799999996,87.30761700000039,111.6665039999998,131.2822270000006,110.64111300000059
189,95.76904300000024,133.58984400000008,83.7177729999994,-102.17944299999999,7.179688000000169,100.25634799999989,114.87158199999976,116.15380900000036,119.74365200000011,87.43603499999972,81.53857400000015,106.9228520000006,120.12841800000024,105.0
190,95.89746099999957,136.2822270000006,80.76904300000024,-106.41015600000037,-0.256347999999889,101.6665039999998,114.87158199999976,113.58984400000008,120.0,80.38476599999922,79.87158199999976,105.38476599999922,111.2822270000006,103.9741210000002
191,100.89746099999957,140.2563479999999,81.79492200000004,-112.05127000000039,-2.3076170000003913,104.10253900000043,115.51269500000035,117.05126999999993,124.61523400000078,81.79492200000004,78.58984400000008,107.82031300000017,109.61523400000078,107.43603499999972
192,106.2822270000006,142.82031300000017,85.25634799999989,-118.84619099999964,0.512695000000349,105.12841800000024,116.15380900000036,124.48730499999965,130.38476599999922,90.76904300000024,76.41015599999992,112.05126999999993,115.51269500000035,112.43603499999972
193,108.3334960000002,141.79492200000004,89.10253900000043,-125.0,5.641113000000587,104.10253900000043,117.30761700000039,131.6665039999998,134.87158199999976,101.53857400000015,75.89746099999957,114.87158199999976,124.10253900000043,115.64111300000059
194,106.6665039999998,137.82031300000017,92.43603499999972,-127.82055700000001,10.128418000000238,102.69238299999961,119.23095699999976,135.0,137.3076170000004,107.69238299999961,81.0258789999998,115.25634799999989,129.7436520000001,116.41015599999992
195,103.58984400000008,134.48730499999965,94.74365200000011,-126.28198199999997,13.205077999999958,103.0771479999994,122.05126999999993,134.48730499999965,139.10253900000043,107.82031300000017,91.0258789999998,114.87158199999976,130.6411130000006,115.76904300000024
196,101.79492200000004,134.7436520000001,96.15380900000036,-123.07690400000001,15.256347999999889,105.51269500000035,124.74365200000011,132.6923829999996,141.6665039999998,104.87158199999976,99.35888699999941,115.51269500000035,128.84619099999964,115.38476599999922
197,101.9228520000006,138.20507799999996,95.89746099999957,-123.46142599999985,17.43603499999972,109.23095699999976,126.15380900000036,132.05126999999993,144.48730499999965,102.82031300000017,98.20507799999996,116.9228520000006,127.43603499999972,115.25634799999989
198,102.56396500000028,141.41015599999992,93.3334960000002,-131.66674799999964,20.128418000000238,112.43603499999972,125.25634799999989,132.56396500000028,145.76904300000024,103.3334960000002,86.15380900000036,117.30761700000039,127.30761700000039,113.9741210000002
199,101.2822270000006,141.2822270000006,89.10253900000043,-146.53857400000015,22.43603499999972,113.46142599999985,122.05126999999993,132.6923829999996,143.7177729999994,103.9741210000002,69.74365200000011,115.0,126.79492200000004,110.38476599999922
200,98.20507799999996,137.94873000000007,84.74365200000011,-162.9487299999996,23.846190999999635,111.6665039999998,118.20507799999996,131.53857400000015,138.58984400000008,101.79492200000004,58.20507799999996,110.25634799999989,123.9741210000002,105.64111300000059
201,95.38476599999922,135.0,82.43603499999972,-174.7436520000001,23.589844000000085,107.94873000000007,116.0258789999998,130.12841800000024,132.94873000000007,96.0258789999998,56.79492200000004,105.51269500000035,118.9741210000002,102.17968800000017
202,95.38476599999922,135.89746099999957,83.0771479999994,-180.0,22.43603499999972,104.35888699999941,116.41015599999992,129.3588869999994,129.87158199999976,89.61523400000078,63.7177729999994,103.58984400000008,114.35888699999941,102.43603499999972
203,98.46142599999985,141.53857400000015,86.79492200000004,-181.53857400000015,22.05126999999993,102.82031300000017,118.58984400000008,129.48730499999965,131.41015599999992,86.41015599999992,72.94873000000007,106.79492200000004,112.82031300000017,106.9228520000006
204,103.20507799999996,148.3334960000002,92.56396500000028,-184.8718259999996,22.82031300000017,103.20507799999996,121.15380900000036,129.7436520000001,136.2822270000006,87.82031300000017,78.46142599999985,113.58984400000008,115.38476599999922,113.20507799999996
205,106.53857400000015,150.89746099999957,97.82031300000017,-194.10253899999998,23.205077999999958,104.23095699999976,122.43603499999972,128.7177729999994,139.61523400000078,91.53857400000015,77.56396500000028,119.87158199999976,119.61523400000078,117.30761700000039
206,106.53857400000015,146.41015599999992,99.74365200000011,-208.46142599999985,21.153809000000365,104.23095699999976,121.0258789999998,124.74365200000011,137.43603499999972,93.7177729999994,71.41015599999992,121.2822270000006,122.43603499999972,117.05126999999993
207,103.20507799999996,137.6923829999996,97.56396500000028,-222.9487299999996,16.538574000000153,102.69238299999961,117.43603499999972,118.20507799999996,129.7436520000001,92.17968800000017,63.846190999999635,117.17968800000017,122.30761700000039,114.23095699999976
208,99.10253900000043,131.0258789999998,93.46142599999985,-232.3076170000004,11.666503999999804,101.0258789999998,113.7177729999994,112.17968800000017,120.64111300000059,87.56396500000028,58.20507799999996,111.0258789999998,120.0,112.17968800000017
209,96.9228520000006,130.6411130000006,91.0258789999998,-235.2563479999999,8.846190999999635,100.64111300000059,112.43603499999972,110.12841800000024,115.51269500000035,82.43603499999972,55.38476599999922,106.6665039999998,117.30761700000039,112.30761700000039
210,98.20507799999996,136.53857400000015,92.56396500000028,-235.0,8.461425999999847,101.6665039999998,114.35888699999941,113.46142599999985,116.15380900000036,79.23095699999976,54.35888699999941,106.6665039999998,115.76904300000024,113.58984400000008
211,103.0771479999994,145.76904300000024,98.7177729999994,-236.41015600000037,11.025878999999804,103.46142599999985,118.7177729999994,120.12841800000024,121.53857400000015,79.87158199999976,55.64111300000059,110.25634799999989,116.15380900000036,114.74365200000011
212,110.0,154.87158199999976,107.30761700000039,-241.15380900000036,16.794922000000042,104.48730499999965,123.7177729999994,126.15380900000036,128.3334960000002,84.23095699999976,61.410155999999915,115.38476599999922,119.35888699999941,116.15380900000036
213,116.6665039999998,160.2563479999999,113.84619099999964,-247.56420900000057,24.615234000000783,104.10253900000043,126.53857400000015,128.46142599999985,132.56396500000028,89.23095699999976,71.15380900000036,119.10253900000043,124.35888699999941,118.84619099999964
214,120.38476599999922,159.3588869999994,114.23095699999976,-253.33325200000036,30.25634799999989,102.94873000000007,124.87158199999976,126.2822270000006,130.6411130000006,89.35888699999941,78.7177729999994,119.61523400000078,128.46142599999985,121.53857400000015
215,119.87158199999976,151.9228520000006,108.0771479999994,-257.179443,30.0,102.82031300000017,119.10253900000043,121.0258789999998,122.69238299999961,81.6665039999998,77.05126999999993,117.17968800000017,128.3334960000002,122.05126999999993
216,116.79492200000004,143.0771479999994,99.87158199999976,-258.46142599999985,24.615234000000783,105.38476599999922,113.0771479999994,116.6665039999998,114.23095699999976,69.61523400000078,66.15380900000036,113.9741210000002,123.9741210000002,119.48730499999965
217,114.74365200000011,140.0,96.2822270000006,-256.79492200000004,18.974121000000196,110.89746099999957,111.41015599999992,116.9228520000006,111.79492200000004,61.79492200000004,53.589844000000085,112.43603499999972,119.23095699999976,115.76904300000024
218,117.17968800000017,146.79492200000004,100.51269500000035,-253.076904,18.846190999999635,116.53857400000015,115.25634799999989,122.82031300000017,118.20507799999996,65.38476599999922,48.974121000000196,113.58984400000008,119.48730499999965,114.74365200000011
219,124.23095699999976,160.6411130000006,110.0,-249.10253899999998,25.25634799999989,118.9741210000002,121.53857400000015,131.53857400000015,130.38476599999922,80.76904300000024,55.51269500000035,116.2822270000006,126.41015599999992,117.94873000000007
220,133.3334960000002,173.84619099999964,118.9741210000002,-246.79492200000004,34.48730499999965,117.05126999999993,125.64111300000059,138.3334960000002,141.2822270000006,99.87158199999976,68.0771479999994,118.9741210000002,136.6665039999998,123.84619099999964
221,140.38476599999922,179.3588869999994,122.17968800000017,-245.38452099999995,40.25634799999989,112.56396500000028,125.89746099999957,139.3588869999994,146.2822270000006,111.9228520000006,77.69238299999961,120.12841800000024,144.23095699999976,128.58984400000008
222,141.6665039999998,175.0,118.46142599999985,-244.61547900000005,38.333496000000196,108.3334960000002,122.69238299999961,134.23095699999976,144.23095699999976,110.89746099999957,78.7177729999994,119.23095699999976,144.61523400000078,128.9741210000002
223,135.51269500000035,163.9741210000002,110.38476599999922,-245.5129390000002,28.333496000000196,106.15380900000036,117.94873000000007,125.89746099999957,137.43603499999972,98.58984400000008,71.15380900000036,116.15380900000036,136.9228520000006,124.61523400000078
224,123.58984400000008,151.53857400000015,102.05126999999993,-250.89746100000002,14.487304999999651,106.15380900000036,113.20507799999996,118.58984400000008,128.84619099999964,82.56396500000028,59.87158199999976,111.79492200000004,125.0,118.20507799999996
225,110.89746099999957,142.6923829999996,96.41015599999992,-261.15380900000036,3.3334960000001956,107.30761700000039,109.10253900000043,114.87158199999976,120.76904300000024,70.12841800000024,51.153809000000365,107.05126999999993,113.7177729999994,113.20507799999996
226,102.05126999999993,139.7436520000001,94.35888699999941,-272.3076170000004,0.0,108.7177729999994,105.89746099999957,114.61523400000078,114.87158199999976,64.23095699999976,49.23095699999976,102.94873000000007,107.94873000000007,111.9228520000006
227,99.87158199999976,141.6665039999998,94.74365200000011,-278.33325200000036,4.743652000000111,109.48730499999965,104.74365200000011,116.0258789999998,112.56396500000028,63.7177729999994,53.7177729999994,100.25634799999989,109.35888699999941,113.84619099999964
228,103.0771479999994,145.2563479999999,95.64111300000059,-275.5129390000002,14.358886999999413,109.35888699999941,106.2822270000006,117.30761700000039,114.10253900000043,66.41015599999992,59.35888699999941,99.61523400000078,115.76904300000024,116.79492200000004
229,108.84619099999964,148.0771479999994,95.76904300000024,-265.64111300000013,24.74365200000011,108.84619099999964,109.74365200000011,117.82031300000017,118.3334960000002,70.76904300000024,61.153809000000365,100.89746099999957,123.0771479999994,118.46142599999985
230,113.58984400000008,150.76904300000024,94.48730499999965,-254.61547900000005,33.846190999999635,108.3334960000002,113.46142599999985,118.0771479999994,123.7177729999994,76.2822270000006,57.94873000000007,102.94873000000007,128.20507799999996,118.58984400000008
231,116.2822270000006,155.51269500000035,92.43603499999972,-248.076904,41.410155999999915,107.43603499999972,116.41015599999992,119.23095699999976,128.9741210000002,81.9228520000006,53.333496000000196,105.0,130.76904300000024,118.20507799999996
232,116.9228520000006,162.17968800000017,90.25634799999989,-248.71801800000003,46.2822270000006,106.0258789999998,118.46142599999985,121.41015599999992,132.6923829999996,85.25634799999989,51.53857400000015,106.53857400000015,131.41015599999992,118.46142599999985
233,116.53857400000015,167.43603499999972,88.20507799999996,-254.4870609999998,45.897460999999566,104.61523400000078,119.48730499999965,123.58984400000008,133.46142599999985,83.58984400000008,53.20507799999996,107.30761700000039,130.6411130000006,118.9741210000002
234,114.87158199999976,167.05126999999993,86.0258789999998,-260.5129390000002,38.589844000000085,104.10253900000043,118.9741210000002,123.58984400000008,130.6411130000006,77.17968800000017,55.897460999999566,107.05126999999993,127.94873000000007,118.46142599999985
235,111.41015599999992,160.38476599999922,83.58984400000008,-261.66674799999964,27.82031300000017,103.9741210000002,116.15380900000036,120.25634799999989,125.38476599999922,69.87158199999976,57.56396500000028,105.25634799999989,123.46142599999985,116.9228520000006
236,105.76904300000024,150.76904300000024,81.41015599999992,-256.66674799999964,19.48730499999965,103.46142599999985,111.6665039999998,114.48730499999965,120.0,67.17968800000017,57.43603499999972,102.05126999999993,118.84619099999964,115.51269500000035
237,100.38476599999922,143.0771479999994,80.64111300000059,-248.97436500000003,17.82031300000017,101.9228520000006,107.82031300000017,109.61523400000078,116.53857400000015,71.0258789999998,56.153809000000365,99.48730499999965,116.15380900000036,115.51269500000035
238,98.3334960000002,141.2822270000006,82.17968800000017,-243.71801800000003,22.43603499999972,100.0,106.79492200000004,108.46142599999985,115.64111300000059,78.7177729999994,55.0,99.74365200000011,117.05126999999993,116.6665039999998
239,101.53857400000015,146.2822270000006,86.15380900000036,-242.3076170000004,29.871581999999762,99.74365200000011,108.9741210000002,111.2822270000006,116.9228520000006,84.74365200000011,55.0,103.58984400000008,121.41015599999992,117.94873000000007
240,108.3334960000002,155.89746099999957,91.2822270000006,-241.923096,35.76904300000024,102.17968800000017,113.0771479999994,116.0258789999998,118.9741210000002,85.38476599999922,55.76904300000024,108.84619099999964,126.6665039999998,118.20507799999996
241,113.84619099999964,165.38476599999922,95.0,-239.10253899999998,37.43603499999972,106.53857400000015,115.89746099999957,119.74365200000011,119.87158199999976,80.64111300000059,56.025878999999804,111.9228520000006,129.48730499999965,117.30761700000039
242,114.10253900000043,170.38476599999922,95.64111300000059,-232.43579099999943,35.76904300000024,109.87158199999976,114.87158199999976,120.64111300000059,118.7177729999994,73.9741210000002,54.23095699999976,111.0258789999998,128.3334960000002,115.89746099999957
243,109.87158199999976,170.12841800000024,93.20507799999996,-224.23071300000038,33.974121000000196,109.74365200000011,110.76904300000024,119.23095699999976,116.79492200000004,70.12841800000024,51.666503999999804,107.56396500000028,124.87158199999976,115.12841800000024
244,105.51269500000035,167.17968800000017,89.87158199999976,-216.66674799999964,35.38476599999922,106.79492200000004,106.79492200000004,117.43603499999972,116.2822270000006,72.05126999999993,51.666503999999804,105.38476599999922,122.82031300000017,115.38476599999922
245,105.38476599999922,165.12841800000024,88.46142599999985,-210.89746100000002,39.23095699999976,103.58984400000008,106.41015599999992,116.79492200000004,118.7177729999994,77.94873000000007,56.153809000000365,107.05126999999993,124.87158199999976,116.0258789999998
246,109.48730499999965,164.48730499999965,89.74365200000011,-206.15380900000036,41.410155999999915,101.79492200000004,109.48730499999965,117.56396500000028,122.94873000000007,83.84619099999964,62.94873000000007,111.53857400000015,129.3588869999994,116.53857400000015
247,114.74365200000011,164.10253900000043,93.46142599999985,-201.15380900000036,38.7177729999994,101.9228520000006,113.84619099999964,119.10253900000043,126.9228520000006,85.89746099999957,68.3334960000002,115.89746099999957,132.6923829999996,117.56396500000028
248,118.46142599999985,163.9741210000002,98.58984400000008,-194.61547900000005,33.589844000000085,103.3334960000002,117.82031300000017,122.43603499999972,129.3588869999994,84.61523400000078,70.76904300000024,118.0771479999994,133.46142599999985,120.0
249,120.64111300000059,166.15380900000036,103.7177729999994,-186.923096,31.666503999999804,104.87158199999976,120.51269500000035,127.94873000000007,131.2822270000006,82.82031300000017,71.2822270000006,118.7177729999994,133.3334960000002,123.7177729999994
250,121.79492200000004,171.15380900000036,107.56396500000028,-180.2563479999999,35.897460999999566,105.51269500000035,121.2822270000006,134.23095699999976,133.7177729999994,83.20507799999996,71.79492200000004,119.10253900000043,134.48730499999965,127.30761700000039
251,121.41015599999992,175.2563479999999,107.69238299999961,-176.28198199999997,43.333496000000196,104.87158199999976,119.23095699999976,137.82031300000017,135.51269500000035,85.38476599999922,72.17968800000017,119.74365200000011,135.89746099999957,127.94873000000007
252,117.94873000000007,173.0771479999994,102.94873000000007,-174.61547900000005,47.17968800000017,103.46142599999985,114.48730499999965,135.2563479999999,134.23095699999976,86.15380900000036,70.76904300000024,119.23095699999976,133.84619099999964,124.61523400000078
253,111.15380900000036,163.0771479999994,94.87158199999976,-172.9487299999996,42.82031300000017,101.9228520000006,108.20507799999996,126.53857400000015,128.20507799999996,82.56396500000028,66.2822270000006,115.76904300000024,125.76904300000024,118.20507799999996
254,103.20507799999996,150.6411130000006,87.30761700000039,-168.71801800000003,33.0771479999994,101.41015599999992,103.58984400000008,116.2822270000006,119.35888699999941,75.0,59.61523400000078,110.0,113.58984400000008,112.05126999999993
255,97.82031300000017,144.10253900000043,83.9741210000002,-161.66674799999964,25.769043000000238,102.56396500000028,103.46142599999985,110.76904300000024,112.56396500000028,67.56396500000028,53.846190999999635,104.35888699999941,103.84619099999964,109.61523400000078
256,97.94873000000007,147.56396500000028,85.51269500000035,-154.35888699999987,27.30761700000039,104.87158199999976,107.43603499999972,112.56396500000028,111.79492200000004,64.74365200000011,51.410155999999915,102.05126999999993,102.43603499999972,111.41015599999992
257,101.9228520000006,157.3076170000004,89.10253900000043,-149.7436520000001,35.76904300000024,106.6665039999998,111.53857400000015,118.20507799999996,116.15380900000036,67.69238299999961,51.79492200000004,103.7177729999994,108.9741210000002,114.87158199999976
258,105.25634799999989,164.87158199999976,90.25634799999989,-149.10253899999998,43.46142599999985,106.41015599999992,111.2822270000006,121.15380900000036,120.51269500000035,72.43603499999972,52.30761700000039,106.53857400000015,116.9228520000006,116.2822270000006
259,103.9741210000002,164.10253900000043,86.79492200000004,-150.1281740000004,44.23095699999976,104.10253900000043,105.38476599999922,117.30761700000039,120.12841800000024,73.3334960000002,51.79492200000004,107.05126999999993,119.48730499999965,114.61523400000078
260,99.74365200000011,156.0258789999998,81.6665039999998,-148.076904,39.102539000000434,101.9228520000006,98.0771479999994,109.10253900000043,114.87158199999976,69.35888699999941,52.05126999999993,104.87158199999976,116.41015599999992,112.05126999999993
261,98.20507799999996,148.58984400000008,80.38476599999922,-138.46142599999985,34.87158199999976,102.43603499999972,95.89746099999957,103.58984400000008,110.25634799999989,64.48730499999965,56.2822270000006,103.46142599999985,113.7177729999994,112.05126999999993
262,103.3334960000002,149.3588869999994,86.2822270000006,-121.02563499999997,38.0771479999994,106.15380900000036,101.2822270000006,105.89746099999957,111.6665039999998,64.35888699999941,65.76904300000024,106.6665039999998,116.6665039999998,115.76904300000024
263,112.94873000000007,158.58984400000008,96.2822270000006,-100.64111300000013,48.20507799999996,111.2822270000006,110.76904300000024,114.48730499999965,118.9741210000002,70.64111300000059,77.05126999999993,113.84619099999964,124.87158199999976,121.0258789999998
264,120.12841800000024,169.23095699999976,103.3334960000002,-84.74365200000011,58.846190999999635,114.61523400000078,118.0771479999994,122.56396500000028,126.41015599999992,80.0,84.61523400000078,119.87158199999976,131.6665039999998,124.23095699999976
265,119.48730499999965,172.6923829999996,102.56396500000028,-78.33325200000036,62.56396500000028,114.35888699999941,119.48730499999965,124.23095699999976,128.20507799999996,86.6665039999998,84.10253900000043,119.35888699999941,131.0258789999998,123.20507799999996
266,111.53857400000015,166.41015599999992,95.0,-79.48706099999981,57.82031300000017,111.53857400000015,116.41015599999992,119.10253900000043,124.10253900000043,88.0771479999994,76.9228520000006,112.30761700000039,123.7177729999994,119.35888699999941
267,101.79492200000004,155.2563479999999,86.41015599999992,-81.41015600000037,49.87158199999976,109.74365200000011,113.20507799999996,112.30761700000039,118.84619099999964,85.64111300000059,68.3334960000002,104.10253900000043,116.2822270000006,115.51269500000035
268,96.79492200000004,146.41015599999992,82.43603499999972,-77.94872999999961,45.76904300000024,111.15380900000036,112.17968800000017,109.35888699999941,117.69238299999961,83.0771479999994,64.35888699999941,100.38476599999922,115.12841800000024,113.84619099999964
269,98.20507799999996,144.61523400000078,83.84619099999964,-67.94872999999961,48.333496000000196,114.61523400000078,112.56396500000028,112.30761700000039,121.53857400000015,83.3334960000002,67.05126999999993,102.69238299999961,120.38476599999922,114.35888699999941
270,102.82031300000017,148.9741210000002,87.30761700000039,-55.51293900000019,53.974121000000196,116.53857400000015,111.41015599999992,117.94873000000007,127.17968800000017,85.51269500000035,73.3334960000002,107.56396500000028,126.2822270000006,115.76904300000024
271,105.51269500000035,155.0,88.9741210000002,-46.025634999999966,57.17968800000017,115.0,107.82031300000017,121.41015599999992,129.3588869999994,87.05126999999993,77.43603499999972,110.38476599999922,127.17968800000017,117.05126999999993
272,103.58984400000008,159.23095699999976,87.05126999999993,-41.92309599999999,55.38476599999922,111.41015599999992,103.7177729999994,120.0,126.0258789999998,85.25634799999989,75.38476599999922,109.10253900000043,122.56396500000028,117.43603499999972
273,98.84619099999964,160.89746099999957,83.7177729999994,-39.74365200000011,51.53857400000015,108.58984400000008,101.79492200000004,115.76904300000024,120.12841800000024,81.53857400000015,68.9741210000002,105.76904300000024,117.30761700000039,117.05126999999993
274,95.76904300000024,161.15380900000036,82.69238299999961,-34.10253899999998,50.51269500000035,108.20507799999996,103.84619099999964,113.7177729999994,116.9228520000006,79.61523400000078,63.846190999999635,104.61523400000078,116.79492200000004,116.41015599999992
275,97.30761700000039,161.2822270000006,86.2822270000006,-21.794922000000042,55.51269500000035,109.87158199999976,108.9741210000002,117.56396500000028,119.61523400000078,82.82031300000017,65.38476599999922,107.94873000000007,121.9228520000006,116.41015599999992
276,103.20507799999996,161.53857400000015,93.58984400000008,-5.641113000000132,63.46142599999985,111.53857400000015,114.74365200000011,125.25634799999989,126.41015599999992,90.51269500000035,73.7177729999994,114.23095699999976,129.10253900000043,117.43603499999972
277,110.25634799999989,161.53857400000015,100.76904300000024,6.794922000000042,68.84619099999964,112.05126999999993,118.3334960000002,131.9228520000006,132.43603499999972,98.3334960000002,84.74365200000011,119.23095699999976,133.58984400000008,118.9741210000002
278,115.51269500000035,161.53857400000015,104.35888699999941,10.512695000000349,68.58984400000008,111.53857400000015,118.3334960000002,134.10253900000043,134.10253900000043,101.0258789999998,92.69238299999961,120.12841800000024,134.10253900000043,120.64111300000059
279,118.0771479999994,162.43603499999972,103.3334960000002,7.307617000000391,64.61523400000078,111.0258789999998,116.0258789999998,131.9228520000006,132.56396500000028,97.43603499999972,94.87158199999976,117.69238299999961,133.58984400000008,121.9228520000006
280,118.9741210000002,163.58984400000008,99.48730499999965,5.0,60.38476599999922,110.89746099999957,113.3334960000002,128.3334960000002,131.2822270000006,90.64111300000059,91.79492200000004,115.12841800000024,135.0,122.56396500000028
281,118.3334960000002,163.7177729999994,94.61523400000078,9.487304999999651,57.30761700000039,110.0,111.15380900000036,125.64111300000059,131.9228520000006,85.51269500000035,85.76904300000024,114.48730499999965,137.43603499999972,121.79492200000004
282,115.0,160.51269500000035,89.87158199999976,20.51269500000035,54.102539000000434,108.0771479999994,108.84619099999964,123.84619099999964,132.3076170000004,84.35888699999941,79.10253900000043,114.61523400000078,136.53857400000015,119.35888699999941
283,108.58984400000008,154.10253900000043,85.38476599999922,32.17968800000017,49.61523400000078,106.15380900000036,105.51269500000035,122.05126999999993,129.7436520000001,85.64111300000059,73.9741210000002,113.20507799999996,129.7436520000001,116.2822270000006
284,100.76904300000024,147.43603499999972,82.56396500000028,39.35888699999941,45.76904300000024,106.15380900000036,101.79492200000004,119.35888699999941,124.35888699999941,86.6665039999998,71.15380900000036,109.48730499999965,119.61523400000078,114.35888699999941
285,95.25634799999989,144.7436520000001,82.43603499999972,41.9228520000006,45.25634799999989,108.7177729999994,99.61523400000078,116.9228520000006,119.48730499999965,86.0258789999998,69.74365200000011,105.12841800000024,112.17968800000017,114.74365200000011
286,95.0,147.94873000000007,85.12841800000024,42.82031300000017,49.87158199999976,112.43603499999972,100.12841800000024,115.25634799999989,118.7177729999994,83.9741210000002,68.20507799999996,103.3334960000002,111.2822270000006,116.2822270000006
287,100.12841800000024,155.0,88.84619099999964,45.0,58.589844000000085,115.25634799999989,103.0771479999994,114.87158199999976,121.9228520000006,81.79492200000004,66.6665039999998,105.38476599999922,114.87158199999976,117.17968800000017
288,107.94873000000007,162.05126999999993,92.17968800000017,49.87158199999976,67.69238299999961,116.2822270000006,106.79492200000004,115.38476599999922,126.15380900000036,80.64111300000059,66.6665039999998,110.25634799999989,118.20507799999996,116.53857400000015
289,115.12841800000024,165.76904300000024,94.48730499999965,57.05126999999993,72.94873000000007,115.51269500000035,110.0,116.79492200000004,128.46142599999985,81.15380900000036,69.87158199999976,115.12841800000024,118.9741210000002,115.64111300000059
290,119.10253900000043,165.76904300000024,96.41015599999992,65.76904300000024,72.17968800000017,114.23095699999976,112.69238299999961,119.23095699999976,128.3334960000002,83.7177729999994,76.0258789999998,117.94873000000007,118.3334960000002,116.0258789999998
291,119.61523400000078,163.84619099999964,97.94873000000007,75.64111300000059,67.56396500000028,113.3334960000002,115.25634799999989,122.30761700000039,127.82031300000017,87.94873000000007,82.05126999999993,118.0771479999994,118.84619099999964,118.46142599999985
292,118.20507799999996,162.43603499999972,99.48730499999965,86.0258789999998,64.23095699999976,112.82031300000017,117.82031300000017,125.51269500000035,129.10253900000043,93.0771479999994,85.76904300000024,116.41015599999992,121.79492200000004,121.9228520000006
293,117.05126999999993,163.20507799999996,101.2822270000006,95.76904300000024,66.79492200000004,111.53857400000015,120.0,127.94873000000007,132.56396500000028,97.69238299999961,86.53857400000015,114.61523400000078,126.41015599999992,124.10253900000043
294,117.43603499999972,165.0,102.17968800000017,102.43603499999972,74.10253900000043,108.9741210000002,120.89746099999957,128.46142599999985,135.2563479999999,100.25634799999989,85.12841800000024,114.35888699999941,130.38476599999922,123.3334960000002
295,118.3334960000002,166.0258789999998,100.64111300000059,104.23095699999976,80.0,106.2822270000006,120.25634799999989,125.76904300000024,133.58984400000008,99.74365200000011,82.69238299999961,115.0,131.53857400000015,119.87158199999976
296,117.43603499999972,164.10253900000043,96.53857400000015,101.0258789999998,78.0771479999994,104.61523400000078,118.20507799999996,120.25634799999989,126.41015599999992,96.2822270000006,80.64111300000059,115.51269500000035,129.10253900000043,115.64111300000059
297,113.84619099999964,158.7177729999994,91.41015599999992,96.15380900000036,67.56396500000028,104.35888699999941,115.51269500000035,114.35888699999941,117.05126999999993,91.2822270000006,81.53857400000015,114.74365200000011,124.87158199999976,112.94873000000007
298,108.84619099999964,151.79492200000004,88.20507799999996,94.10253900000043,54.35888699999941,104.23095699999976,113.0771479999994,111.53857400000015,111.15380900000036,86.2822270000006,85.64111300000059,113.20507799999996,121.53857400000015,113.0771479999994
299,104.87158199999976,145.2563479999999,88.20507799999996,98.0771479999994,46.410155999999915,103.3334960000002,110.76904300000024,112.43603499999972,111.41015599999992,82.43603499999972,89.35888699999941,111.79492200000004,120.0,115.25634799999989
300,103.46142599999985,140.12841800000024,90.89746099999957,107.30761700000039,47.82031300000017,102.05126999999993,108.0771479999994,114.87158199999976,115.64111300000059,80.12841800000024,88.3334960000002,110.76904300000024,119.61523400000078,117.17968800000017
301,104.35888699999941,136.6665039999998,93.46142599999985,117.94873000000007,57.05126999999993,101.53857400000015,105.0,116.15380900000036,118.9741210000002,79.87158199999976,81.2822270000006,109.48730499999965,118.9741210000002,117.30761700000039
302,105.76904300000024,136.15380900000036,93.46142599999985,126.0258789999998,68.58984400000008,102.43603499999972,102.56396500000028,115.25634799999989,118.7177729999994,81.6665039999998,72.69238299999961,108.20507799999996,117.82031300000017,116.0258789999998
303,105.64111300000059,139.7436520000001,90.25634799999989,129.87158199999976,76.15380900000036,103.9741210000002,102.43603499999972,113.46142599999985,116.15380900000036,84.10253900000043,68.0771479999994,107.56396500000028,117.17968800000017,114.87158199999976
304,104.23095699999976,146.41015599999992,86.41015599999992,132.17968800000017,76.2822270000006,104.87158199999976,105.0,113.0771479999994,114.87158199999976,85.76904300000024,70.12841800000024,108.20507799999996,117.43603499999972,114.87158199999976
305,103.46142599999985,153.46142599999985,85.25634799999989,137.43603499999972,71.0258789999998,104.61523400000078,109.23095699999976,115.38476599999922,117.43603499999972,86.0258789999998,76.41015599999992,110.12841800000024,118.84619099999964,116.15380900000036
306,106.79492200000004,158.9741210000002,89.35888699999941,148.46142599999985,65.76904300000024,103.9741210000002,113.0771479999994,119.87158199999976,123.84619099999964,86.0258789999998,82.82031300000017,112.82031300000017,121.6665039999998,117.82031300000017
307,115.64111300000059,162.17968800000017,97.94873000000007,164.23095699999976,65.76904300000024,104.10253900000043,115.38476599999922,125.12841800000024,131.9228520000006,88.0771479999994,86.41015599999992,115.76904300000024,126.53857400000015,119.35888699999941
308,127.69238299999961,163.84619099999964,107.17968800000017,180.51269500000035,72.17968800000017,105.76904300000024,117.05126999999993,129.3588869999994,137.56396500000028,92.94873000000007,87.69238299999961,118.3334960000002,133.3334960000002,120.64111300000059
309,137.56396500000028,164.10253900000043,112.94873000000007,192.94873000000007,81.2822270000006,108.84619099999964,118.7177729999994,130.89746099999957,138.0771479999994,99.10253900000043,87.94873000000007,119.61523400000078,139.3588869999994,121.15380900000036
310,140.0,162.05126999999993,112.82031300000017,199.61523400000078,86.9228520000006,112.30761700000039,119.48730499999965,129.23095699999976,132.94873000000007,102.69238299999961,87.94873000000007,118.7177729999994,139.87158199999976,120.12841800000024
311,133.9741210000002,158.20507799999996,107.17968800000017,201.6665039999998,85.51269500000035,115.0,117.94873000000007,125.0,125.12841800000024,100.76904300000024,87.43603499999972,116.0258789999998,132.05126999999993,117.30761700000039
312,123.7177729999994,154.3588869999994,100.25634799999989,202.43603499999972,77.94873000000007,115.89746099999957,114.10253900000043,120.25634799999989,118.7177729999994,94.23095699999976,85.89746099999957,112.94873000000007,119.23095699999976,114.23095699999976
313,116.15380900000036,151.9228520000006,96.6665039999998,204.48730499999965,68.7177729999994,114.48730499999965,110.12841800000024,117.05126999999993,116.6665039999998,86.79492200000004,83.7177729999994,111.2822270000006,109.23095699999976,112.82031300000017
314,116.53857400000015,150.89746099999957,98.3334960000002,208.46142599999985,63.846190999999635,111.15380900000036,108.9741210000002,116.2822270000006,118.9741210000002,83.3334960000002,81.79492200000004,111.53857400000015,108.3334960000002,114.10253900000043
315,124.10253900000043,150.2563479999999,103.3334960000002,213.0771479999994,66.2822270000006,106.9228520000006,111.41015599999992,116.9228520000006,122.94873000000007,85.12841800000024,82.30761700000039,113.20507799999996,116.79492200000004,117.30761700000039
316,133.3334960000002,149.61523400000078,107.43603499999972,216.41015599999992,74.74365200000011,103.7177729999994,114.74365200000011,117.82031300000017,125.12841800000024,89.87158199999976,85.76904300000024,115.12841800000024,129.3588869999994,120.25634799999989
317,137.6923829999996,149.23095699999976,106.79492200000004,217.94873000000007,84.35888699999941,102.56396500000028,115.12841800000024,117.05126999999993,123.7177729999994,93.3334960000002,90.0,116.15380900000036,138.0771479999994,121.0258789999998
318,134.61523400000078,150.0,101.0258789999998,219.48730499999965,90.25634799999989,103.46142599999985,110.25634799999989,113.7177729999994,118.9741210000002,92.69238299999961,90.64111300000059,116.0258789999998,137.82031300000017,119.10253900000043
319,126.2822270000006,152.56396500000028,93.46142599999985,223.9741210000002,90.89746099999957,105.25634799999989,102.82031300000017,107.94873000000007,113.7177729999994,88.7177729999994,86.0258789999998,114.61523400000078,128.9741210000002,116.15380900000036
320,118.20507799999996,156.53857400000015,88.84619099999964,232.56396500000028,88.0771479999994,106.15380900000036,98.3334960000002,102.69238299999961,111.41015599999992,85.25634799999989,78.9741210000002,112.69238299999961,117.56396500000028,114.48730499999965
321,114.74365200000011,160.0,89.35888699999941,243.0771479999994,84.10253900000043,105.12841800000024,100.12841800000024,100.64111300000059,113.3334960000002,85.38476599999922,75.0,111.6665039999998,111.0258789999998,115.0
322,115.64111300000059,160.0,93.58984400000008,250.51269500000035,79.48730499999965,102.94873000000007,106.9228520000006,102.69238299999961,117.94873000000007,88.7177729999994,76.15380900000036,111.9228520000006,113.3334960000002,116.9228520000006
323,117.56396500000028,154.61523400000078,97.17968800000017,251.53857400000015,73.3334960000002,101.53857400000015,112.94873000000007,106.79492200000004,120.89746099999957,91.41015599999992,79.87158199999976,112.56396500000028,121.15380900000036,117.94873000000007
324,117.17968800000017,144.7436520000001,96.9228520000006,247.17968800000017,67.30761700000039,102.05126999999993,113.46142599999985,110.38476599999922,119.35888699999941,90.0,82.82031300000017,112.69238299999961,127.43603499999972,117.05126999999993
325,114.74365200000011,135.2563479999999,93.7177729999994,242.56396500000028,65.89746099999957,104.35888699999941,108.3334960000002,112.82031300000017,115.0,85.25634799999989,84.10253900000043,112.17968800000017,127.17968800000017,114.87158199999976
326,113.0771479999994,132.43603499999972,91.6665039999998,242.05126999999993,73.0771479999994,107.43603499999972,103.20507799999996,115.25634799999989,112.82031300000017,81.79492200000004,85.89746099999957,112.56396500000028,121.9228520000006,113.9741210000002
327,115.25634799999989,139.23095699999976,93.84619099999964,246.41015599999992,87.43603499999972,109.87158199999976,103.84619099999964,118.84619099999964,116.79492200000004,83.7177729999994,89.48730499999965,114.87158199999976,117.69238299999961,116.0258789999998
328,120.89746099999957,151.9228520000006,99.48730499999965,253.46142599999985,101.0258789999998,110.38476599999922,111.0258789999998,123.58984400000008,126.0258789999998,91.41015599999992,92.94873000000007,117.56396500000028,118.20507799999996,119.74365200000011
329,126.41015599999992,161.9228520000006,104.23095699999976,259.6152340000008,105.0,108.7177729999994,119.23095699999976,126.6665039999998,134.7436520000001,99.87158199999976,92.56396500000028,117.69238299999961,121.15380900000036,121.53857400000015
330,126.6665039999998,162.17968800000017,103.3334960000002,261.9228520000006,95.51269500000035,105.76904300000024,121.15380900000036,125.12841800000024,136.53857400000015,103.0771479999994,85.76904300000024,113.7177729999994,121.0258789999998,118.9741210000002
331,120.38476599999922,152.43603499999972,95.89746099999957,260.3847659999992,78.58984400000008,103.46142599999985,115.0,118.7177729999994,129.3588869999994,98.84619099999964,74.35888699999941,106.79492200000004,115.12841800000024,112.69238299999961
332,111.6665039999998,139.61523400000078,86.53857400000015,258.3334960000002,66.6665039999998,103.46142599999985,105.89746099999957,111.15380900000036,118.3334960000002,90.76904300000024,64.74365200000011,101.15380900000036,106.6665039999998,106.2822270000006
333,107.30761700000039,132.82031300000017,81.79492200000004,259.87158199999976,69.48730499999965,105.76904300000024,100.51269500000035,107.69238299999961,112.05126999999993,86.15380900000036,63.333496000000196,100.12841800000024,102.17968800000017,103.9741210000002
334,111.53857400000015,136.41015599999992,85.38476599999922,266.0258789999998,85.76904300000024,108.58984400000008,102.43603499999972,110.89746099999957,115.64111300000059,89.87158199999976,71.6665039999998,104.61523400000078,105.76904300000024,107.17968800000017
335,121.53857400000015,147.05126999999993,94.61523400000078,273.84619099999964,103.7177729999994,109.61523400000078,109.23095699999976,117.82031300000017,126.6665039999998,100.0,84.48730499999965,111.6665039999998,115.51269500000035,113.7177729999994
336,129.87158199999976,156.6665039999998,103.0771479999994,279.6152340000008,110.12841800000024,108.0771479999994,115.12841800000024,123.0771479999994,136.15380900000036,108.9741210000002,93.58984400000008,116.53857400000015,125.25634799999989,119.23095699999976
337,130.76904300000024,158.20507799999996,105.51269500000035,283.5898440000001,101.41015599999992,104.61523400000078,115.76904300000024,122.43603499999972,136.41015599999992,109.61523400000078,93.84619099999964,116.53857400000015,128.7177729999994,120.64111300000059
338,124.48730499999965,151.79492200000004,103.0771479999994,289.6152340000008,85.64111300000059,101.79492200000004,112.05126999999993,117.05126999999993,127.43603499999972,101.0258789999998,87.05126999999993,112.94873000000007,123.9741210000002,118.20507799999996
339,116.9228520000006,144.3588869999994,100.25634799999989,300.0,75.38476599999922,102.17968800000017,108.84619099999964,112.05126999999993,116.79492200000004,89.10253900000043,79.87158199999976,110.25634799999989,115.0,115.0
340,113.9741210000002,142.43603499999972,100.76904300000024,312.6923829999996,77.17968800000017,105.89746099999957,109.61523400000078,111.53857400000015,112.82031300000017,81.6665039999998,77.69238299999961,111.41015599999992,108.20507799999996,113.7177729999994
341,116.41015599999992,146.2822270000006,103.7177729999994,322.94873000000007,87.05126999999993,110.76904300000024,113.3334960000002,115.38476599999922,117.30761700000039,81.9228520000006,79.74365200000011,114.74365200000011,106.2822270000006,114.74365200000011
342,119.61523400000078,149.23095699999976,105.64111300000059,328.3334960000002,95.25634799999989,113.58984400000008,116.0258789999998,119.23095699999976,124.48730499999965,86.41015599999992,80.25634799999989,115.89746099999957,107.17968800000017,116.15380900000036
343,119.10253900000043,145.12841800000024,104.10253900000043,330.76904300000024,95.0,112.69238299999961,114.87158199999976,119.10253900000043,126.6665039999998,88.7177729999994,75.0,112.69238299999961,106.6665039999998,116.2822270000006
344,113.46142599999985,135.38476599999922,99.35888699999941,334.23095699999976,88.9741210000002,109.74365200000011,110.76904300000024,115.38476599999922,121.79492200000004,86.53857400000015,65.76904300000024,106.79492200000004,103.0771479999994,114.74365200000011
345,106.15380900000036,126.9228520000006,94.61523400000078,340.2563479999999,84.48730499999965,108.20507799999996,107.43603499999972,111.79492200000004,114.35888699999941,83.58984400000008,58.20507799999996,102.43603499999972,98.7177729999994,113.0771479999994
346,101.0258789999998,126.2822270000006,92.69238299999961,346.9228520000006,86.15380900000036,110.0,107.94873000000007,111.53857400000015,111.6665039999998,84.87158199999976,57.43603499999972,103.3334960000002,96.6665039999998,112.94873000000007
347,99.74365200000011,133.3334960000002,94.61523400000078,350.51269500000035,91.0258789999998,114.10253900000043,111.9228520000006,114.74365200000011,116.6665039999998,91.0258789999998,64.23095699999976,108.7177729999994,97.94873000000007,114.10253900000043
348,100.38476599999922,141.6665039999998,98.20507799999996,349.7436520000001,91.53857400000015,116.53857400000015,115.89746099999957,118.3334960000002,125.51269500000035,96.6665039999998,74.61523400000078,115.0,99.74365200000011,115.12841800000024
349,100.12841800000024,143.84619099999964,100.0,346.6665039999998,83.7177729999994,114.61523400000078,116.2822270000006,118.7177729999994,130.89746099999957,96.0258789999998,83.0771479999994,117.82031300000017,99.10253900000043,115.25634799999989
350,98.46142599999985,138.9741210000002,98.46142599999985,345.76904300000024,71.6665039999998,109.74365200000011,113.0771479999994,116.15380900000036,129.23095699999976,88.20507799999996,85.64111300000059,115.89746099999957,96.41015599999992,114.74365200000011
351,97.82031300000017,132.6923829999996,96.15380900000036,351.4101559999999,65.76904300000024,105.89746099999957,110.12841800000024,114.74365200000011,124.10253900000043,79.61523400000078,83.46142599999985,112.05126999999993,95.51269500000035,115.12841800000024
352,101.79492200000004,132.05126999999993,97.30761700000039,364.6152340000008,73.84619099999964,106.41015599999992,111.2822270000006,119.74365200000011,123.20507799999996,79.10253900000043,81.2822270000006,110.76904300000024,100.0,117.05126999999993
353,110.25634799999989,139.3588869999994,103.46142599999985,381.0258789999998,93.20507799999996,111.2822270000006,116.79492200000004,131.79492200000004,130.6411130000006,90.76904300000024,83.7177729999994,113.58984400000008,109.35888699999941,119.87158199999976
354,118.84619099999964,150.38476599999922,111.6665039999998,392.3076170000004,112.69238299999961,116.53857400000015,123.3334960000002,145.2563479999999,143.58984400000008,109.87158199999976,90.51269500000035,118.20507799999996,118.84619099999964,122.17968800000017
355,121.6665039999998,157.94873000000007,116.2822270000006,391.2822270000006,120.38476599999922,117.94873000000007,125.89746099999957,152.43603499999972,154.10253900000043,125.76904300000024,96.9228520000006,120.64111300000059,123.46142599999985,122.43603499999972
356,116.53857400000015,156.79492200000004,113.84619099999964,377.17968800000017,111.79492200000004,113.9741210000002,121.79492200000004,148.46142599999985,155.2563479999999,128.9741210000002,97.17968800000017,118.9741210000002,120.76904300000024,120.51269500000035
357,106.6665039999998,146.9228520000006,105.51269500000035,356.4101559999999,93.20507799999996,106.6665039999998,112.69238299999961,135.51269500000035,146.6665039999998,118.3334960000002,89.61523400000078,113.84619099999964,112.43603499999972,117.30761700000039
358,98.20507799999996,134.10253900000043,96.0258789999998,337.4360349999997,77.05126999999993,101.0258789999998,104.48730499999965,121.79492200000004,134.48730499999965,102.17968800000017,77.69238299999961,108.7177729999994,103.0771479999994,114.35888699999941
359,95.25634799999989,125.64111300000059,91.15380900000036,323.84619099999964,72.82031300000017,101.15380900000036,102.30761700000039,115.64111300000059,126.15380900000036,91.6665039999998,67.94873000000007,106.9228520000006,97.82031300000017,112.69238299999961
360,97.69238299999961,126.15380900000036,92.69238299999961,312.05126999999993,80.76904300000024,106.79492200000004,107.17968800000017,119.35888699999941,125.64111300000059,92.30761700000039,65.51269500000035,108.9741210000002,98.3334960000002,112.69238299999961
361,101.15380900000036,133.58984400000008,97.69238299999961,295.0,92.69238299999961,113.7177729999994,114.35888699999941,128.3334960000002,130.76904300000024,101.41015599999992,70.0,112.82031300000017,102.43603499999972,113.58984400000008
362,102.30761700000039,141.15380900000036,101.41015599999992,268.9741210000002,98.9741210000002,116.6665039999998,118.7177729999994,135.38476599999922,136.15380900000036,110.25634799999989,77.82031300000017,115.25634799999989,106.6665039999998,114.10253900000043
363,101.6665039999998,143.9741210000002,102.17968800000017,239.10253900000043,96.79492200000004,114.87158199999976,118.7177729999994,137.05126999999993,138.0771479999994,112.82031300000017,84.48730499999965,115.64111300000059,109.35888699999941,114.35888699999941
364,102.30761700000039,142.17968800000017,101.79492200000004,214.87158199999976,90.25634799999989,111.6665039999998,117.17968800000017,135.38476599999922,137.94873000000007,110.25634799999989,88.7177729999994,114.74365200000011,111.53857400000015,115.25634799999989
365,106.53857400000015,139.61523400000078,102.69238299999961,201.6665039999998,85.51269500000035,110.89746099999957,117.94873000000007,134.7436520000001,138.9741210000002,108.84619099999964,91.53857400000015,114.23095699999976,114.10253900000043,117.17968800000017
366,112.56396500000028,138.9741210000002,104.87158199999976,195.51269500000035,85.12841800000024,112.43603499999972,121.6665039999998,137.3076170000004,142.3076170000004,112.82031300000017,94.48730499999965,114.23095699999976,116.0258789999998,118.7177729999994
367,116.53857400000015,140.76904300000024,105.89746099999957,186.9228520000006,88.7177729999994,113.84619099999964,126.15380900000036,141.41015599999992,145.89746099999957,120.25634799999989,97.56396500000028,114.48730499999965,116.0258789999998,118.7177729999994
368,117.05126999999993,144.3588869999994,104.35888699999941,171.15380900000036,95.38476599999922,112.82031300000017,128.84619099999964,144.87158199999976,147.56396500000028,124.74365200000011,100.12841800000024,115.0,114.87158199999976,117.17968800000017
369,115.89746099999957,149.48730499999965,102.17968800000017,151.0258789999998,104.87158199999976,110.0,129.23095699999976,146.79492200000004,147.6923829999996,122.94873000000007,101.15380900000036,116.2822270000006,115.64111300000059,116.0258789999998
370,116.15380900000036,155.6411130000006,102.05126999999993,133.7177729999994,115.12841800000024,107.30761700000039,128.58984400000008,148.20507799999996,148.3334960000002,116.6665039999998,100.0,118.20507799999996,120.25634799999989,116.53857400000015
371,118.0771479999994,160.0,104.35888699999941,122.30761700000039,120.76904300000024,106.79492200000004,128.0771479999994,149.10253900000043,150.12841800000024,110.51269500000035,94.87158199999976,118.84619099999964,126.53857400000015,118.0771479999994
372,118.9741210000002,159.7436520000001,105.76904300000024,113.0771479999994,117.17968800000017,108.46142599999985,127.17968800000017,148.0771479999994,150.76904300000024,107.56396500000028,84.87158199999976,116.0258789999998,129.48730499999965,118.58984400000008
373,115.38476599999922,154.7436520000001,103.20507799999996,99.35888699999941,105.51269500000035,111.0258789999998,124.74365200000011,143.7177729999994,147.43603499999972,107.69238299999961,71.9228520000006,110.12841800000024,125.76904300000024,116.79492200000004
374,107.56396500000028,148.46142599999985,97.56396500000028,78.3334960000002,93.58984400000008,112.30761700000039,121.15380900000036,137.3076170000004,140.38476599999922,109.48730499999965,62.17968800000017,103.9741210000002,117.69238299999961,113.46142599999985
375,99.23095699999976,144.87158199999976,92.43603499999972,54.61523400000078,88.46142599999985,110.38476599999922,117.30761700000039,131.79492200000004,132.94873000000007,110.51269500000035,61.9228520000006,101.79492200000004,111.53857400000015,110.64111300000059
376,94.87158199999976,144.23095699999976,91.6665039999998,36.666503999999804,91.15380900000036,105.64111300000059,114.35888699999941,129.23095699999976,128.58984400000008,108.84619099999964,71.41015599999992,104.87158199999976,111.2822270000006,109.48730499999965
377,96.0258789999998,143.84619099999964,95.51269500000035,29.102539000000434,96.53857400000015,100.51269500000035,112.56396500000028,129.48730499999965,128.46142599999985,104.74365200000011,83.58984400000008,110.64111300000059,115.76904300000024,109.87158199999976
378,102.05126999999993,142.43603499999972,101.41015599999992,29.102539000000434,100.38476599999922,98.3334960000002,111.2822270000006,130.6411130000006,131.15380900000036,101.41015599999992,90.64111300000059,115.0,121.53857400000015,111.53857400000015
379,110.38476599999922,141.9228520000006,106.6665039999998,28.077147999999397,101.6665039999998,100.76904300000024,110.0,131.0258789999998,134.48730499999965,101.79492200000004,90.0,115.51269500000035,126.53857400000015,113.9741210000002
380,119.10253900000043,144.48730499999965,110.38476599999922,20.0,101.9228520000006,106.15380900000036,107.94873000000007,130.38476599999922,136.2822270000006,106.15380900000036,86.0258789999998,113.0771479999994,132.43603499999972,117.43603499999972
381,127.43603499999972,150.38476599999922,112.82031300000017,6.666503999999804,101.9228520000006,110.76904300000024,105.12841800000024,129.7436520000001,135.2563479999999,110.64111300000059,85.76904300000024,111.15380900000036,142.05126999999993,122.56396500000028
382,136.0258789999998,158.0771479999994,116.15380900000036,-3.5898440000000846,102.17968800000017,111.9228520000006,102.82031300000017,130.12841800000024,132.56396500000028,112.56396500000028,92.56396500000028,112.56396500000028,157.6923829999996,129.48730499999965
383,145.89746099999957,167.56396500000028,121.6665039999998,-4.358886999999868,103.0771479999994,109.61523400000078,102.69238299999961,132.56396500000028,130.89746099999957,112.17968800000017,105.25634799999989,117.56396500000028,178.84619099999964,137.56396500000028
