,EEG.AF3,EEG.F7,EEG.F3,EEG.FC5,EEG.T7,EEG.P7,EEG.O1,EEG.O2,EEG.P8,EEG.T8,EEG.FC6,EEG.F4,EEG.F8,EEG.AF4
0,117.05126999999993,30.0,118.9741210000002,77.82031300000017,120.64111300000059,116.79492200000004,123.7177729999994,117.43603499999972,119.74365200000011,141.53857400000015,170.12841800000024,120.89746099999957,244.10253900000043,115.12841800000024
1,118.9741210000002,31.538574000000153,119.23095699999976,74.87158199999976,123.46142599999985,116.41015599999992,123.3334960000002,116.6665039999998,121.53857400000015,141.79492200000004,171.0258789999998,122.56396500000028,238.9741210000002,115.51269500000035
2,113.0771479999994,26.794922000000042,112.43603499999972,65.51269500000035,116.53857400000015,115.38476599999922,114.48730499999965,108.7177729999994,112.82031300000017,129.7436520000001,163.7177729999994,119.87158199999976,227.6923829999996,116.6665039999998
3,103.3334960000002,20.897460999999566,103.3334960000002,56.2822270000006,104.23095699999976,114.10253900000043,102.43603499999972,97.30761700000039,98.84619099999964,113.20507799999996,153.46142599999985,115.38476599999922,217.3076170000004,117.69238299999961
4,97.30761700000039,20.897460999999566,98.58984400000008,54.102539000000434,95.0,113.20507799999996,96.0258789999998,89.61523400000078,89.61523400000078,103.9741210000002,148.3334960000002,112.82031300000017,215.2563479999999,117.56396500000028
5,99.74365200000011,28.846190999999635,101.6665039999998,59.74365200000011,94.61523400000078,113.20507799999996,100.89746099999957,90.51269500000035,91.41015599999992,108.7177729999994,152.6923829999996,114.35888699999941,222.43603499999972,116.41015599999992
6,108.58984400000008,39.102539000000434,109.35888699999941,67.56396500000028,100.89746099999957,114.23095699999976,113.7177729999994,98.9741210000002,101.9228520000006,123.58984400000008,162.6923829999996,117.82031300000017,231.6665039999998,115.64111300000059
7,116.0258789999998,42.82031300000017,115.12841800000024,70.25634799999989,106.15380900000036,115.64111300000059,125.51269500000035,109.35888699999941,112.56396500000028,137.43603499999972,169.61523400000078,119.87158199999976,233.0771479999994,115.64111300000059
8,116.53857400000015,36.025878999999804,115.12841800000024,66.15380900000036,105.25634799999989,116.15380900000036,128.58984400000008,116.2822270000006,116.9228520000006,141.6665039999998,167.82031300000017,118.84619099999964,223.58984400000008,115.89746099999957
9,111.79492200000004,24.74365200000011,111.2822270000006,60.0,100.51269500000035,115.25634799999989,123.46142599999985,119.10253900000043,115.76904300000024,136.6665039999998,160.2563479999999,116.6665039999998,209.61523400000078,115.51269500000035
10,108.46142599999985,19.358886999999413,109.23095699999976,57.56396500000028,98.9741210000002,113.9741210000002,116.79492200000004,120.76904300000024,115.76904300000024,130.2563479999999,155.0,116.6665039999998,200.89746099999957,114.74365200000011
11,111.15380900000036,26.282227000000603,111.53857400000015,60.897460999999566,104.35888699999941,113.9741210000002,115.25634799999989,125.0,122.17968800000017,130.38476599999922,157.17968800000017,119.87158199999976,201.6665039999998,114.10253900000043
12,117.69238299999961,42.30761700000039,116.6665039999998,66.53857400000015,113.20507799999996,115.25634799999989,119.74365200000011,131.79492200000004,134.7436520000001,138.58984400000008,164.23095699999976,123.84619099999964,207.3076170000004,113.9741210000002
13,120.76904300000024,57.56396500000028,119.23095699999976,68.58984400000008,116.9228520000006,115.76904300000024,125.64111300000059,137.6923829999996,146.41015599999992,148.58984400000008,168.84619099999964,124.87158199999976,208.9741210000002,113.9741210000002
14,115.12841800000024,62.94873000000007,115.76904300000024,63.974121000000196,110.38476599999922,114.10253900000043,126.79492200000004,138.3334960000002,149.10253900000043,151.53857400000015,164.3588869999994,120.76904300000024,200.89746099999957,113.9741210000002
15,102.43603499999972,56.79492200000004,106.9228520000006,54.74365200000011,96.6665039999998,111.15380900000036,120.51269500000035,132.43603499999972,140.38476599999922,143.7177729999994,150.6411130000006,113.20507799999996,184.10253900000043,113.84619099999964
16,90.0,46.410155999999915,97.69238299999961,47.43603499999972,85.38476599999922,108.58984400000008,110.51269500000035,124.23095699999976,126.41015599999992,129.3588869999994,134.3588869999994,105.89746099999957,165.89746099999957,113.3334960000002
17,84.74365200000011,40.897460999999566,92.94873000000007,47.17968800000017,83.7177729999994,107.94873000000007,103.84619099999964,119.48730499999965,116.6665039999998,117.43603499999972,123.9741210000002,102.94873000000007,153.7177729999994,112.05126999999993
18,87.94873000000007,44.48730499999965,93.3334960000002,53.7177729999994,91.15380900000036,108.84619099999964,104.10253900000043,121.0258789999998,116.53857400000015,113.58984400000008,123.3334960000002,104.87158199999976,150.12841800000024,111.2822270000006
19,95.25634799999989,54.23095699999976,96.2822270000006,62.30761700000039,100.51269500000035,110.12841800000024,109.35888699999941,126.41015599999992,123.46142599999985,116.41015599999992,129.23095699999976,109.23095699999976,152.3076170000004,112.82031300000017
20,101.53857400000015,65.12841800000024,99.23095699999976,68.84619099999964,105.25634799999989,110.38476599999922,114.74365200000011,130.6411130000006,130.12841800000024,120.12841800000024,135.38476599999922,112.56396500000028,155.51269500000035,117.17968800000017
21,105.12841800000024,75.12841800000024,102.17968800000017,73.58984400000008,105.0,109.61523400000078,117.43603499999972,130.51269500000035,131.15380900000036,121.41015599999992,138.0771479999994,113.9741210000002,156.2822270000006,121.41015599999992
22,107.69238299999961,85.64111300000059,105.89746099999957,78.84619099999964,104.35888699999941,109.48730499999965,118.20507799999996,126.53857400000015,126.79492200000004,121.15380900000036,137.6923829999996,114.10253900000043,154.10253900000043,122.82031300000017
23,111.53857400000015,97.94873000000007,110.51269500000035,85.51269500000035,107.82031300000017,111.53857400000015,118.84619099999964,121.6665039999998,121.53857400000015,121.15380900000036,136.15380900000036,114.61523400000078,149.10253900000043,120.64111300000059
24,116.2822270000006,109.87158199999976,114.23095699999976,91.0258789999998,114.74365200000011,115.38476599999922,119.74365200000011,118.3334960000002,118.84619099999964,121.79492200000004,134.23095699999976,115.38476599999922,141.2822270000006,116.53857400000015
25,119.10253900000043,116.53857400000015,114.35888699999941,91.6665039999998,120.0,118.20507799999996,118.58984400000008,116.15380900000036,117.69238299999961,120.51269500000035,130.2563479999999,114.74365200000011,130.6411130000006,112.82031300000017
26,116.6665039999998,114.23095699999976,109.48730499999965,86.0258789999998,117.69238299999961,117.05126999999993,113.0771479999994,113.0771479999994,113.9741210000002,114.87158199999976,121.9228520000006,111.15380900000036,117.69238299999961,111.0258789999998
27,108.3334960000002,104.10253900000043,101.53857400000015,76.0258789999998,106.41015599999992,112.30761700000039,104.10253900000043,107.69238299999961,104.87158199999976,103.58984400000008,109.48730499999965,105.25634799999989,104.23095699999976,111.15380900000036
28,98.58984400000008,93.3334960000002,94.74365200000011,66.79492200000004,92.69238299999961,106.9228520000006,96.41015599999992,101.2822270000006,92.94873000000007,89.74365200000011,97.43603499999972,99.87158199999976,93.0771479999994,112.43603499999972
29,93.58984400000008,90.64111300000059,93.46142599999985,62.94873000000007,85.64111300000059,104.74365200000011,95.76904300000024,96.79492200000004,84.35888699999941,79.61523400000078,91.79492200000004,97.82031300000017,87.05126999999993,113.7177729999994
30,96.53857400000015,99.87158199999976,98.46142599999985,66.79492200000004,90.89746099999957,107.43603499999972,103.0771479999994,97.05126999999993,84.10253900000043,78.58984400000008,94.48730499999965,100.12841800000024,86.6665039999998,114.23095699999976
31,104.48730499999965,116.15380900000036,105.76904300000024,75.89746099999957,105.0,112.94873000000007,113.7177729999994,101.53857400000015,91.0258789999998,86.41015599999992,101.41015599999992,104.48730499999965,88.9741210000002,114.10253900000043
32,111.53857400000015,129.87158199999976,110.12841800000024,85.89746099999957,118.20507799999996,117.30761700000039,121.15380900000036,107.17968800000017,99.10253900000043,97.30761700000039,105.64111300000059,107.17968800000017,89.74365200000011,113.58984400000008
33,113.46142599999985,134.87158199999976,108.58984400000008,92.82031300000017,122.43603499999972,118.20507799999996,121.6665039999998,111.15380900000036,103.0771479999994,104.35888699999941,104.23095699999976,106.6665039999998,87.17968800000017,112.69238299999961
34,110.76904300000024,133.3334960000002,103.20507799999996,96.41015599999992,117.17968800000017,116.41015599999992,117.30761700000039,112.94873000000007,102.30761700000039,105.38476599999922,99.61523400000078,104.61523400000078,82.05126999999993,111.53857400000015
35,107.94873000000007,133.20507799999996,99.35888699999941,99.74365200000011,108.46142599999985,114.35888699999941,112.82031300000017,114.87158199999976,100.89746099999957,103.0771479999994,97.56396500000028,105.0,78.0771479999994,110.51269500000035
36,109.48730499999965,140.89746099999957,101.6665039999998,104.87158199999976,104.61523400000078,113.7177729999994,112.43603499999972,119.48730499999965,103.58984400000008,102.82031300000017,101.79492200000004,109.35888699999941,78.3334960000002,110.51269500000035
37,115.25634799999989,155.76904300000024,109.61523400000078,111.41015599999992,108.9741210000002,114.23095699999976,116.53857400000015,127.05126999999993,111.2822270000006,106.9228520000006,109.74365200000011,115.89746099999957,81.9228520000006,111.6665039999998
38,120.89746099999957,170.76904300000024,117.43603499999972,116.6665039999998,117.94873000000007,114.87158199999976,121.6665039999998,134.3588869999994,120.25634799999989,112.82031300000017,114.23095699999976,120.25634799999989,83.9741210000002,113.58984400000008
39,120.64111300000059,177.43603499999972,119.10253900000043,118.46142599999985,123.7177729999994,114.61523400000078,123.7177729999994,136.9228520000006,124.35888699999941,114.23095699999976,109.10253900000043,119.23095699999976,78.46142599999985,115.12841800000024
40,112.56396500000028,172.17968800000017,112.69238299999961,116.2822270000006,119.74365200000011,113.9741210000002,120.64111300000059,132.3076170000004,119.74365200000011,107.17968800000017,94.35888699999941,112.82031300000017,64.23095699999976,115.0
41,100.38476599999922,158.58984400000008,101.6665039999998,111.53857400000015,106.2822270000006,113.7177729999994,113.7177729999994,121.79492200000004,107.94873000000007,93.3334960000002,77.05126999999993,104.61523400000078,46.025878999999804,113.0771479999994
42,90.38476599999922,144.48730499999965,92.05126999999993,105.76904300000024,90.38476599999922,114.35888699999941,106.2822270000006,110.12841800000024,95.25634799999989,79.74365200000011,65.76904300000024,98.46142599999985,31.922852000000603,111.2822270000006
43,86.9228520000006,137.56396500000028,88.58984400000008,100.64111300000059,80.64111300000059,115.25634799999989,101.53857400000015,101.9228520000006,87.94873000000007,72.30761700000039,63.974121000000196,96.9228520000006,26.666503999999804,111.15380900000036
44,90.12841800000024,141.0258789999998,91.41015599999992,97.82031300000017,81.79492200000004,114.87158199999976,100.64111300000059,99.87158199999976,87.82031300000017,72.94873000000007,68.7177729999994,99.10253900000043,29.48730499999965,113.58984400000008
45,96.41015599999992,152.6923829999996,97.17968800000017,98.58984400000008,93.0771479999994,112.69238299999961,102.43603499999972,102.56396500000028,92.05126999999993,78.0771479999994,72.94873000000007,102.17968800000017,35.0,116.6665039999998
46,102.30761700000039,167.82031300000017,101.9228520000006,103.46142599999985,108.20507799999996,110.12841800000024,105.0,107.17968800000017,96.6665039999998,83.58984400000008,72.82031300000017,103.58984400000008,38.46142599999985,118.46142599999985
47,106.9228520000006,181.79492200000004,104.74365200000011,111.9228520000006,120.38476599999922,109.23095699999976,108.0771479999994,111.41015599999992,100.51269500000035,87.17968800000017,69.74365200000011,103.20507799999996,38.846190999999635,118.3334960000002
48,111.6665039999998,192.17968800000017,107.43603499999972,121.79492200000004,125.89746099999957,110.64111300000059,112.05126999999993,114.74365200000011,104.35888699999941,89.61523400000078,69.35888699999941,102.94873000000007,38.20507799999996,117.05126999999993
49,117.30761700000039,198.20507799999996,111.6665039999998,130.0,126.41015599999992,113.3334960000002,116.53857400000015,117.56396500000028,109.35888699999941,92.69238299999961,74.61523400000078,104.10253900000043,38.333496000000196,116.0258789999998
50,121.9228520000006,199.48730499999965,115.89746099999957,133.84619099999964,125.51269500000035,115.76904300000024,119.61523400000078,119.10253900000043,114.23095699999976,95.76904300000024,82.94873000000007,106.0258789999998,38.20507799999996,115.38476599999922
51,121.9228520000006,195.89746099999957,116.53857400000015,132.43603499999972,125.25634799999989,116.9228520000006,119.10253900000043,117.69238299999961,114.87158199999976,95.64111300000059,87.05126999999993,106.9228520000006,34.102539000000434,114.87158199999976
52,116.0258789999998,188.46142599999985,111.6665039999998,127.05126999999993,124.74365200000011,117.17968800000017,114.48730499999965,111.2822270000006,107.94873000000007,89.87158199999976,82.05126999999993,105.76904300000024,24.48730499999965,114.23095699999976
53,106.9228520000006,180.76904300000024,102.82031300000017,120.89746099999957,121.41015599999992,117.30761700000039,107.43603499999972,100.89746099999957,94.23095699999976,79.10253900000043,69.87158199999976,102.82031300000017,11.794922000000042,113.3334960000002
54,99.23095699999976,177.05126999999993,94.10253900000043,116.6665039999998,114.48730499999965,117.56396500000028,100.76904300000024,90.0,78.7177729999994,67.69238299999961,57.69238299999961,100.25634799999989,1.6665039999998044,112.30761700000039
55,95.89746099999957,178.20507799999996,89.48730499999965,114.48730499999965,106.0258789999998,117.56396500000028,96.79492200000004,82.17968800000017,67.82031300000017,59.48730499999965,51.410155999999915,99.23095699999976,-1.6665039999998044,111.53857400000015
56,96.2822270000006,181.2822270000006,89.87158199999976,112.82031300000017,99.23095699999976,117.43603499999972,96.41015599999992,79.35888699999941,65.12841800000024,55.897460999999566,52.05126999999993,99.74365200000011,1.5385740000001533,111.79492200000004
57,97.56396500000028,182.94873000000007,93.46142599999985,110.25634799999989,97.30761700000039,117.69238299999961,98.46142599999985,80.89746099999957,69.74365200000011,56.410155999999915,55.64111300000059,100.64111300000059,6.794922000000042,113.0771479999994
58,97.94873000000007,181.79492200000004,97.17968800000017,107.82031300000017,100.64111300000059,118.84619099999964,101.2822270000006,84.87158199999976,77.17968800000017,59.61523400000078,57.56396500000028,100.51269500000035,9.358886999999413,114.61523400000078
59,98.46142599999985,179.7436520000001,98.58984400000008,107.94873000000007,107.43603499999972,119.74365200000011,104.48730499999965,90.0,83.3334960000002,64.74365200000011,57.17968800000017,99.48730499999965,7.051269999999931,115.25634799999989
60,101.0258789999998,180.12841800000024,98.3334960000002,111.79492200000004,115.25634799999989,119.35888699999941,108.9741210000002,96.53857400000015,87.30761700000039,71.9228520000006,57.17968800000017,98.9741210000002,2.9487300000000687,114.61523400000078
61,106.6665039999998,185.51269500000035,98.7177729999994,118.9741210000002,121.79492200000004,117.56396500000028,114.87158199999976,104.61523400000078,91.41015599999992,80.51269500000035,60.64111300000059,100.38476599999922,1.7949220000000423,113.3334960000002
62,112.94873000000007,194.10253900000043,101.2822270000006,126.6665039999998,125.25634799999989,115.12841800000024,120.38476599999922,112.94873000000007,97.17968800000017,88.20507799999996,67.17968800000017,103.3334960000002,5.897460999999566,112.43603499999972
63,116.15380900000036,200.6411130000006,104.87158199999976,130.89746099999957,123.3334960000002,112.69238299999961,122.56396500000028,118.3334960000002,102.69238299999961,91.15380900000036,72.43603499999972,105.51269500000035,12.307617000000391,112.30761700000039
64,113.58984400000008,199.10253900000043,106.0258789999998,127.94873000000007,115.0,110.51269500000035,119.23095699999976,118.20507799999996,103.58984400000008,86.6665039999998,71.53857400000015,104.35888699999941,14.743652000000111,112.69238299999961
65,106.15380900000036,188.46142599999985,102.56396500000028,117.30761700000039,102.69238299999961,109.10253900000043,111.0258789999998,112.43603499999972,98.3334960000002,76.2822270000006,63.974121000000196,99.74365200000011,9.102539000000434,113.46142599999985
66,98.3334960000002,174.48730499999965,95.64111300000059,103.84619099999964,90.76904300000024,108.20507799999996,102.05126999999993,104.74365200000011,89.74365200000011,64.87158199999976,53.974121000000196,94.35888699999941,-2.8203119999998307,113.84619099999964
67,94.74365200000011,165.76904300000024,89.10253900000043,95.38476599999922,84.87158199999976,107.82031300000017,96.6665039999998,99.61523400000078,82.94873000000007,57.94873000000007,47.56396500000028,91.41015599999992,-14.743652000000111,113.3334960000002
68,96.2822270000006,167.43603499999972,86.53857400000015,97.05126999999993,87.69238299999961,108.0771479999994,97.05126999999993,99.61523400000078,81.2822270000006,57.43603499999972,48.0771479999994,92.30761700000039,-20.25634799999989,112.43603499999972
69,100.0,177.82031300000017,89.48730499999965,107.69238299999961,97.56396500000028,108.84619099999964,101.6665039999998,102.82031300000017,83.58984400000008,61.153809000000365,52.56396500000028,96.41015599999992,-18.333252000000357,112.69238299999961
70,102.30761700000039,190.38476599999922,95.25634799999989,120.51269500000035,108.7177729999994,109.87158199999976,107.30761700000039,105.89746099999957,86.41015599999992,65.12841800000024,55.897460999999566,100.89746099999957,-12.692382999999609,114.74365200000011
71,102.56396500000028,198.9741210000002,100.25634799999989,129.3588869999994,115.64111300000059,110.76904300000024,112.17968800000017,106.15380900000036,87.05126999999993,66.6665039999998,55.51269500000035,103.20507799999996,-8.974365000000034,117.30761700000039
72,102.94873000000007,201.53857400000015,102.82031300000017,132.3076170000004,116.41015599999992,111.41015599999992,116.15380900000036,104.74365200000011,85.89746099999957,66.6665039999998,53.333496000000196,102.69238299999961,-9.230713000000378,118.58984400000008
73,105.89746099999957,199.48730499999965,103.0771479999994,132.3076170000004,114.10253900000043,112.43603499999972,118.9741210000002,103.84619099999964,84.87158199999976,67.56396500000028,53.589844000000085,101.2822270000006,-11.025634999999966,117.82031300000017
74,110.76904300000024,195.6411130000006,102.17968800000017,132.6923829999996,112.69238299999961,114.10253900000043,120.0,104.35888699999941,85.38476599999922,69.87158199999976,57.30761700000039,101.15380900000036,-10.769286999999622,115.51269500000035
75,114.23095699999976,192.05126999999993,101.53857400000015,133.84619099999964,113.46142599999985,115.89746099999957,118.20507799999996,105.12841800000024,85.89746099999957,72.69238299999961,62.30761700000039,102.69238299999961,-7.820557000000008,112.94873000000007
76,113.46142599999985,188.9741210000002,101.0258789999998,133.20507799999996,113.7177729999994,116.9228520000006,113.84619099999964,103.3334960000002,84.48730499999965,73.7177729999994,64.35888699999941,104.61523400000078,-4.743652000000111,111.2822270000006
77,108.20507799999996,185.6411130000006,100.51269500000035,128.7177729999994,110.64111300000059,116.15380900000036,108.3334960000002,98.46142599999985,79.87158199999976,72.05126999999993,61.410155999999915,105.12841800000024,-5.128174000000399,111.41015599999992
78,101.41015599999992,181.2822270000006,99.23095699999976,121.0258789999998,104.35888699999941,114.10253900000043,103.7177729999994,91.79492200000004,73.46142599999985,67.56396500000028,54.61523400000078,103.20507799999996,-10.0,112.94873000000007
79,97.05126999999993,176.41015599999992,97.69238299999961,114.10253900000043,98.3334960000002,112.05126999999993,100.76904300000024,86.0258789999998,67.56396500000028,61.025878999999804,48.0771479999994,99.87158199999976,-16.538574000000153,114.48730499999965
80,96.9228520000006,174.23095699999976,96.79492200000004,112.69238299999961,96.79492200000004,111.9228520000006,99.35888699999941,83.20507799999996,64.61523400000078,55.0,45.897460999999566,97.43603499999972,-20.0,115.0
81,99.74365200000011,177.17968800000017,97.17968800000017,118.3334960000002,101.6665039999998,114.10253900000043,98.7177729999994,83.0771479999994,66.15380900000036,52.30761700000039,49.61523400000078,97.69238299999961,-17.435790999999426,114.35888699999941
82,102.69238299999961,184.23095699999976,98.9741210000002,127.82031300000017,110.12841800000024,116.6665039999998,98.84619099999964,84.48730499999965,71.2822270000006,54.61523400000078,57.05126999999993,100.25634799999989,-10.1281740000004,113.9741210000002
83,103.84619099999964,190.89746099999957,101.41015599999992,134.7436520000001,117.43603499999972,117.05126999999993,100.51269500000035,85.76904300000024,77.94873000000007,61.53857400000015,64.35888699999941,103.3334960000002,-1.9228520000006029,114.48730499999965
84,103.3334960000002,192.6923829999996,103.0771479999994,134.7436520000001,120.25634799999989,114.74365200000011,102.94873000000007,86.53857400000015,83.58984400000008,70.38476599999922,68.58984400000008,105.38476599999922,4.487304999999651,115.64111300000059
85,102.56396500000028,189.10253900000043,103.0771479999994,129.3588869999994,117.30761700000039,112.30761700000039,104.10253900000043,86.6665039999998,85.76904300000024,77.17968800000017,69.48730499999965,105.25634799999989,8.333496000000196,116.41015599999992
86,102.05126999999993,182.82031300000017,101.15380900000036,123.84619099999964,110.0,112.17968800000017,102.05126999999993,86.6665039999998,83.9741210000002,78.84619099999964,68.9741210000002,102.82031300000017,9.743652000000111,116.2822270000006
87,100.38476599999922,177.43603499999972,97.30761700000039,122.69238299999961,101.2822270000006,113.9741210000002,96.79492200000004,86.9228520000006,79.23095699999976,74.87158199999976,68.3334960000002,98.9741210000002,8.974121000000196,115.38476599999922
88,96.2822270000006,174.87158199999976,93.0771479999994,126.15380900000036,95.38476599999922,116.0258789999998,90.25634799999989,87.30761700000039,75.0,68.3334960000002,67.69238299999961,95.38476599999922,6.538574000000153,114.23095699999976
89,90.64111300000059,174.61523400000078,89.74365200000011,130.76904300000024,95.0,116.53857400000015,86.0258789999998,88.3334960000002,74.61523400000078,64.61523400000078,66.2822270000006,93.84619099999964,3.846190999999635,112.82031300000017
90,86.6665039999998,175.12841800000024,89.35888699999941,133.46142599999985,100.25634799999989,115.76904300000024,86.9228520000006,90.89746099999957,80.0,67.43603499999972,64.61523400000078,94.61523400000078,3.3334960000001956,111.41015599999992
91,87.30761700000039,175.12841800000024,92.30761700000039,133.7177729999994,108.0771479999994,115.25634799999989,93.9741210000002,96.2822270000006,90.0,76.53857400000015,65.51269500000035,97.17968800000017,6.153809000000365,110.51269500000035
92,92.82031300000017,175.0,97.56396500000028,132.6923829999996,114.23095699999976,115.76904300000024,104.74365200000011,104.23095699999976,100.38476599999922,86.79492200000004,70.25634799999989,100.0,11.794922000000042,110.64111300000059
93,100.38476599999922,175.6411130000006,102.05126999999993,131.9228520000006,116.15380900000036,117.17968800000017,113.9741210000002,112.17968800000017,106.53857400000015,92.56396500000028,77.69238299999961,101.79492200000004,18.205077999999958,111.41015599999992
94,106.2822270000006,178.20507799999996,103.3334960000002,132.05126999999993,115.0,118.7177729999994,117.43603499999972,116.9228520000006,106.41015599999992,91.6665039999998,84.10253900000043,102.30761700000039,22.94873000000007,112.94873000000007
95,107.56396500000028,181.53857400000015,101.41015599999992,131.9228520000006,113.3334960000002,119.23095699999976,114.10253900000043,117.05126999999993,101.15380900000036,87.69238299999961,86.2822270000006,101.79492200000004,25.25634799999989,114.35888699999941
96,103.3334960000002,181.53857400000015,97.94873000000007,129.23095699999976,112.17968800000017,118.20507799999996,107.30761700000039,113.46142599999985,94.61523400000078,85.0,82.69238299999961,100.76904300000024,25.0,114.87158199999976
97,95.38476599999922,174.23095699999976,94.74365200000011,122.56396500000028,110.25634799999989,115.89746099999957,101.2822270000006,107.82031300000017,89.87158199999976,84.35888699999941,74.74365200000011,99.35888699999941,22.05126999999993,114.23095699999976
98,87.69238299999961,161.2822270000006,92.69238299999961,113.9741210000002,106.53857400000015,113.9741210000002,99.23095699999976,102.43603499999972,87.69238299999961,83.20507799999996,66.41015599999992,97.94873000000007,16.538574000000153,112.56396500000028
99,85.0,151.2822270000006,93.0771479999994,108.58984400000008,102.94873000000007,114.48730499999965,101.9228520000006,99.48730499999965,87.94873000000007,80.25634799999989,63.589844000000085,97.17968800000017,11.538574000000153,111.41015599999992
100,89.87158199999976,152.43603499999972,96.41015599999992,111.41015599999992,103.58984400000008,117.43603499999972,107.94873000000007,100.51269500000035,91.0258789999998,78.20507799999996,69.74365200000011,97.69238299999961,12.051269999999931,111.53857400000015
101,100.38476599999922,165.2563479999999,101.53857400000015,121.6665039999998,110.12841800000024,120.64111300000059,114.61523400000078,104.87158199999976,96.15380900000036,80.89746099999957,83.20507799999996,99.23095699999976,21.538574000000153,113.46142599999985
102,111.6665039999998,180.89746099999957,106.79492200000004,132.6923829999996,118.46142599999985,120.76904300000024,119.61523400000078,110.12841800000024,102.05126999999993,88.7177729999994,97.69238299999961,101.15380900000036,37.82031300000017,116.53857400000015
103,118.3334960000002,187.6923829999996,110.38476599999922,136.79492200000004,122.17968800000017,116.6665039999998,121.9228520000006,112.82031300000017,105.25634799999989,97.05126999999993,106.6665039999998,102.56396500000028,53.589844000000085,118.58984400000008
104,117.94873000000007,180.2563479999999,110.64111300000059,131.15380900000036,117.30761700000039,110.38476599999922,121.0258789999998,111.41015599999992,103.20507799999996,100.0,107.05126999999993,102.94873000000007,61.025878999999804,117.82031300000017
105,112.30761700000039,162.05126999999993,107.69238299999961,119.61523400000078,106.41015599999992,105.12841800000024,117.05126999999993,106.15380900000036,95.64111300000059,93.7177729999994,100.51269500000035,101.9228520000006,57.17968800000017,114.23095699999976
106,106.2822270000006,143.3334960000002,103.3334960000002,109.35888699999941,97.43603499999972,103.46142599999985,111.6665039999998,100.12841800000024,85.76904300000024,81.41015599999992,92.94873000000007,100.64111300000059,47.17968800000017,110.38476599999922
107,105.0,134.10253900000043,101.53857400000015,106.2822270000006,97.43603499999972,106.15380900000036,107.05126999999993,96.53857400000015,78.58984400000008,71.2822270000006,90.51269500000035,101.41015599999992,40.25634799999989,109.61523400000078
108,110.12841800000024,137.94873000000007,104.35888699999941,111.15380900000036,106.79492200000004,111.15380900000036,105.25634799999989,96.53857400000015,78.0771479999994,71.15380900000036,95.89746099999957,106.0258789999998,43.589844000000085,112.94873000000007
109,119.35888699999941,150.51269500000035,110.51269500000035,119.74365200000011,119.10253900000043,115.89746099999957,106.6665039999998,99.61523400000078,84.74365200000011,81.9228520000006,106.2822270000006,112.94873000000007,57.69238299999961,117.82031300000017
110,127.17968800000017,162.82031300000017,115.76904300000024,126.53857400000015,126.41015599999992,117.94873000000007,109.74365200000011,102.94873000000007,95.25634799999989,97.30761700000039,115.51269500000035,118.0771479999994,75.51269500000035,120.64111300000059
111,128.84619099999964,166.6665039999998,116.79492200000004,127.82031300000017,125.0,116.9228520000006,111.53857400000015,103.9741210000002,104.10253900000043,108.0771479999994,117.94873000000007,118.3334960000002,88.20507799999996,119.35888699999941
112,124.10253900000043,159.3588869999994,113.0771479999994,123.84619099999964,116.9228520000006,114.35888699999941,109.23095699999976,101.41015599999992,106.6665039999998,109.10253900000043,112.56396500000028,113.7177729999994,90.64111300000059,115.51269500000035
113,116.53857400000015,144.48730499999965,107.17968800000017,117.05126999999993,107.82031300000017,112.56396500000028,103.20507799999996,96.9228520000006,102.43603499999972,101.53857400000015,103.58984400000008,108.0771479999994,84.74365200000011,111.41015599999992
114,111.53857400000015,130.0,102.82031300000017,111.53857400000015,102.94873000000007,112.69238299999961,97.17968800000017,93.84619099999964,96.15380900000036,92.69238299999961,97.82031300000017,105.12841800000024,77.69238299999961,109.48730499999965
115,112.69238299999961,123.0771479999994,102.56396500000028,108.9741210000002,104.61523400000078,114.61523400000078,96.0258789999998,95.64111300000059,94.23095699999976,89.74365200000011,99.74365200000011,106.53857400000015,76.6665039999998,110.38476599999922
116,119.48730499999965,125.12841800000024,105.89746099999957,108.20507799999996,110.38476599999922,116.53857400000015,101.15380900000036,102.30761700000039,99.61523400000078,94.61523400000078,108.3334960000002,110.89746099999957,83.58984400000008,113.0771479999994
117,127.30761700000039,130.6411130000006,109.10253900000043,107.05126999999993,115.76904300000024,116.9228520000006,108.84619099999964,110.51269500000035,109.87158199999976,102.94873000000007,117.56396500000028,114.74365200000011,93.7177729999994,115.25634799999989
118,130.51269500000035,132.6923829999996,108.46142599999985,103.84619099999964,116.79492200000004,115.76904300000024,113.7177729999994,116.15380900000036,118.84619099999964,108.7177729999994,121.6665039999998,115.38476599999922,100.38476599999922,115.38476599999922
119,126.6665039999998,128.0771479999994,103.3334960000002,98.3334960000002,113.20507799999996,114.74365200000011,113.58984400000008,117.69238299999961,122.56396500000028,109.48730499999965,119.48730499999965,112.69238299999961,100.38476599999922,113.84619099999964
120,118.58984400000008,119.10253900000043,96.9228520000006,91.9228520000006,106.9228520000006,115.0,110.25634799999989,116.79492200000004,122.30761700000039,107.56396500000028,114.87158199999976,109.10253900000043,96.0258789999998,112.17968800000017
121,112.56396500000028,112.05126999999993,94.10253900000043,87.30761700000039,102.30761700000039,116.2822270000006,108.3334960000002,116.9228520000006,122.17968800000017,107.43603499999972,113.58984400000008,107.69238299999961,93.20507799999996,111.79492200000004
122,113.84619099999964,113.0771479999994,97.30761700000039,88.0771479999994,103.0771479999994,117.94873000000007,110.76904300000024,120.38476599999922,125.38476599999922,111.41015599999992,118.7177729999994,109.87158199999976,96.53857400000015,112.30761700000039
123,122.69238299999961,121.9228520000006,105.64111300000059,95.89746099999957,110.64111300000059,119.48730499999965,117.69238299999961,126.6665039999998,131.0258789999998,118.20507799999996,127.94873000000007,114.74365200000011,106.0258789999998,112.94873000000007
124,133.84619099999964,132.05126999999993,114.23095699999976,107.30761700000039,121.41015599999992,120.0,126.15380900000036,132.17968800000017,134.10253900000043,123.20507799999996,136.15380900000036,119.35888699999941,116.41015599999992,113.58984400000008
125,139.7436520000001,134.7436520000001,118.0771479999994,115.25634799999989,128.58984400000008,119.23095699999976,132.17968800000017,132.94873000000007,130.38476599999922,122.17968800000017,138.3334960000002,120.89746099999957,120.51269500000035,114.61523400000078
126,135.2563479999999,126.15380900000036,115.12841800000024,113.46142599999985,126.6665039999998,117.43603499999972,133.3334960000002,127.69238299999961,119.61523400000078,114.48730499999965,133.3334960000002,117.30761700000039,113.84619099999964,116.15380900000036
127,122.17968800000017,110.0,107.17968800000017,101.53857400000015,116.79492200000004,116.0258789999998,129.61523400000078,118.9741210000002,105.89746099999957,103.46142599999985,123.46142599999985,109.61523400000078,99.87158199999976,117.43603499999972
128,107.43603499999972,95.76904300000024,98.9741210000002,87.05126999999993,106.41015599999992,116.2822270000006,123.20507799999996,111.41015599999992,95.76904300000024,94.48730499999965,113.46142599999985,101.9228520000006,87.56396500000028,117.56396500000028
129,98.9741210000002,91.6665039999998,94.61523400000078,79.35888699999941,103.9741210000002,117.94873000000007,117.69238299999961,108.58984400000008,93.46142599999985,91.6665039999998,108.58984400000008,98.7177729999994,85.64111300000059,116.2822270000006
130,100.12841800000024,98.20507799999996,95.51269500000035,83.20507799999996,111.53857400000015,119.61523400000078,116.0258789999998,110.0,98.0771479999994,95.25634799999989,110.64111300000059,102.05126999999993,95.38476599999922,114.35888699999941
131,107.30761700000039,107.69238299999961,99.48730499999965,94.10253900000043,121.9228520000006,120.0,117.69238299999961,111.41015599999992,103.9741210000002,100.76904300000024,117.17968800000017,109.10253900000043,108.84619099999964,112.56396500000028
132,113.7177729999994,110.64111300000059,102.69238299999961,102.69238299999961,125.51269500000035,118.9741210000002,119.48730499999965,109.10253900000043,105.38476599999922,102.94873000000007,123.20507799999996,114.61523400000078,115.64111300000059,111.6665039999998
133,115.25634799999989,104.35888699999941,102.05126999999993,103.0771479999994,118.7177729999994,117.17968800000017,118.7177729999994,103.20507799999996,101.15380900000036,100.12841800000024,125.64111300000059,115.0,112.94873000000007,111.53857400000015
134,113.46142599999985,95.51269500000035,99.35888699999941,97.69238299999961,107.30761700000039,115.89746099999957,116.0258789999998,98.46142599999985,95.89746099999957,96.9228520000006,125.89746099999957,111.53857400000015,107.17968800000017,112.17968800000017
135,113.0771479999994,93.7177729999994,98.7177729999994,94.35888699999941,101.15380900000036,115.25634799999989,114.61523400000078,99.35888699999941,95.51269500000035,99.48730499999965,128.0771479999994,108.84619099999964,107.82031300000017,113.46142599999985
136,117.30761700000039,102.82031300000017,102.69238299999961,99.35888699999941,106.15380900000036,115.76904300000024,117.05126999999993,106.79492200000004,101.9228520000006,108.9741210000002,133.9741210000002,111.0258789999998,118.3334960000002,114.74365200000011
137,125.51269500000035,117.43603499999972,110.38476599999922,111.0258789999998,120.0,116.9228520000006,122.17968800000017,116.53857400000015,111.9228520000006,120.64111300000059,142.05126999999993,117.69238299999961,133.58984400000008,115.0
138,133.46142599999985,128.20507799999996,117.69238299999961,121.53857400000015,135.0,117.82031300000017,126.79492200000004,122.94873000000007,120.38476599999922,128.0771479999994,148.58984400000008,124.61523400000078,145.0,113.7177729999994
139,137.43603499999972,127.94873000000007,121.6665039999998,123.84619099999964,142.17968800000017,118.0771479999994,127.56396500000028,123.3334960000002,123.58984400000008,128.20507799999996,151.41015599999992,126.9228520000006,147.43603499999972,111.9228520000006
140,136.53857400000015,116.6665039999998,121.9228520000006,117.05126999999993,137.82031300000017,117.56396500000028,123.9741210000002,119.10253900000043,121.41015599999992,123.7177729999994,151.0258789999998,124.10253900000043,142.6923829999996,111.2822270000006
141,132.3076170000004,100.12841800000024,119.74365200000011,107.05126999999993,125.0,116.9228520000006,118.46142599999985,114.23095699999976,116.53857400000015,118.84619099999964,148.7177729999994,119.10253900000043,136.53857400000015,112.94873000000007
142,126.2822270000006,85.51269500000035,116.6665039999998,100.25634799999989,111.0258789999998,116.9228520000006,114.35888699999941,111.9228520000006,111.41015599999992,116.15380900000036,145.89746099999957,115.89746099999957,133.58984400000008,116.2822270000006
143,119.74365200000011,77.30761700000039,113.20507799999996,98.84619099999964,101.6665039999998,117.05126999999993,113.3334960000002,112.30761700000039,107.69238299999961,115.0,143.0771479999994,115.38476599999922,134.7436520000001,119.35888699999941
144,113.9741210000002,76.15380900000036,109.74365200000011,100.12841800000024,98.58984400000008,116.6665039999998,114.35888699999941,113.7177729999994,106.2822270000006,113.9741210000002,141.2822270000006,115.89746099999957,137.94873000000007,120.12841800000024
145,111.15380900000036,80.38476599999922,107.82031300000017,100.76904300000024,100.0,115.89746099999957,115.12841800000024,114.61523400000078,108.84619099999964,114.35888699999941,141.53857400000015,116.0258789999998,142.05126999999993,118.84619099999964
146,113.58984400000008,87.94873000000007,109.61523400000078,100.64111300000059,104.10253900000043,116.15380900000036,115.76904300000024,115.25634799999989,116.15380900000036,119.10253900000043,145.0,115.89746099999957,148.20507799999996,116.53857400000015
147,121.53857400000015,96.41015599999992,115.25634799999989,102.82031300000017,110.51269500000035,117.82031300000017,117.30761700000039,117.30761700000039,126.53857400000015,129.61523400000078,150.89746099999957,116.9228520000006,158.46142599999985,114.35888699999941
148,131.15380900000036,102.69238299999961,121.41015599999992,108.3334960000002,117.56396500000028,118.9741210000002,119.87158199999976,120.38476599999922,135.76904300000024,142.43603499999972,156.9228520000006,119.87158199999976,171.0258789999998,112.94873000000007
149,136.53857400000015,103.0771479999994,123.46142599999985,114.61523400000078,122.69238299999961,117.17968800000017,121.79492200000004,122.56396500000028,139.10253900000043,150.0,159.10253900000043,123.0771479999994,180.0,112.56396500000028
150,133.9741210000002,95.51269500000035,119.23095699999976,116.6665039999998,123.58984400000008,112.82031300000017,120.25634799999989,121.2822270000006,134.10253900000043,147.43603499999972,155.2563479999999,123.84619099999964,179.3588869999994,112.82031300000017
151,125.12841800000024,82.69238299999961,111.0258789999998,112.30761700000039,121.0258789999998,108.3334960000002,114.87158199999976,117.30761700000039,123.46142599999985,136.6665039999998,147.3076170000004,120.76904300000024,170.0,112.94873000000007
152,116.0258789999998,71.2822270000006,104.61523400000078,105.25634799999989,117.94873000000007,106.53857400000015,108.20507799999996,113.46142599999985,113.46142599999985,125.64111300000059,141.53857400000015,116.15380900000036,160.38476599999922,112.56396500000028
153,112.43603499999972,67.69238299999961,103.9741210000002,100.89746099999957,116.53857400000015,107.69238299999961,104.87158199999976,112.56396500000028,109.87158199999976,122.05126999999993,142.94873000000007,113.3334960000002,159.10253900000043,112.43603499999972
154,114.35888699999941,71.6665039999998,107.94873000000007,102.30761700000039,115.76904300000024,110.51269500000035,106.9228520000006,114.10253900000043,113.20507799999996,126.2822270000006,149.23095699999976,114.10253900000043,167.56396500000028,113.3334960000002
155,117.82031300000017,76.15380900000036,111.53857400000015,106.6665039999998,113.46142599999985,112.82031300000017,112.30761700000039,115.12841800000024,118.46142599999985,131.79492200000004,153.3334960000002,116.79492200000004,178.0771479999994,114.74365200000011
156,118.7177729999994,74.48730499999965,110.38476599999922,108.84619099999964,108.7177729999994,112.69238299999961,117.05126999999993,113.3334960000002,120.0,131.41015599999992,150.76904300000024,118.3334960000002,182.3076170000004,115.89746099999957
157,116.9228520000006,66.15380900000036,104.87158199999976,106.2822270000006,104.61523400000078,110.25634799999989,118.3334960000002,109.10253900000043,115.64111300000059,124.61523400000078,143.7177729999994,116.6665039999998,178.46142599999985,116.15380900000036
158,114.61523400000078,56.666503999999804,99.74365200000011,100.76904300000024,104.61523400000078,108.20507799999996,116.15380900000036,104.87158199999976,108.20507799999996,116.53857400000015,138.46142599999985,112.82031300000017,172.3076170000004,115.51269500000035
159,113.3334960000002,52.05126999999993,98.46142599999985,96.6665039999998,109.10253900000043,108.9741210000002,112.30761700000039,102.56396500000028,101.79492200000004,112.82031300000017,138.46142599999985,109.23095699999976,170.0,113.9741210000002
160,112.56396500000028,53.7177729999994,100.0,96.15380900000036,114.87158199999976,111.9228520000006,108.7177729999994,101.9228520000006,98.58984400000008,114.35888699999941,141.41015599999992,107.56396500000028,172.94873000000007,111.9228520000006
161,110.89746099999957,57.94873000000007,101.0258789999998,98.46142599999985,117.82031300000017,113.9741210000002,106.6665039999998,102.17968800000017,98.46142599999985,117.43603499999972,142.6923829999996,107.56396500000028,177.17968800000017,110.64111300000059
162,108.58984400000008,61.2822270000006,100.64111300000059,101.41015599999992,117.17968800000017,113.3334960000002,106.79492200000004,103.0771479999994,101.0258789999998,118.84619099999964,141.15380900000036,108.58984400000008,179.3588869999994,111.53857400000015
163,108.0771479999994,63.846190999999635,100.89746099999957,103.0771479999994,116.2822270000006,110.64111300000059,108.84619099999964,105.64111300000059,106.0258789999998,119.10253900000043,139.87158199999976,110.38476599999922,180.0,114.74365200000011
164,111.53857400000015,67.05126999999993,103.58984400000008,103.58984400000008,118.7177729999994,108.58984400000008,111.79492200000004,110.12841800000024,112.30761700000039,120.89746099999957,142.6923829999996,112.69238299999961,182.43603499999972,118.0771479999994
165,117.56396500000028,70.51269500000035,107.94873000000007,103.58984400000008,124.35888699999941,108.9741210000002,113.9741210000002,114.23095699999976,117.30761700000039,125.12841800000024,149.10253900000043,114.74365200000011,187.56396500000028,118.9741210000002
166,122.17968800000017,71.6665039999998,111.53857400000015,103.3334960000002,128.58984400000008,110.89746099999957,115.0,115.0,117.82031300000017,130.2563479999999,154.7436520000001,115.64111300000059,192.56396500000028,117.17968800000017
167,122.43603499999972,68.7177729999994,112.43603499999972,102.82031300000017,127.17968800000017,112.43603499999972,115.38476599999922,111.15380900000036,113.0771479999994,133.0771479999994,155.89746099999957,114.87158199999976,194.23095699999976,114.23095699999976
168,118.84619099999964,62.94873000000007,110.64111300000059,101.9228520000006,120.51269500000035,112.30761700000039,115.64111300000059,104.74365200000011,106.15380900000036,132.56396500000028,152.6923829999996,113.20507799999996,192.05126999999993,112.56396500000028
169,114.48730499999965,58.7177729999994,108.20507799999996,100.89746099999957,113.46142599999985,111.53857400000015,116.41015599999992,99.74365200000011,101.9228520000006,129.7436520000001,148.46142599999985,111.79492200000004,188.84619099999964,112.82031300000017
170,112.69238299999961,59.102539000000434,107.43603499999972,100.25634799999989,112.17968800000017,112.05126999999993,117.17968800000017,99.23095699999976,103.0771479999994,126.6665039999998,147.05126999999993,111.79492200000004,187.43603499999972,113.84619099999964
171,113.9741210000002,63.974121000000196,108.84619099999964,101.0258789999998,118.9741210000002,114.10253900000043,117.69238299999961,103.84619099999964,109.23095699999976,124.87158199999976,149.10253900000043,113.0771479999994,188.58984400000008,114.35888699999941
172,116.2822270000006,69.48730499999965,111.53857400000015,103.84619099999964,129.61523400000078,116.0258789999998,118.0771479999994,111.15380900000036,117.17968800000017,125.51269500000035,153.3334960000002,115.0,190.38476599999922,114.35888699999941
173,117.17968800000017,71.79492200000004,113.7177729999994,107.94873000000007,137.6923829999996,116.53857400000015,118.46142599999985,118.3334960000002,124.23095699999976,129.61523400000078,157.3076170000004,116.6665039999998,190.12841800000024,114.35888699999941
174,116.41015599999992,70.12841800000024,114.87158199999976,112.05126999999993,138.84619099999964,115.89746099999957,119.23095699999976,123.7177729999994,129.61523400000078,137.05126999999993,159.3588869999994,118.0771479999994,187.82031300000017,115.0
175,115.12841800000024,66.9228520000006,115.38476599999922,115.51269500000035,133.84619099999964,115.89746099999957,119.74365200000011,127.82031300000017,133.84619099999964,145.51269500000035,159.61523400000078,118.9741210000002,186.15380900000036,116.15380900000036
176,114.61523400000078,65.51269500000035,114.87158199999976,117.43603499999972,125.64111300000059,116.41015599999992,119.10253900000043,131.0258789999998,137.56396500000028,150.38476599999922,158.58984400000008,118.84619099999964,187.6923829999996,116.9228520000006
177,114.61523400000078,66.9228520000006,112.69238299999961,117.30761700000039,118.20507799999996,116.41015599999992,117.82031300000017,132.82031300000017,140.51269500000035,148.7177729999994,156.79492200000004,117.69238299999961,191.6665039999998,116.2822270000006
178,114.87158199999976,69.61523400000078,109.61523400000078,114.87158199999976,114.48730499999965,115.64111300000059,117.69238299999961,133.0771479999994,142.82031300000017,142.3076170000004,154.7436520000001,116.41015599999992,194.87158199999976,114.10253900000043
179,115.64111300000059,72.05126999999993,108.0771479999994,111.6665039999998,115.76904300000024,114.74365200000011,120.51269500000035,132.94873000000007,144.87158199999976,136.53857400000015,153.7177729999994,116.41015599999992,194.61523400000078,112.05126999999993
180,117.30761700000039,73.0771479999994,110.0,108.46142599999985,120.51269500000035,114.74365200000011,125.64111300000059,133.84619099999964,147.17968800000017,136.2822270000006,155.0,118.0771479999994,190.89746099999957,111.79492200000004
181,118.9741210000002,72.82031300000017,114.87158199999976,105.51269500000035,124.74365200000011,115.51269500000035,130.2563479999999,135.51269500000035,149.10253900000043,141.15380900000036,157.56396500000028,120.12841800000024,185.2563479999999,113.3334960000002
182,118.58984400000008,71.41015599999992,118.46142599999985,101.79492200000004,124.48730499999965,116.41015599999992,130.76904300000024,135.89746099999957,148.0771479999994,145.51269500000035,158.20507799999996,121.0258789999998,179.3588869999994,115.25634799999989
183,115.25634799999989,68.46142599999985,117.17968800000017,96.9228520000006,118.84619099999964,115.64111300000059,126.0258789999998,132.6923829999996,141.6665039999998,143.3334960000002,153.7177729999994,120.0,173.7177729999994,115.89746099999957
184,110.76904300000024,64.61523400000078,111.41015599999992,93.20507799999996,111.0258789999998,112.69238299999961,118.46142599999985,126.2822270000006,130.6411130000006,134.23095699999976,145.51269500000035,117.56396500000028,169.10253900000043,115.12841800000024
185,108.20507799999996,62.05126999999993,105.76904300000024,93.3334960000002,106.0258789999998,108.84619099999964,112.43603499999972,119.23095699999976,119.74365200000011,124.35888699999941,138.58984400000008,115.89746099999957,166.79492200000004,113.7177729999994
186,109.74365200000011,63.20507799999996,104.74365200000011,98.0771479999994,106.9228520000006,107.05126999999993,111.2822270000006,114.87158199999976,114.74365200000011,121.0258789999998,138.0771479999994,116.79492200000004,167.43603499999972,112.82031300000017
187,113.9741210000002,67.56396500000028,108.9741210000002,104.35888699999941,112.43603499999972,109.61523400000078,114.23095699999976,114.48730499999965,116.41015599999992,125.89746099999957,144.10253900000043,120.0,170.38476599999922,113.20507799999996
188,117.30761700000039,72.17968800000017,114.48730499999965,107.43603499999972,117.82031300000017,115.0,117.69238299999961,116.79492200000004,120.38476599999922,133.3334960000002,151.41015599999992,123.0771479999994,172.56396500000028,114.61523400000078
189,117.43603499999972,73.20507799999996,116.9228520000006,105.89746099999957,118.9741210000002,119.74365200000011,118.58984400000008,118.58984400000008,120.89746099999957,135.51269500000035,153.9741210000002,123.20507799999996,171.0258789999998,116.15380900000036
190,114.48730499999965,71.0258789999998,115.0,102.30761700000039,115.64111300000059,120.64111300000059,117.17968800000017,117.82031300000017,115.76904300000024,129.3588869999994,150.51269500000035,120.12841800000024,165.51269500000035,117.05126999999993
191,111.6665039999998,68.84619099999964,111.15380900000036,101.0258789999998,111.41015599999992,118.20507799999996,115.76904300000024,114.48730499999965,107.30761700000039,118.9741210000002,144.7436520000001,116.2822270000006,160.0,117.17968800000017
192,111.79492200000004,70.64111300000059,108.7177729999994,103.58984400000008,110.38476599999922,115.38476599999922,116.6665039999998,110.38476599999922,100.51269500000035,111.15380900000036,141.15380900000036,114.23095699999976,158.7177729999994,116.79492200000004
193,115.0,77.05126999999993,109.23095699999976,108.0771479999994,113.7177729999994,114.87158199999976,119.48730499999965,107.56396500000028,98.20507799999996,109.61523400000078,141.0258789999998,115.25634799999989,162.3076170000004,115.76904300000024
194,118.7177729999994,84.61523400000078,111.2822270000006,111.2822270000006,118.84619099999964,117.17968800000017,121.53857400000015,107.43603499999972,100.25634799999989,112.43603499999972,142.17968800000017,117.56396500000028,166.9228520000006,114.23095699999976
195,120.0,87.69238299999961,112.82031300000017,111.2822270000006,121.6665039999998,119.87158199999976,120.89746099999957,109.10253900000043,103.84619099999964,115.12841800000024,142.05126999999993,119.10253900000043,167.82031300000017,112.82031300000017
196,117.82031300000017,83.0771479999994,112.43603499999972,108.46142599999985,120.0,120.38476599999922,117.69238299999961,110.76904300000024,106.53857400000015,115.38476599999922,139.87158199999976,118.84619099999964,163.20507799999996,112.30761700000039
197,114.35888699999941,72.82031300000017,111.0258789999998,105.51269500000035,115.76904300000024,117.94873000000007,115.0,112.30761700000039,107.82031300000017,114.74365200000011,138.0771479999994,117.56396500000028,155.2563479999999,112.69238299999961
198,113.20507799999996,63.7177729999994,109.74365200000011,105.51269500000035,112.94873000000007,114.61523400000078,115.76904300000024,114.87158199999976,109.48730499999965,116.41015599999992,138.9741210000002,116.79492200000004,148.7177729999994,113.20507799999996
199,115.51269500000035,63.0771479999994,110.12841800000024,109.61523400000078,113.7177729999994,113.20507799999996,120.64111300000059,119.61523400000078,113.0771479999994,121.79492200000004,143.3334960000002,117.30761700000039,146.0258789999998,113.3334960000002
200,119.23095699999976,72.30761700000039,112.05126999999993,115.89746099999957,116.9228520000006,114.48730499999965,126.79492200000004,125.25634799999989,118.20507799999996,128.3334960000002,148.58984400000008,118.3334960000002,146.9228520000006,113.7177729999994
201,121.15380900000036,87.05126999999993,114.61523400000078,120.51269500000035,119.74365200000011,116.9228520000006,130.2563479999999,128.9741210000002,122.17968800000017,132.82031300000017,151.41015599999992,118.84619099999964,148.9741210000002,114.61523400000078
202,120.51269500000035,100.0,116.53857400000015,120.89746099999957,120.38476599999922,118.3334960000002,128.3334960000002,128.84619099999964,122.94873000000007,133.46142599999985,150.38476599999922,118.46142599999985,150.76904300000024,115.89746099999957
203,119.23095699999976,105.38476599999922,116.79492200000004,117.69238299999961,119.48730499999965,118.20507799999996,122.43603499999972,125.25634799999989,120.76904300000024,130.89746099999957,146.2822270000006,117.82031300000017,152.05126999999993,116.6665039999998
204,118.84619099999964,102.56396500000028,114.61523400000078,113.20507799999996,118.46142599999985,117.17968800000017,116.6665039999998,120.76904300000024,118.20507799999996,126.9228520000006,141.53857400000015,117.82031300000017,152.17968800000017,116.53857400000015
205,119.10253900000043,94.74365200000011,110.38476599999922,109.48730499999965,116.79492200000004,116.2822270000006,113.84619099999964,117.94873000000007,117.30761700000039,122.82031300000017,137.56396500000028,118.58984400000008,149.61523400000078,115.51269500000035
206,117.82031300000017,86.6665039999998,104.74365200000011,107.43603499999972,113.58984400000008,116.0258789999998,113.84619099999964,117.82031300000017,118.46142599999985,118.46142599999985,134.61523400000078,119.10253900000043,143.20507799999996,114.23095699999976
207,113.84619099999964,82.69238299999961,100.51269500000035,107.05126999999993,109.74365200000011,115.76904300000024,113.9741210000002,119.61523400000078,120.25634799999989,115.12841800000024,132.17968800000017,118.46142599999985,134.48730499999965,113.7177729999994
208,108.84619099999964,85.0,100.0,108.9741210000002,108.46142599999985,115.0,113.20507799999996,122.17968800000017,122.82031300000017,115.76904300000024,130.89746099999957,116.9228520000006,127.94873000000007,114.48730499999965
209,107.17968800000017,93.46142599999985,103.9741210000002,113.0771479999994,112.43603499999972,114.61523400000078,113.46142599999985,124.87158199999976,127.30761700000039,123.84619099999964,132.6923829999996,115.89746099999957,127.69238299999961,116.53857400000015
210,112.17968800000017,105.76904300000024,110.12841800000024,117.94873000000007,120.51269500000035,115.76904300000024,116.9228520000006,127.69238299999961,134.7436520000001,138.20507799999996,138.46142599999985,116.6665039999998,135.0,119.10253900000043
211,122.56396500000028,117.56396500000028,115.25634799999989,121.0258789999998,128.3334960000002,117.43603499999972,123.58984400000008,131.0258789999998,142.43603499999972,152.6923829999996,146.0258789999998,119.23095699999976,146.0258789999998,120.51269500000035
212,132.6923829999996,124.87158199999976,116.9228520000006,120.25634799999989,131.2822270000006,117.94873000000007,129.87158199999976,134.48730499999965,146.41015599999992,159.3588869999994,151.53857400000015,121.79492200000004,153.9741210000002,119.48730499999965
213,136.2822270000006,125.0,114.61523400000078,116.0258789999998,127.56396500000028,116.2822270000006,130.76904300000024,136.53857400000015,143.58984400000008,153.9741210000002,151.0258789999998,122.82031300000017,153.58984400000008,116.9228520000006
214,130.38476599999922,117.69238299999961,108.9741210000002,110.64111300000059,118.7177729999994,112.69238299999961,123.7177729999994,133.9741210000002,133.84619099999964,138.7177729999994,143.58984400000008,121.53857400000015,144.10253900000043,114.23095699999976
215,117.17968800000017,106.15380900000036,102.43603499999972,105.38476599999922,108.46142599999985,108.46142599999985,110.76904300000024,125.51269500000035,119.74365200000011,121.0258789999998,130.89746099999957,117.94873000000007,130.0,112.94873000000007
216,102.94873000000007,95.89746099999957,97.30761700000039,100.76904300000024,100.38476599999922,105.51269500000035,97.94873000000007,113.3334960000002,105.64111300000059,108.84619099999964,117.43603499999972,113.84619099999964,117.69238299999961,113.0771479999994
217,94.35888699999941,92.05126999999993,95.25634799999989,97.05126999999993,96.79492200000004,105.38476599999922,91.79492200000004,102.94873000000007,96.2822270000006,105.64111300000059,108.84619099999964,111.0258789999998,111.6665039999998,113.46142599999985
218,94.10253900000043,95.89746099999957,96.0258789999998,95.25634799999989,97.94873000000007,108.0771479999994,94.23095699999976,98.3334960000002,93.84619099999964,109.10253900000043,107.94873000000007,110.76904300000024,112.17968800000017,113.20507799999996
219,99.74365200000011,103.7177729999994,98.20507799999996,97.05126999999993,102.82031300000017,112.05126999999993,102.82031300000017,100.12841800000024,97.82031300000017,114.35888699999941,113.9741210000002,112.69238299999961,116.2822270000006,111.79492200000004
220,106.79492200000004,110.25634799999989,100.89746099999957,103.46142599999985,110.89746099999957,115.0,112.69238299999961,105.89746099999957,104.74365200000011,117.56396500000028,122.56396500000028,115.64111300000059,120.76904300000024,110.51269500000035
221,111.53857400000015,112.43603499999972,103.3334960000002,112.69238299999961,120.12841800000024,115.25634799999989,119.74365200000011,112.56396500000028,110.76904300000024,117.94873000000007,129.61523400000078,118.3334960000002,124.10253900000043,111.15380900000036
222,112.30761700000039,110.64111300000059,104.35888699999941,120.25634799999989,126.53857400000015,113.3334960000002,122.05126999999993,117.43603499999972,112.56396500000028,116.2822270000006,131.79492200000004,119.35888699999941,124.61523400000078,113.9741210000002
223,108.7177729999994,106.15380900000036,103.0771479999994,121.0258789999998,125.76904300000024,111.0258789999998,120.0,118.84619099999964,108.84619099999964,112.94873000000007,128.20507799999996,117.69238299999961,122.17968800000017,117.43603499999972
224,102.69238299999961,100.38476599999922,99.87158199999976,113.9741210000002,117.30761700000039,110.0,115.89746099999957,116.79492200000004,101.6665039999998,108.0771479999994,120.51269500000035,114.23095699999976,117.30761700000039,119.35888699999941
225,97.17968800000017,95.12841800000024,96.9228520000006,104.10253900000043,106.15380900000036,110.89746099999957,113.0771479999994,113.46142599999985,95.76904300000024,103.20507799999996,112.30761700000039,111.41015599999992,112.17968800000017,118.7177729999994
226,95.12841800000024,92.82031300000017,96.9228520000006,98.7177729999994,99.35888699999941,113.46142599999985,113.84619099999964,112.30761700000039,95.25634799999989,101.41015599999992,107.94873000000007,111.79492200000004,108.84619099999964,116.6665039999998
227,97.56396500000028,94.74365200000011,99.61523400000078,102.30761700000039,100.51269500000035,116.41015599999992,117.82031300000017,114.61523400000078,101.41015599999992,104.10253900000043,108.84619099999964,114.87158199999976,108.7177729999994,114.74365200000011
228,102.30761700000039,99.74365200000011,103.0771479999994,112.05126999999993,107.43603499999972,118.3334960000002,121.6665039999998,118.58984400000008,110.51269500000035,109.87158199999976,113.0771479999994,118.0771479999994,111.53857400000015,113.84619099999964
229,105.38476599999922,104.23095699999976,103.46142599999985,119.10253900000043,113.58984400000008,118.7177729999994,121.79492200000004,121.15380900000036,116.6665039999998,114.61523400000078,116.2822270000006,118.20507799999996,115.51269500000035,114.10253900000043
230,103.9741210000002,104.10253900000043,98.9741210000002,116.15380900000036,113.3334960000002,117.43603499999972,117.05126999999993,120.12841800000024,115.76904300000024,115.0,115.12841800000024,113.9741210000002,117.69238299999961,114.87158199999976
231,97.56396500000028,97.94873000000007,90.89746099999957,103.0771479999994,106.0258789999998,115.25634799999989,110.0,116.53857400000015,108.3334960000002,111.41015599999992,109.74365200000011,107.30761700000039,116.41015599999992,115.64111300000059
232,88.9741210000002,88.84619099999964,83.0771479999994,87.69238299999961,96.53857400000015,113.20507799999996,104.87158199999976,113.3334960000002,99.74365200000011,107.56396500000028,103.0771479999994,101.2822270000006,111.53857400000015,115.64111300000059
233,82.17968800000017,81.9228520000006,79.10253900000043,79.74365200000011,91.53857400000015,112.43603499999972,104.10253900000043,112.43603499999972,95.89746099999957,106.41015599999992,98.7177729999994,98.7177729999994,105.38476599999922,115.25634799999989
234,79.48730499999965,81.15380900000036,80.38476599999922,82.30761700000039,93.84619099999964,113.58984400000008,106.41015599999992,113.58984400000008,98.58984400000008,108.0771479999994,98.3334960000002,100.0,100.89746099999957,114.61523400000078
235,81.0258789999998,85.76904300000024,84.48730499999965,91.0258789999998,101.15380900000036,115.76904300000024,108.58984400000008,114.87158199999976,105.25634799999989,110.64111300000059,100.51269500000035,103.20507799999996,99.61523400000078,113.84619099999964
236,84.23095699999976,91.2822270000006,87.94873000000007,97.17968800000017,107.43603499999972,117.43603499999972,108.0771479999994,113.9741210000002,110.51269500000035,111.2822270000006,102.82031300000017,105.38476599999922,100.76904300000024,112.69238299999961
237,85.89746099999957,92.30761700000039,87.43603499999972,95.0,106.79492200000004,117.17968800000017,104.23095699999976,110.38476599999922,110.12841800000024,108.3334960000002,102.82031300000017,104.23095699999976,101.79492200000004,111.2822270000006
238,83.9741210000002,87.05126999999993,83.20507799999996,85.76904300000024,97.94873000000007,114.61523400000078,98.46142599999985,104.61523400000078,103.7177729999994,102.94873000000007,99.74365200000011,100.51269500000035,100.64111300000059,110.51269500000035
239,80.38476599999922,80.51269500000035,78.3334960000002,77.05126999999993,87.17968800000017,110.76904300000024,93.7177729999994,99.48730499999965,95.0,98.7177729999994,95.89746099999957,97.17968800000017,97.17968800000017,111.0258789999998
240,79.35888699999941,80.89746099999957,77.30761700000039,76.9228520000006,83.46142599999985,107.56396500000028,92.82031300000017,98.0771479999994,89.87158199999976,99.48730499999965,95.64111300000059,97.69238299999961,95.12841800000024,112.56396500000028
241,84.35888699999941,92.69238299999961,82.43603499999972,88.0771479999994,91.9228520000006,106.9228520000006,97.05126999999993,101.6665039999998,92.05126999999993,106.0258789999998,102.05126999999993,102.82031300000017,98.58984400000008,114.61523400000078
242,94.48730499999965,111.6665039999998,92.17968800000017,105.51269500000035,108.9741210000002,109.35888699999941,105.0,107.82031300000017,100.12841800000024,114.23095699999976,112.94873000000007,110.12841800000024,107.94873000000007,116.6665039999998
243,105.0,128.3334960000002,102.30761700000039,120.51269500000035,124.48730499999965,113.84619099999964,112.82031300000017,112.69238299999961,108.46142599999985,119.10253900000043,123.0771479999994,115.38476599999922,118.46142599999985,118.46142599999985
244,111.0258789999998,135.12841800000024,107.69238299999961,126.41015599999992,130.51269500000035,118.20507799999996,116.53857400000015,113.46142599999985,111.79492200000004,118.20507799999996,127.30761700000039,116.2822270000006,123.3334960000002,119.23095699999976
245,110.38476599999922,131.2822270000006,106.0258789999998,122.17968800000017,125.64111300000059,120.12841800000024,114.74365200000011,109.74365200000011,108.3334960000002,112.82031300000017,124.35888699999941,112.82031300000017,118.9741210000002,118.7177729999994
246,105.12841800000024,121.53857400000015,98.0771479999994,111.79492200000004,115.0,118.3334960000002,109.35888699999941,103.7177729999994,100.12841800000024,106.0258789999998,115.76904300000024,106.6665039999998,107.17968800000017,117.30761700000039
247,98.58984400000008,112.05126999999993,87.94873000000007,101.2822270000006,104.87158199999976,113.84619099999964,103.58984400000008,97.82031300000017,90.76904300000024,99.74365200000011,104.74365200000011,100.12841800000024,93.3334960000002,115.76904300000024
248,94.35888699999941,107.05126999999993,81.0258789999998,95.25634799999989,99.10253900000043,108.58984400000008,100.76904300000024,94.10253900000043,83.9741210000002,95.38476599999922,94.61523400000078,95.76904300000024,83.46142599999985,114.74365200000011
249,94.35888699999941,108.84619099999964,80.76904300000024,95.51269500000035,97.94873000000007,105.38476599999922,102.69238299999961,93.9741210000002,81.79492200000004,93.9741210000002,88.46142599999985,95.25634799999989,79.61523400000078,114.35888699999941
250,98.58984400000008,117.05126999999993,86.79492200000004,101.79492200000004,99.61523400000078,106.0258789999998,108.9741210000002,97.82031300000017,85.0,95.76904300000024,87.94873000000007,98.7177729999994,81.0258789999998,114.87158199999976
251,104.74365200000011,128.46142599999985,95.76904300000024,111.53857400000015,103.7177729999994,110.38476599999922,117.30761700000039,104.23095699999976,92.43603499999972,99.61523400000078,92.94873000000007,105.38476599999922,85.25634799999989,115.89746099999957
252,110.25634799999989,138.58984400000008,104.23095699999976,120.76904300000024,111.53857400000015,115.76904300000024,125.0,111.2822270000006,101.53857400000015,103.7177729999994,101.15380900000036,113.20507799999996,90.38476599999922,117.05126999999993
253,112.82031300000017,142.94873000000007,108.7177729999994,125.76904300000024,123.0771479999994,118.58984400000008,129.61523400000078,116.79492200000004,109.10253900000043,106.41015599999992,109.35888699999941,119.48730499999965,94.48730499999965,117.82031300000017
254,111.53857400000015,140.0,107.69238299999961,124.48730499999965,133.0771479999994,116.79492200000004,130.12841800000024,119.61523400000078,112.05126999999993,106.79492200000004,113.84619099999964,120.89746099999957,95.76904300000024,117.82031300000017
255,106.41015599999992,131.41015599999992,102.05126999999993,117.69238299999961,135.38476599999922,112.30761700000039,126.2822270000006,119.35888699999941,109.23095699999976,105.0,112.17968800000017,116.15380900000036,92.05126999999993,117.05126999999993
256,99.35888699999941,122.43603499999972,94.35888699999941,109.23095699999976,128.20507799999996,108.84619099999964,119.87158199999976,116.9228520000006,103.3334960000002,102.69238299999961,104.74365200000011,107.56396500000028,84.10253900000043,115.64111300000059
257,94.23095699999976,118.9741210000002,89.10253900000043,103.46142599999985,117.43603499999972,108.7177729999994,114.48730499999965,114.35888699999941,99.87158199999976,103.3334960000002,96.6665039999998,100.51269500000035,76.53857400000015,113.9741210000002
258,94.48730499999965,124.23095699999976,89.10253900000043,102.94873000000007,111.15380900000036,111.6665039999998,113.3334960000002,114.61523400000078,103.58984400000008,108.84619099999964,93.9741210000002,100.0,74.61523400000078,112.43603499999972
259,100.12841800000024,134.87158199999976,93.7177729999994,106.6665039999998,112.17968800000017,114.10253900000043,116.41015599999992,118.46142599999985,113.84619099999964,117.56396500000028,98.84619099999964,106.0258789999998,79.35888699999941,111.9228520000006
260,106.2822270000006,142.94873000000007,99.23095699999976,110.64111300000059,116.15380900000036,113.46142599999985,119.74365200000011,123.58984400000008,123.0771479999994,122.82031300000017,106.6665039999998,113.58984400000008,85.51269500000035,112.43603499999972
261,107.05126999999993,141.79492200000004,101.0258789999998,110.64111300000059,115.89746099999957,109.48730499999965,118.0771479999994,125.12841800000024,123.7177729999994,118.84619099999964,110.51269500000035,116.53857400000015,86.15380900000036,113.58984400000008
262,101.9228520000006,133.20507799999996,98.46142599999985,106.53857400000015,110.0,105.38476599999922,110.51269500000035,121.0258789999998,115.38476599999922,107.30761700000039,107.69238299999961,113.3334960000002,79.74365200000011,114.74365200000011
263,96.6665039999998,125.89746099999957,94.87158199999976,103.0771479999994,103.58984400000008,105.0,102.43603499999972,114.35888699999941,105.38476599999922,97.56396500000028,102.94873000000007,108.0771479999994,72.05126999999993,115.12841800000024
264,97.56396500000028,128.20507799999996,94.74365200000011,105.25634799999989,102.82031300000017,108.7177729999994,100.89746099999957,110.51269500000035,102.17968800000017,98.3334960000002,103.0771479999994,106.6665039999998,70.38476599999922,114.87158199999976
265,105.0,139.7436520000001,98.84619099999964,113.46142599999985,108.84619099999964,113.84619099999964,107.43603499999972,111.9228520000006,107.43603499999972,109.61523400000078,108.9741210000002,110.51269500000035,76.41015599999992,114.10253900000043
266,113.7177729999994,152.82031300000017,104.35888699999941,123.46142599999985,117.30761700000039,116.6665039999998,116.41015599999992,116.15380900000036,115.25634799999989,122.17968800000017,115.25634799999989,116.9228520000006,84.23095699999976,113.20507799999996
267,117.30761700000039,158.84619099999964,107.56396500000028,129.7436520000001,122.94873000000007,115.89746099999957,120.25634799999989,118.46142599999985,118.0771479999994,126.53857400000015,116.0258789999998,121.0258789999998,85.89746099999957,112.17968800000017
268,113.7177729999994,154.87158199999976,106.9228520000006,130.0,122.94873000000007,113.46142599999985,116.0258789999998,116.2822270000006,113.46142599999985,120.12841800000024,110.51269500000035,120.89746099999957,79.10253900000043,111.9228520000006
269,106.2822270000006,144.7436520000001,103.9741210000002,126.15380900000036,118.46142599999985,111.9228520000006,107.82031300000017,110.64111300000059,104.35888699999941,108.20507799999996,103.46142599999985,117.82031300000017,68.46142599999985,113.3334960000002
270,99.48730499999965,134.61523400000078,100.76904300000024,121.41015599999992,111.53857400000015,112.43603499999972,102.05126999999993,103.84619099999964,96.15380900000036,97.56396500000028,99.10253900000043,114.48730499999965,60.12841800000024,115.64111300000059
271,96.41015599999992,129.10253900000043,99.23095699999976,119.10253900000043,105.12841800000024,114.61523400000078,102.43603499999972,98.46142599999985,91.41015599999992,92.43603499999972,98.0771479999994,113.20507799999996,57.30761700000039,117.30761700000039
272,97.94873000000007,129.7436520000001,100.25634799999989,120.51269500000035,101.6665039999998,117.05126999999993,107.94873000000007,96.2822270000006,89.87158199999976,92.94873000000007,97.94873000000007,114.48730499999965,59.102539000000434,117.17968800000017
273,102.69238299999961,135.2563479999999,103.20507799999996,125.12841800000024,103.20507799999996,118.46142599999985,115.12841800000024,97.69238299999961,90.12841800000024,96.79492200000004,96.6665039999998,117.43603499999972,61.79492200000004,115.64111300000059
274,107.69238299999961,143.3334960000002,106.53857400000015,129.87158199999976,110.25634799999989,118.46142599999985,120.64111300000059,102.05126999999993,91.15380900000036,100.38476599999922,94.23095699999976,119.74365200000011,62.05126999999993,113.58984400000008
275,110.12841800000024,150.0,108.58984400000008,131.2822270000006,119.61523400000078,116.79492200000004,122.94873000000007,107.05126999999993,93.0771479999994,101.2822270000006,91.9228520000006,119.61523400000078,58.846190999999635,112.43603499999972
276,109.10253900000043,152.43603499999972,108.46142599999985,128.20507799999996,126.2822270000006,114.10253900000043,122.43603499999972,110.76904300000024,95.51269500000035,99.10253900000043,91.0258789999998,117.43603499999972,53.7177729999994,112.82031300000017
277,106.0258789999998,150.6411130000006,106.41015599999992,122.82031300000017,126.41015599999992,111.53857400000015,120.76904300000024,112.30761700000039,98.0771479999994,95.38476599999922,91.9228520000006,114.48730499999965,49.61523400000078,114.35888699999941
278,103.20507799999996,147.56396500000028,103.7177729999994,119.48730499999965,120.64111300000059,110.0,119.10253900000043,112.56396500000028,99.74365200000011,92.94873000000007,93.3334960000002,111.9228520000006,48.0771479999994,115.64111300000059
279,101.15380900000036,146.2822270000006,101.6665039999998,121.2822270000006,114.48730499999965,110.25634799999989,118.20507799999996,113.0771479999994,100.38476599999922,93.84619099999964,92.82031300000017,110.25634799999989,48.589844000000085,115.51269500000035
280,99.23095699999976,147.17968800000017,100.76904300000024,126.6665039999998,112.69238299999961,111.6665039999998,118.58984400000008,115.0,100.89746099999957,98.0771479999994,89.61523400000078,109.87158199999976,49.61523400000078,114.23095699999976
281,96.2822270000006,148.3334960000002,100.64111300000059,130.6411130000006,115.38476599999922,112.82031300000017,119.61523400000078,117.30761700000039,102.17968800000017,102.56396500000028,84.74365200000011,109.74365200000011,49.87158199999976,113.0771479999994
282,92.05126999999993,146.2822270000006,99.74365200000011,128.46142599999985,117.69238299999961,112.56396500000028,119.74365200000011,118.0771479999994,103.3334960000002,103.9741210000002,79.61523400000078,108.20507799999996,48.46142599999985,112.56396500000028
283,86.6665039999998,139.7436520000001,96.15380900000036,119.74365200000011,115.25634799999989,111.2822270000006,117.30761700000039,115.64111300000059,101.9228520000006,100.25634799999989,74.35888699999941,104.48730499999965,44.48730499999965,112.94873000000007
284,81.0258789999998,130.89746099999957,89.48730499999965,108.46142599999985,108.3334960000002,110.25634799999989,111.41015599999992,109.74365200000011,96.9228520000006,92.82031300000017,68.84619099999964,99.48730499999965,38.0771479999994,113.3334960000002
285,76.9228520000006,124.35888699999941,82.17968800000017,100.38476599999922,101.79492200000004,110.64111300000059,104.23095699999976,102.94873000000007,90.51269500000035,85.76904300000024,63.7177729999994,95.25634799999989,31.794922000000042,113.9741210000002
286,76.2822270000006,125.12841800000024,78.9741210000002,100.51269500000035,101.2822270000006,112.30761700000039,100.12841800000024,99.35888699999941,87.30761700000039,83.46142599999985,62.30761700000039,94.10253900000043,30.25634799999989,114.23095699999976
287,79.87158199999976,133.9741210000002,82.69238299999961,109.87158199999976,108.58984400000008,114.48730499999965,102.94873000000007,102.94873000000007,90.76904300000024,87.56396500000028,67.17968800000017,96.79492200000004,36.2822270000006,114.10253900000043
288,86.0258789999998,146.79492200000004,91.53857400000015,123.58984400000008,119.35888699999941,116.53857400000015,111.9228520000006,112.30761700000039,99.61523400000078,93.84619099999964,77.17968800000017,101.41015599999992,47.43603499999972,113.58984400000008
289,90.51269500000035,155.89746099999957,99.48730499999965,133.7177729999994,126.15380900000036,117.94873000000007,120.64111300000059,121.2822270000006,107.69238299999961,96.0258789999998,86.53857400000015,105.12841800000024,56.666503999999804,113.3334960000002
290,90.12841800000024,155.89746099999957,101.15380900000036,134.48730499999965,124.61523400000078,118.20507799999996,121.9228520000006,122.94873000000007,109.23095699999976,90.89746099999957,89.10253900000043,105.25634799999989,58.0771479999994,113.46142599999985
291,85.38476599999922,147.94873000000007,96.15380900000036,126.15380900000036,117.17968800000017,117.43603499999972,114.35888699999941,116.15380900000036,104.35888699999941,82.94873000000007,84.35888699999941,101.79492200000004,52.05126999999993,113.46142599999985
292,80.89746099999957,139.48730499999965,89.48730499999965,115.25634799999989,110.38476599999922,115.89746099999957,103.7177729999994,107.05126999999993,98.84619099999964,80.64111300000059,77.82031300000017,98.0771479999994,44.61523400000078,113.0771479999994
293,81.2822270000006,138.0771479999994,87.56396500000028,110.0,110.12841800000024,115.25634799999989,97.56396500000028,103.20507799999996,98.0771479999994,88.7177729999994,75.89746099999957,98.0771479999994,41.79492200000004,112.69238299999961
294,87.82031300000017,145.38476599999922,92.56396500000028,114.23095699999976,116.41015599999992,116.41015599999992,99.23095699999976,106.6665039999998,102.17968800000017,102.82031300000017,80.76904300000024,103.0771479999994,45.12841800000024,112.56396500000028
295,96.9228520000006,156.41015599999992,101.2822270000006,125.51269500000035,123.58984400000008,118.58984400000008,105.89746099999957,112.56396500000028,105.64111300000059,113.7177729999994,88.46142599999985,110.38476599999922,51.9228520000006,112.94873000000007
296,103.0771479999994,163.58984400000008,107.17968800000017,137.05126999999993,124.61523400000078,119.48730499999965,111.41015599999992,114.10253900000043,102.43603499999972,113.46142599999985,93.3334960000002,115.0,56.79492200000004,113.84619099999964
297,102.43603499999972,163.58984400000008,106.0258789999998,142.17968800000017,117.69238299999961,117.30761700000039,110.89746099999957,107.94873000000007,91.9228520000006,102.43603499999972,91.9228520000006,113.58984400000008,55.897460999999566,115.25634799999989
298,95.64111300000059,158.20507799999996,98.46142599999985,137.94873000000007,107.05126999999993,112.56396500000028,104.87158199999976,96.9228520000006,79.48730499999965,87.82031300000017,85.12841800000024,107.43603499999972,48.7177729999994,116.41015599999992
299,87.43603499999972,152.56396500000028,89.87158199999976,127.17968800000017,99.48730499999965,107.43603499999972,97.69238299999961,87.69238299999961,72.43603499999972,78.3334960000002,77.30761700000039,101.6665039999998,39.23095699999976,116.2822270000006
300,83.7177729999994,150.38476599999922,86.0258789999998,116.41015599999992,98.3334960000002,104.87158199999976,94.10253900000043,85.64111300000059,73.9741210000002,78.58984400000008,73.46142599999985,100.64111300000059,32.82031300000017,115.0
301,87.30761700000039,152.05126999999993,89.23095699999976,111.2822270000006,102.43603499999972,106.0258789999998,95.89746099999957,91.15380900000036,81.2822270000006,86.0258789999998,75.89746099999957,105.38476599999922,32.94873000000007,113.9741210000002
302,95.64111300000059,154.61523400000078,96.79492200000004,113.58984400000008,107.56396500000028,109.87158199999976,101.53857400000015,99.10253900000043,88.3334960000002,94.74365200000011,82.56396500000028,112.05126999999993,37.56396500000028,114.10253900000043
303,103.58984400000008,155.2563479999999,103.46142599999985,120.51269500000035,110.12841800000024,113.46142599999985,107.43603499999972,103.9741210000002,91.15380900000036,99.23095699999976,88.9741210000002,116.41015599999992,42.05126999999993,115.0
304,106.53857400000015,152.82031300000017,105.0,126.9228520000006,108.58984400000008,113.84619099999964,110.76904300000024,103.58984400000008,90.25634799999989,97.56396500000028,91.2822270000006,116.0258789999998,42.94873000000007,115.51269500000035
305,103.46142599999985,149.23095699999976,101.79492200000004,129.23095699999976,104.48730499999965,110.12841800000024,110.64111300000059,100.76904300000024,88.7177729999994,91.9228520000006,89.35888699999941,112.43603499999972,40.38476599999922,115.12841800000024
306,96.79492200000004,147.17968800000017,97.05126999999993,126.6665039999998,101.15380900000036,105.0,108.58984400000008,100.0,89.74365200000011,86.15380900000036,85.76904300000024,108.7177729999994,36.666503999999804,114.48730499999965
307,89.87158199999976,147.82031300000017,94.35888699999941,121.2822270000006,100.64111300000059,101.79492200000004,107.43603499999972,104.10253900000043,93.84619099999964,83.9741210000002,83.46142599999985,107.17968800000017,34.74365200000011,114.10253900000043
308,85.38476599999922,149.48730499999965,94.48730499999965,115.89746099999957,102.17968800000017,102.56396500000028,108.46142599999985,111.0258789999998,99.48730499999965,86.6665039999998,83.20507799999996,107.17968800000017,35.38476599999922,114.61523400000078
309,84.61523400000078,149.87158199999976,96.0258789999998,112.43603499999972,102.94873000000007,106.6665039999998,110.76904300000024,116.2822270000006,104.35888699999941,93.3334960000002,84.10253900000043,106.6665039999998,37.69238299999961,115.51269500000035
310,87.56396500000028,148.7177729999994,97.56396500000028,111.9228520000006,102.56396500000028,111.53857400000015,112.56396500000028,117.69238299999961,107.17968800000017,101.79492200000004,85.12841800000024,104.61523400000078,40.38476599999922,116.0258789999998
311,92.94873000000007,148.58984400000008,97.94873000000007,114.10253900000043,103.7177729999994,115.0,112.94873000000007,116.79492200000004,108.7177729999994,109.61523400000078,86.53857400000015,102.30761700000039,42.69238299999961,115.64111300000059
312,98.58984400000008,151.41015599999992,97.17968800000017,117.69238299999961,108.7177729999994,116.6665039999998,112.05126999999993,116.41015599999992,109.87158199999976,114.61523400000078,88.20507799999996,101.9228520000006,44.102539000000434,114.48730499999965
313,101.41015599999992,155.51269500000035,94.74365200000011,121.0258789999998,115.64111300000059,116.9228520000006,109.74365200000011,117.56396500000028,110.89746099999957,114.35888699999941,89.61523400000078,103.58984400000008,44.48730499999965,112.69238299999961
314,99.61523400000078,156.2822270000006,90.89746099999957,121.6665039999998,119.23095699999976,116.79492200000004,106.2822270000006,117.94873000000007,110.0,107.30761700000039,88.84619099999964,104.87158199999976,43.46142599999985,111.53857400000015
315,93.7177729999994,151.41015599999992,86.41015599999992,118.9741210000002,115.64111300000059,116.41015599999992,102.43603499999972,115.12841800000024,106.41015599999992,95.25634799999989,85.51269500000035,103.0771479999994,40.25634799999989,111.79492200000004
316,87.17968800000017,143.46142599999985,83.20507799999996,114.10253900000043,106.79492200000004,116.0258789999998,99.61523400000078,109.74365200000011,101.2822270000006,84.10253900000043,80.89746099999957,98.7177729999994,35.38476599999922,113.3334960000002
317,85.12841800000024,138.58984400000008,83.84619099999964,110.51269500000035,99.48730499999965,115.51269500000035,99.61523400000078,105.12841800000024,98.0771479999994,80.76904300000024,77.94873000000007,95.25634799999989,31.153809000000365,114.61523400000078
318,89.87158199999976,141.0258789999998,88.84619099999964,111.2822270000006,100.12841800000024,115.25634799999989,103.3334960000002,105.0,99.35888699999941,88.3334960000002,78.20507799999996,96.9228520000006,30.769043000000238,114.74365200000011
319,99.87158199999976,150.38476599999922,96.53857400000015,116.79492200000004,109.48730499999965,115.12841800000024,110.12841800000024,110.0,105.12841800000024,103.20507799999996,81.9228520000006,103.9741210000002,36.153809000000365,113.7177729999994
320,110.25634799999989,162.05126999999993,103.46142599999985,124.10253900000043,122.43603499999972,115.38476599999922,117.56396500000028,117.17968800000017,112.05126999999993,117.30761700000039,87.30761700000039,112.69238299999961,46.410155999999915,113.0771479999994
321,115.64111300000059,170.2563479999999,106.0258789999998,129.10253900000043,131.2822270000006,115.64111300000059,122.82031300000017,121.79492200000004,115.89746099999957,122.82031300000017,91.0258789999998,117.56396500000028,56.2822270000006,113.0771479999994
322,112.82031300000017,171.0258789999998,102.43603499999972,128.0771479999994,130.0,115.51269500000035,122.94873000000007,120.12841800000024,112.94873000000007,116.15380900000036,89.74365200000011,115.64111300000059,58.589844000000085,113.20507799999996
323,102.30761700000039,163.20507799999996,93.58984400000008,120.0,118.58984400000008,113.7177729999994,116.0258789999998,112.05126999999993,102.43603499999972,98.84619099999964,81.9228520000006,108.58984400000008,49.74365200000011,113.3334960000002
324,88.84619099999964,150.51269500000035,82.82031300000017,108.7177729999994,102.82031300000017,110.0,103.84619099999964,100.76904300000024,87.43603499999972,78.46142599999985,70.38476599999922,100.64111300000059,32.82031300000017,113.20507799999996
325,79.61523400000078,139.87158199999976,75.89746099999957,100.76904300000024,90.89746099999957,105.25634799999989,92.56396500000028,91.9228520000006,74.74365200000011,64.23095699999976,61.79492200000004,96.15380900000036,17.43603499999972,112.82031300000017
326,80.0,137.6923829999996,77.56396500000028,101.79492200000004,88.58984400000008,101.53857400000015,89.23095699999976,90.0,70.64111300000059,62.69238299999961,61.79492200000004,97.30761700000039,12.82031300000017,112.30761700000039
327,89.74365200000011,143.84619099999964,87.17968800000017,111.2822270000006,94.74365200000011,100.64111300000059,96.53857400000015,94.87158199999976,76.2822270000006,72.69238299999961,70.38476599999922,102.69238299999961,20.769043000000238,112.17968800000017
328,102.17968800000017,152.6923829999996,98.7177729999994,122.82031300000017,103.0771479999994,102.82031300000017,109.23095699999976,101.41015599999992,85.51269500000035,85.38476599999922,81.2822270000006,108.9741210000002,33.7177729999994,112.69238299999961
329,109.61523400000078,156.9228520000006,104.87158199999976,128.58984400000008,106.9228520000006,106.15380900000036,118.58984400000008,103.58984400000008,89.87158199999976,90.76904300000024,87.05126999999993,112.56396500000028,40.51269500000035,113.7177729999994
330,108.58984400000008,154.3588869999994,102.94873000000007,125.76904300000024,104.87158199999976,108.46142599999985,118.7177729999994,99.74365200000011,85.89746099999957,85.38476599999922,84.35888699999941,111.79492200000004,36.2822270000006,114.23095699999976
331,102.43603499999972,148.46142599999985,96.15380900000036,118.0771479999994,100.38476599999922,109.10253900000043,111.2822270000006,93.0771479999994,77.05126999999993,74.23095699999976,75.89746099999957,108.3334960000002,25.384765999999217,114.23095699999976
332,97.17968800000017,144.61523400000078,90.25634799999989,111.6665039999998,97.30761700000039,109.23095699999976,102.82031300000017,88.58984400000008,69.87158199999976,65.51269500000035,67.30761700000039,105.0,17.30761700000039,113.9741210000002
333,96.2822270000006,145.38476599999922,88.7177729999994,110.12841800000024,96.6665039999998,109.74365200000011,98.9741210000002,88.46142599999985,68.58984400000008,64.61523400000078,63.0771479999994,103.7177729999994,17.43603499999972,114.10253900000043
334,98.9741210000002,149.10253900000043,91.53857400000015,112.17968800000017,97.94873000000007,110.51269500000035,101.6665039999998,92.05126999999993,73.7177729999994,71.53857400000015,63.974121000000196,104.74365200000011,24.358886999999413,114.87158199999976
335,101.79492200000004,153.3334960000002,96.0258789999998,114.87158199999976,100.64111300000059,110.76904300000024,108.3334960000002,97.30761700000039,82.69238299999961,82.17968800000017,68.20507799999996,107.56396500000028,32.69238299999961,115.64111300000059
336,103.7177729999994,156.6665039999998,100.0,116.0258789999998,105.0,110.89746099999957,114.74365200000011,102.82031300000017,92.94873000000007,92.30761700000039,73.84619099999964,111.41015599999992,38.589844000000085,115.64111300000059
337,105.64111300000059,159.3588869999994,102.05126999999993,115.51269500000035,110.51269500000035,111.41015599999992,117.82031300000017,108.0771479999994,102.56396500000028,99.23095699999976,78.9741210000002,115.0,41.410155999999915,114.48730499999965
338,108.58984400000008,161.41015599999992,102.43603499999972,113.7177729999994,114.48730499999965,111.79492200000004,116.9228520000006,112.69238299999961,109.48730499999965,101.9228520000006,82.30761700000039,116.79492200000004,42.94873000000007,112.30761700000039
339,111.6665039999998,162.05126999999993,101.0258789999998,111.79492200000004,115.12841800000024,111.15380900000036,113.3334960000002,115.38476599999922,111.9228520000006,100.12841800000024,83.46142599999985,116.2822270000006,44.102539000000434,110.76904300000024
340,112.82031300000017,161.0258789999998,98.7177729999994,111.2822270000006,113.46142599999985,108.9741210000002,109.61523400000078,116.0258789999998,110.12841800000024,95.25634799999989,82.69238299999961,114.48730499999965,44.61523400000078,110.89746099999957
341,112.17968800000017,159.87158199999976,96.79492200000004,113.9741210000002,112.43603499999972,106.41015599999992,108.20507799999996,116.0258789999998,107.05126999999993,90.89746099999957,82.30761700000039,113.20507799999996,44.74365200000011,112.82031300000017
342,111.79492200000004,161.53857400000015,96.6665039999998,120.51269500000035,114.87158199999976,105.25634799999989,110.12841800000024,117.56396500000028,107.05126999999993,91.53857400000015,84.48730499999965,113.9741210000002,46.79492200000004,114.87158199999976
343,114.10253900000043,167.56396500000028,98.3334960000002,128.58984400000008,121.2822270000006,106.9228520000006,114.35888699999941,121.79492200000004,113.0771479999994,99.74365200000011,90.0,116.41015599999992,53.46142599999985,115.64111300000059
344,119.61523400000078,176.53857400000015,100.89746099999957,134.87158199999976,128.84619099999964,111.15380900000036,119.23095699999976,127.43603499999972,123.46142599999985,112.94873000000007,96.6665039999998,119.23095699999976,64.48730499999965,114.74365200000011
345,125.64111300000059,183.3334960000002,102.82031300000017,136.41015599999992,133.46142599999985,115.51269500000035,122.05126999999993,131.2822270000006,132.94873000000007,123.84619099999964,100.51269500000035,120.25634799999989,74.23095699999976,112.69238299999961
346,127.69238299999961,182.82031300000017,101.79492200000004,132.6923829999996,132.3076170000004,117.82031300000017,120.89746099999957,130.38476599999922,135.2563479999999,124.10253900000043,97.94873000000007,118.46142599999985,74.48730499999965,110.25634799999989
347,122.82031300000017,172.56396500000028,96.53857400000015,124.48730499999965,125.12841800000024,117.56396500000028,114.87158199999976,123.46142599999985,126.9228520000006,110.51269500000035,88.3334960000002,114.23095699999976,60.51269500000035,108.7177729999994
348,111.41015599999992,156.0258789999998,87.43603499999972,113.84619099999964,114.61523400000078,115.64111300000059,106.0258789999998,112.56396500000028,109.74365200000011,87.69238299999961,75.25634799999989,108.46142599999985,36.410155999999915,109.10253900000043
349,98.84619099999964,141.2822270000006,78.46142599999985,104.10253900000043,105.25634799999989,113.58984400000008,98.0771479999994,101.9228520000006,91.0258789999998,66.6665039999998,64.35888699999941,102.94873000000007,13.589844000000085,111.2822270000006
350,91.2822270000006,135.2563479999999,73.58984400000008,98.20507799999996,100.76904300000024,112.94873000000007,94.74365200000011,95.76904300000024,78.46142599999985,57.30761700000039,60.0,99.23095699999976,4.230956999999762,114.10253900000043
351,92.30761700000039,138.7177729999994,74.87158199999976,98.0771479999994,102.05126999999993,114.10253900000043,96.79492200000004,95.25634799999989,75.89746099999957,62.30761700000039,62.82031300000017,98.7177729999994,12.948730000000069,116.0258789999998
352,100.0,146.6665039999998,81.15380900000036,102.69238299999961,106.6665039999998,116.15380900000036,101.9228520000006,97.94873000000007,80.89746099999957,76.0258789999998,69.48730499999965,101.41015599999992,33.974121000000196,116.0258789999998
353,109.48730499999965,152.17968800000017,89.23095699999976,108.7177729999994,111.53857400000015,116.6665039999998,106.2822270000006,100.64111300000059,87.94873000000007,88.7177729999994,76.2822270000006,106.0258789999998,55.64111300000059,114.35888699999941
354,116.15380900000036,151.53857400000015,95.89746099999957,112.69238299999961,114.10253900000043,113.58984400000008,107.30761700000039,101.15380900000036,91.6665039999998,93.58984400000008,81.79492200000004,110.89746099999957,68.46142599999985,111.6665039999998
355,118.46142599999985,145.51269500000035,99.10253900000043,112.69238299999961,113.9741210000002,107.43603499999972,105.25634799999989,99.23095699999976,90.0,90.25634799999989,86.0258789999998,114.48730499999965,71.15380900000036,109.10253900000043
356,116.9228520000006,137.3076170000004,99.10253900000043,110.0,112.56396500000028,101.53857400000015,102.30761700000039,96.15380900000036,84.35888699999941,83.7177729999994,89.74365200000011,116.41015599999992,68.0771479999994,108.46142599999985
357,113.9741210000002,130.76904300000024,97.30761700000039,107.94873000000007,111.6665039999998,98.7177729999994,101.2822270000006,93.7177729999994,79.48730499999965,80.25634799999989,92.94873000000007,116.9228520000006,65.76904300000024,110.25634799999989
358,112.30761700000039,128.46142599999985,96.15380900000036,109.10253900000043,113.0771479999994,100.38476599999922,104.10253900000043,93.46142599999985,79.74365200000011,83.0771479999994,96.2822270000006,117.17968800000017,68.46142599999985,113.84619099999964
359,114.10253900000043,130.51269500000035,96.6665039999998,113.3334960000002,116.79492200000004,105.0,110.12841800000024,96.2822270000006,86.53857400000015,91.2822270000006,100.76904300000024,117.69238299999961,76.2822270000006,117.43603499999972
360,118.58984400000008,134.23095699999976,98.46142599999985,117.30761700000039,120.25634799999989,110.25634799999989,116.0258789999998,101.0258789999998,96.6665039999998,101.15380900000036,106.0258789999998,118.3334960000002,86.2822270000006,118.9741210000002
361,122.56396500000028,135.51269500000035,99.61523400000078,116.9228520000006,119.48730499999965,113.7177729999994,118.46142599999985,104.61523400000078,104.35888699999941,107.69238299999961,109.61523400000078,118.58984400000008,93.84619099999964,117.94873000000007
362,121.6665039999998,131.2822270000006,97.30761700000039,110.76904300000024,113.20507799999996,114.10253900000043,114.87158199999976,103.9741210000002,105.38476599999922,107.82031300000017,108.84619099999964,118.20507799999996,95.38476599999922,114.87158199999976
363,114.87158199999976,122.69238299999961,91.2822270000006,102.56396500000028,105.25634799999989,111.6665039999998,106.6665039999998,98.9741210000002,100.0,101.9228520000006,103.9741210000002,117.05126999999993,90.76904300000024,111.2822270000006
364,105.89746099999957,115.38476599999922,84.87158199999976,98.46142599999985,102.17968800000017,108.3334960000002,98.3334960000002,93.20507799999996,93.20507799999996,94.87158199999976,99.10253900000043,115.38476599999922,83.7177729999994,108.7177729999994
365,101.0258789999998,115.0,82.69238299999961,102.17968800000017,107.43603499999972,107.56396500000028,95.76904300000024,91.6665039999998,91.15380900000036,92.82031300000017,99.35888699999941,114.74365200000011,79.74365200000011,108.9741210000002
366,103.3334960000002,123.0771479999994,86.9228520000006,111.9228520000006,118.46142599999985,110.89746099999957,101.2822270000006,97.17968800000017,97.05126999999993,99.10253900000043,106.79492200000004,115.64111300000059,83.46142599999985,112.43603499999972
367,110.76904300000024,134.23095699999976,94.87158199999976,121.79492200000004,128.7177729999994,116.41015599999992,111.41015599999992,107.30761700000039,108.46142599999985,111.15380900000036,117.30761700000039,117.69238299999961,93.84619099999964,117.43603499999972
368,117.17968800000017,140.38476599999922,100.89746099999957,125.64111300000059,132.94873000000007,120.0,118.9741210000002,116.9228520000006,119.48730499999965,121.53857400000015,123.9741210000002,118.7177729999994,104.10253900000043,121.2822270000006
369,117.17968800000017,136.6665039999998,100.12841800000024,121.53857400000015,130.0,118.84619099999964,118.7177729999994,121.0258789999998,124.61523400000078,123.46142599999985,121.41015599999992,117.30761700000039,106.0258789999998,121.79492200000004
370,110.0,125.51269500000035,92.82031300000017,112.05126999999993,122.82031300000017,113.84619099999964,111.0258789999998,119.10253900000043,122.82031300000017,116.6665039999998,111.0258789999998,113.9741210000002,97.05126999999993,118.9741210000002
371,100.38476599999922,114.23095699999976,83.0771479999994,102.17968800000017,115.76904300000024,108.58984400000008,101.79492200000004,114.48730499999965,117.82031300000017,107.30761700000039,99.10253900000043,110.76904300000024,81.9228520000006,114.74365200000011
372,94.74365200000011,110.0,76.41015599999992,96.41015599999992,111.41015599999992,105.76904300000024,97.82031300000017,111.6665039999998,114.74365200000011,103.20507799999996,92.69238299999961,109.74365200000011,70.51269500000035,111.9228520000006
373,96.2822270000006,113.7177729999994,76.0258789999998,96.9228520000006,110.76904300000024,106.53857400000015,102.05126999999993,113.20507799999996,116.15380900000036,107.56396500000028,94.35888699999941,111.15380900000036,68.9741210000002,111.9228520000006
374,101.79492200000004,120.51269500000035,80.0,101.9228520000006,112.94873000000007,110.0,111.9228520000006,117.82031300000017,119.74365200000011,116.79492200000004,100.25634799999989,113.7177729999994,76.15380900000036,114.10253900000043
375,104.61523400000078,124.23095699999976,83.9741210000002,107.17968800000017,116.15380900000036,113.9741210000002,120.38476599999922,121.53857400000015,121.2822270000006,123.3334960000002,103.20507799999996,115.0,83.9741210000002,115.76904300000024
376,100.76904300000024,121.79492200000004,84.61523400000078,108.46142599999985,118.7177729999994,115.64111300000059,121.6665039999998,121.15380900000036,117.82031300000017,121.6665039999998,99.10253900000043,113.58984400000008,85.0,115.25634799999989
377,92.05126999999993,115.51269500000035,81.79492200000004,104.48730499999965,119.87158199999976,113.84619099999964,115.64111300000059,115.89746099999957,110.25634799999989,111.9228520000006,90.25634799999989,110.25634799999989,78.20507799999996,113.0771479999994
378,84.74365200000011,110.25634799999989,78.46142599999985,97.30761700000039,119.61523400000078,109.61523400000078,107.30761700000039,108.46142599999985,102.82031300000017,100.12841800000024,83.0771479999994,107.30761700000039,69.74365200000011,111.53857400000015
379,84.10253900000043,109.87158199999976,77.56396500000028,91.0258789999998,118.9741210000002,106.2822270000006,102.82031300000017,102.82031300000017,99.35888699999941,93.3334960000002,82.17968800000017,106.6665039999998,67.30761700000039,112.56396500000028
380,91.15380900000036,114.35888699999941,79.87158199999976,89.48730499999965,118.9741210000002,106.15380900000036,103.9741210000002,101.15380900000036,100.51269500000035,94.87158199999976,87.05126999999993,108.7177729999994,73.20507799999996,115.51269500000035
381,101.41015599999992,120.51269500000035,83.7177729999994,93.7177729999994,119.10253900000043,108.84619099999964,107.94873000000007,102.43603499999972,102.94873000000007,101.2822270000006,93.3334960000002,112.17968800000017,83.3334960000002,118.3334960000002
382,108.84619099999964,123.7177729999994,86.41015599999992,100.64111300000059,117.94873000000007,112.05126999999993,110.12841800000024,103.9741210000002,102.17968800000017,105.89746099999957,96.6665039999998,115.25634799999989,90.0,118.58984400000008
383,110.0,121.6665039999998,86.79492200000004,105.64111300000059,114.61523400000078,113.3334960000002,108.9741210000002,103.3334960000002,96.53857400000015,103.58984400000008,95.89746099999957,116.9228520000006,89.23095699999976,115.89746099999957
