,EEG.AF3,EEG.F7,EEG.F3,EEG.FC5,EEG.T7,EEG.P7,EEG.O1,EEG.O2,EEG.P8,EEG.T8,EEG.FC6,EEG.F4,EEG.F8,EEG.AF4
0,107.43603499999972,171.9228520000006,87.56396500000028,49.61523400000078,141.0258789999998,117.05126999999993,105.51269500000035,106.41015599999992,103.46142599999985,86.79492200000004,84.61523400000078,100.25634799999989,34.23095699999976,113.20507799999996
1,99.74365200000011,165.6411130000006,83.20507799999996,47.94873000000007,136.6665039999998,116.9228520000006,101.41015599999992,101.9228520000006,100.38476599999922,85.0,80.64111300000059,99.61523400000078,25.384765999999217,112.43603499999972
2,95.64111300000059,162.43603499999972,83.7177729999994,47.17968800000017,132.6923829999996,116.41015599999992,101.9228520000006,101.41015599999992,100.64111300000059,88.9741210000002,80.64111300000059,99.74365200000011,21.410155999999915,112.30761700000039
3,96.6665039999998,162.94873000000007,88.0771479999994,48.46142599999985,129.61523400000078,115.89746099999957,105.0,104.87158199999976,104.23095699999976,95.89746099999957,83.20507799999996,100.51269500000035,24.358886999999413,111.9228520000006
4,102.17968800000017,166.9228520000006,93.46142599999985,52.56396500000028,128.3334960000002,116.0258789999998,107.43603499999972,109.23095699999976,109.10253900000043,101.6665039999998,86.9228520000006,102.17968800000017,32.69238299999961,111.15380900000036
5,110.51269500000035,173.0771479999994,97.56396500000028,58.846190999999635,130.38476599999922,116.6665039999998,107.94873000000007,112.05126999999993,113.3334960000002,104.35888699999941,91.41015599999992,105.64111300000059,43.46142599999985,110.51269500000035
6,118.58984400000008,179.48730499999965,100.0,64.87158199999976,136.53857400000015,117.05126999999993,107.56396500000028,113.0771479999994,115.64111300000059,104.74365200000011,96.41015599999992,110.89746099999957,53.846190999999635,110.76904300000024
7,123.3334960000002,183.46142599999985,101.2822270000006,67.30761700000039,144.3588869999994,116.6665039999998,108.84619099999964,113.46142599999985,116.6665039999998,105.12841800000024,100.64111300000059,115.64111300000059,62.30761700000039,111.79492200000004
8,122.56396500000028,183.3334960000002,101.6665039999998,64.61523400000078,150.12841800000024,116.15380900000036,111.9228520000006,114.48730499999965,116.9228520000006,106.79492200000004,101.79492200000004,117.17968800000017,66.79492200000004,112.94873000000007
9,116.6665039999998,178.58984400000008,101.2822270000006,58.20507799999996,150.89746099999957,116.15380900000036,115.12841800000024,115.89746099999957,116.41015599999992,108.46142599999985,97.56396500000028,114.48730499999965,65.0,113.84619099999964
10,107.94873000000007,170.89746099999957,99.23095699999976,51.79492200000004,147.17968800000017,116.53857400000015,115.25634799999989,115.89746099999957,114.10253900000043,107.30761700000039,88.58984400000008,108.9741210000002,56.9228520000006,114.23095699999976
11,100.0,162.82031300000017,94.74365200000011,48.7177729999994,141.2822270000006,116.53857400000015,110.89746099999957,113.0771479999994,109.87158199999976,101.79492200000004,78.7177729999994,103.84619099999964,45.897460999999566,114.35888699999941
12,95.76904300000024,157.56396500000028,89.10253900000043,49.61523400000078,135.89746099999957,115.64111300000059,104.48730499999965,107.94873000000007,105.0,93.58984400000008,72.05126999999993,100.89746099999957,37.69238299999961,114.48730499999965
13,95.76904300000024,155.89746099999957,84.61523400000078,51.79492200000004,131.79492200000004,114.61523400000078,100.12841800000024,102.56396500000028,101.0258789999998,86.6665039999998,70.51269500000035,100.12841800000024,36.53857400000015,115.12841800000024
14,97.82031300000017,156.6665039999998,83.58984400000008,52.69238299999961,128.9741210000002,114.23095699999976,100.64111300000059,99.61523400000078,98.46142599999985,84.48730499999965,72.30761700000039,100.25634799999989,41.2822270000006,115.89746099999957
15,100.0,157.3076170000004,86.0258789999998,51.79492200000004,126.79492200000004,114.48730499999965,105.25634799999989,99.74365200000011,97.17968800000017,87.43603499999972,74.10253900000043,100.38476599999922,47.43603499999972,116.2822270000006
16,100.89746099999957,156.6665039999998,90.51269500000035,50.897460999999566,126.15380900000036,114.74365200000011,111.41015599999992,101.0258789999998,96.41015599999992,92.94873000000007,73.84619099999964,101.15380900000036,50.12841800000024,116.41015599999992
17,101.41015599999992,154.61523400000078,95.25634799999989,51.79492200000004,128.20507799999996,114.48730499999965,115.76904300000024,101.2822270000006,95.64111300000059,97.94873000000007,72.43603499999972,103.7177729999994,47.94873000000007,116.53857400000015
18,102.69238299999961,153.0771479999994,98.9741210000002,55.12841800000024,133.3334960000002,113.84619099999964,116.79492200000004,100.25634799999989,95.64111300000059,100.76904300000024,71.79492200000004,108.20507799999996,44.23095699999976,116.6665039999998
19,105.76904300000024,153.9741210000002,101.0258789999998,59.102539000000434,139.23095699999976,113.3334960000002,115.76904300000024,100.0,96.9228520000006,101.15380900000036,73.84619099999964,113.58984400000008,43.46142599999985,116.2822270000006
20,110.25634799999989,158.3334960000002,102.30761700000039,61.025878999999804,142.6923829999996,113.3334960000002,115.25634799999989,102.56396500000028,100.12841800000024,100.51269500000035,78.9741210000002,117.82031300000017,48.20507799999996,115.51269500000035
21,115.0,164.23095699999976,103.20507799999996,59.48730499999965,142.56396500000028,114.10253900000043,116.53857400000015,107.56396500000028,104.10253900000043,100.38476599999922,85.64111300000059,119.61523400000078,55.897460999999566,115.0
22,117.82031300000017,167.82031300000017,103.9741210000002,56.025878999999804,140.0,115.25634799999989,118.3334960000002,112.05126999999993,106.2822270000006,101.41015599999992,90.64111300000059,118.84619099999964,62.30761700000039,115.25634799999989
23,117.43603499999972,166.6665039999998,104.61523400000078,53.846190999999635,137.56396500000028,116.15380900000036,118.58984400000008,112.94873000000007,105.0,103.3334960000002,91.6665039999998,117.05126999999993,64.35888699999941,116.15380900000036
24,113.84619099999964,160.6411130000006,104.10253900000043,53.974121000000196,135.6411130000006,115.76904300000024,115.76904300000024,109.61523400000078,100.76904300000024,104.48730499999965,87.69238299999961,115.64111300000059,61.79492200000004,117.05126999999993
25,108.58984400000008,152.82031300000017,101.9228520000006,54.74365200000011,132.17968800000017,114.35888699999941,110.25634799999989,103.58984400000008,95.12841800000024,102.30761700000039,79.74365200000011,114.87158199999976,55.897460999999566,116.9228520000006
26,104.23095699999976,147.17968800000017,98.7177729999994,53.846190999999635,126.15380900000036,112.82031300000017,104.61523400000078,97.94873000000007,90.38476599999922,96.79492200000004,71.53857400000015,114.23095699999976,49.48730499999965,116.0258789999998
27,103.7177729999994,147.17968800000017,96.53857400000015,52.05126999999993,120.51269500000035,112.43603499999972,102.43603499999972,95.25634799999989,88.7177729999994,91.0258789999998,67.82031300000017,114.48730499999965,46.666503999999804,114.74365200000011
28,108.3334960000002,153.3334960000002,97.05126999999993,52.05126999999993,120.0,113.7177729999994,105.51269500000035,97.17968800000017,91.6665039999998,90.12841800000024,71.6665039999998,116.0258789999998,49.87158199999976,113.58984400000008
29,115.25634799999989,161.15380900000036,99.61523400000078,54.48730499999965,125.76904300000024,115.51269500000035,111.53857400000015,101.9228520000006,97.94873000000007,95.25634799999989,80.64111300000059,117.94873000000007,57.94873000000007,113.3334960000002
30,118.7177729999994,163.84619099999964,100.64111300000059,56.025878999999804,132.94873000000007,116.41015599999992,115.0,105.25634799999989,103.0771479999994,101.79492200000004,87.82031300000017,117.30761700000039,65.38476599999922,113.7177729999994
31,114.87158199999976,158.58984400000008,97.43603499999972,52.94873000000007,134.87158199999976,115.64111300000059,112.56396500000028,103.58984400000008,102.94873000000007,103.46142599999985,86.9228520000006,112.56396500000028,66.0258789999998,114.35888699999941
32,105.64111300000059,149.23095699999976,91.41015599999992,45.38476599999922,130.38476599999922,113.9741210000002,106.0258789999998,98.0771479999994,97.56396500000028,98.58984400000008,78.20507799999996,105.12841800000024,58.846190999999635,114.48730499999965
33,97.56396500000028,143.20507799999996,86.6665039999998,38.7177729999994,124.35888699999941,113.0771479999994,101.15380900000036,94.10253900000043,92.05126999999993,91.53857400000015,68.20507799999996,99.48730499999965,48.20507799999996,114.23095699999976
34,96.9228520000006,145.12841800000024,87.17968800000017,38.46142599999985,122.94873000000007,113.9741210000002,102.94873000000007,96.53857400000015,92.43603499999972,88.9741210000002,64.48730499999965,99.74365200000011,41.53857400000015,114.23095699999976
35,104.35888699999941,152.82031300000017,92.43603499999972,44.74365200000011,127.94873000000007,116.0258789999998,110.38476599999922,105.0,100.0,94.35888699999941,69.10253900000043,106.15380900000036,43.589844000000085,115.0
36,113.84619099999964,159.23095699999976,97.82031300000017,51.666503999999804,134.7436520000001,117.56396500000028,117.56396500000028,113.7177729999994,110.0,104.35888699999941,77.30761700000039,113.7177729999994,51.153809000000365,115.51269500000035
37,117.30761700000039,158.20507799999996,98.46142599999985,52.05126999999993,136.6665039999998,117.69238299999961,117.94873000000007,116.2822270000006,114.61523400000078,110.51269500000035,81.6665039999998,116.0258789999998,56.410155999999915,115.0
38,111.9228520000006,149.48730499999965,93.84619099999964,43.589844000000085,131.15380900000036,116.2822270000006,110.64111300000059,111.2822270000006,109.87158199999976,106.15380900000036,78.9741210000002,111.6665039999998,54.102539000000434,113.84619099999964
39,102.17968800000017,139.48730499999965,87.43603499999972,31.153809000000365,122.30761700000039,114.74365200000011,101.2822270000006,103.0771479999994,99.10253900000043,92.43603499999972,72.30761700000039,104.48730499999965,45.897460999999566,113.3334960000002
40,95.0,135.0,84.10253900000043,23.333496000000196,117.56396500000028,113.7177729999994,96.9228520000006,97.43603499999972,89.74365200000011,77.82031300000017,67.17968800000017,100.38476599999922,38.846190999999635,114.23095699999976
41,94.10253900000043,137.94873000000007,85.38476599999922,24.74365200000011,121.15380900000036,113.7177729999994,100.89746099999957,97.56396500000028,87.94873000000007,71.6665039999998,66.53857400000015,101.79492200000004,39.48730499999965,115.89746099999957
42,98.20507799999996,144.87158199999976,89.23095699999976,33.46142599999985,130.2563479999999,114.48730499999965,110.25634799999989,102.30761700000039,93.7177729999994,76.79492200000004,68.84619099999964,106.41015599999992,47.82031300000017,116.9228520000006
43,103.0771479999994,150.0,92.30761700000039,42.17968800000017,137.6923829999996,115.51269500000035,118.58984400000008,107.82031300000017,101.9228520000006,88.46142599999985,70.64111300000059,110.38476599999922,57.69238299999961,116.41015599999992
44,105.89746099999957,150.38476599999922,92.30761700000039,44.74365200000011,138.20507799999996,116.0258789999998,120.64111300000059,110.0,106.9228520000006,99.10253900000043,70.64111300000059,111.2822270000006,61.9228520000006,114.61523400000078
45,106.53857400000015,147.82031300000017,89.61523400000078,40.64111300000059,133.0771479999994,115.89746099999957,116.2822270000006,108.0771479999994,106.9228520000006,105.12841800000024,70.64111300000059,110.0,59.102539000000434,112.56396500000028
46,107.05126999999993,146.41015599999992,87.30761700000039,34.87158199999976,127.05126999999993,115.51269500000035,110.64111300000059,104.61523400000078,104.61523400000078,106.79492200000004,73.46142599999985,109.23095699999976,54.61523400000078,111.53857400000015
47,108.9741210000002,148.46142599999985,87.56396500000028,32.82031300000017,123.7177729999994,115.0,108.84619099999964,103.20507799999996,103.3334960000002,105.51269500000035,78.46142599999985,111.15380900000036,54.48730499999965,112.05126999999993
48,110.38476599999922,151.53857400000015,89.35888699999941,35.897460999999566,122.05126999999993,114.61523400000078,111.6665039999998,104.48730499999965,103.7177729999994,101.2822270000006,81.53857400000015,114.23095699999976,58.846190999999635,113.58984400000008
49,108.46142599999985,151.0258789999998,89.10253900000043,40.64111300000059,118.58984400000008,114.23095699999976,114.48730499999965,105.89746099999957,103.0771479999994,94.23095699999976,78.3334960000002,114.74365200000011,61.9228520000006,114.87158199999976
50,102.82031300000017,145.51269500000035,85.12841800000024,42.69238299999961,112.82031300000017,114.23095699999976,113.58984400000008,104.74365200000011,99.35888699999941,86.79492200000004,69.10253900000043,111.15380900000036,59.102539000000434,115.25634799999989
51,97.94873000000007,138.3334960000002,79.74365200000011,41.410155999999915,107.82031300000017,114.87158199999976,109.10253900000043,101.53857400000015,94.10253900000043,83.7177729999994,59.87158199999976,105.64111300000059,51.666503999999804,114.87158199999976
52,98.9741210000002,135.12841800000024,77.17968800000017,39.23095699999976,107.43603499999972,116.0258789999998,105.0,99.10253900000043,90.89746099999957,87.05126999999993,56.9228520000006,102.17968800000017,45.25634799999989,113.9741210000002
53,105.51269500000035,137.3076170000004,78.3334960000002,38.20507799999996,111.9228520000006,116.9228520000006,104.23095699999976,98.9741210000002,91.2822270000006,93.3334960000002,61.666503999999804,101.9228520000006,43.974121000000196,113.0771479999994
54,112.43603499999972,141.9228520000006,79.74365200000011,38.46142599999985,117.94873000000007,116.41015599999992,106.79492200000004,100.12841800000024,93.58984400000008,96.79492200000004,68.9741210000002,102.82031300000017,47.30761700000039,113.20507799999996
55,114.61523400000078,145.0,78.7177729999994,39.23095699999976,122.82031300000017,115.12841800000024,110.25634799999989,101.15380900000036,95.51269500000035,94.87158199999976,73.46142599999985,102.94873000000007,51.666503999999804,114.61523400000078
56,111.41015599999992,146.0258789999998,75.89746099999957,42.30761700000039,126.53857400000015,114.23095699999976,112.94873000000007,102.56396500000028,96.79492200000004,90.51269500000035,73.20507799999996,102.56396500000028,55.0,116.6665039999998
57,107.43603499999972,147.17968800000017,74.74365200000011,48.974121000000196,130.76904300000024,114.74365200000011,114.35888699999941,105.51269500000035,98.46142599999985,88.58984400000008,70.89746099999957,103.3334960000002,57.69238299999961,118.0771479999994
58,106.9228520000006,149.10253900000043,76.6665039999998,57.56396500000028,135.0,116.15380900000036,115.25634799999989,110.38476599999922,101.53857400000015,91.0258789999998,69.61523400000078,106.0258789999998,60.51269500000035,117.94873000000007
59,109.87158199999976,149.87158199999976,79.74365200000011,62.30761700000039,136.79492200000004,117.05126999999993,115.89746099999957,115.0,104.48730499999965,95.76904300000024,69.87158199999976,109.35888699999941,62.43603499999972,116.41015599999992
60,112.56396500000028,146.9228520000006,79.74365200000011,58.974121000000196,133.46142599999985,116.15380900000036,116.53857400000015,116.9228520000006,105.12841800000024,99.61523400000078,70.25634799999989,110.51269500000035,61.2822270000006,114.61523400000078
61,111.53857400000015,140.38476599999922,75.38476599999922,49.74365200000011,125.89746099999957,113.84619099999964,117.43603499999972,116.15380900000036,103.20507799999996,100.89746099999957,69.61523400000078,108.7177729999994,56.2822270000006,113.84619099999964
62,107.30761700000039,134.23095699999976,69.48730499999965,41.9228520000006,118.46142599999985,111.6665039999998,118.9741210000002,115.0,101.0258789999998,101.15380900000036,68.7177729999994,105.64111300000059,49.87158199999976,114.35888699999941
63,102.82031300000017,132.05126999999993,65.38476599999922,41.2822270000006,115.0,111.15380900000036,120.38476599999922,114.87158199999976,100.89746099999957,102.05126999999993,68.84619099999964,104.23095699999976,45.64111300000059,115.51269500000035
64,100.25634799999989,133.3334960000002,63.846190999999635,47.17968800000017,115.25634799999989,112.69238299999961,119.87158199999976,115.12841800000024,102.56396500000028,102.43603499999972,70.38476599999922,105.12841800000024,45.38476599999922,116.41015599999992
65,99.48730499999965,135.2563479999999,63.589844000000085,53.46142599999985,116.53857400000015,115.12841800000024,116.6665039999998,113.20507799999996,103.3334960000002,99.35888699999941,71.6665039999998,106.53857400000015,48.0771479999994,116.53857400000015
66,99.48730499999965,135.0,62.94873000000007,54.87158199999976,116.15380900000036,116.53857400000015,111.9228520000006,107.94873000000007,101.2822270000006,92.30761700000039,70.89746099999957,106.6665039999998,51.153809000000365,115.64111300000059
67,99.87158199999976,133.20507799999996,61.666503999999804,50.51269500000035,113.9741210000002,115.89746099999957,107.43603499999972,101.53857400000015,96.79492200000004,85.51269500000035,67.56396500000028,104.74365200000011,52.69238299999961,114.23095699999976
68,101.53857400000015,132.6923829999996,60.64111300000059,45.0,113.7177729999994,114.74365200000011,105.51269500000035,98.20507799999996,93.3334960000002,85.12841800000024,64.48730499999965,102.43603499999972,53.20507799999996,113.3334960000002
69,104.87158199999976,135.6411130000006,60.64111300000059,43.589844000000085,118.7177729999994,115.0,107.43603499999972,101.0258789999998,94.10253900000043,93.58984400000008,65.12841800000024,101.6665039999998,54.61523400000078,113.46142599999985
70,108.7177729999994,141.15380900000036,61.666503999999804,48.589844000000085,128.58984400000008,116.6665039999998,112.82031300000017,109.23095699999976,99.10253900000043,105.89746099999957,70.0,103.0771479999994,57.69238299999961,113.9741210000002
71,109.61523400000078,144.10253900000043,62.05126999999993,56.410155999999915,137.43603499999972,117.56396500000028,118.20507799999996,118.0771479999994,103.84619099999964,111.9228520000006,74.23095699999976,105.12841800000024,59.102539000000434,113.9741210000002
72,104.35888699999941,139.61523400000078,59.74365200000011,60.51269500000035,137.6923829999996,115.64111300000059,119.61523400000078,121.0258789999998,102.56396500000028,105.51269500000035,72.05126999999993,105.12841800000024,54.48730499999965,113.7177729999994
73,93.9741210000002,128.3334960000002,54.23095699999976,57.69238299999961,127.69238299999961,110.89746099999957,116.2822270000006,115.25634799999989,94.35888699999941,90.0,62.69238299999961,101.9228520000006,44.35888699999941,113.9741210000002
74,85.76904300000024,118.46142599999985,48.974121000000196,50.897460999999566,113.58984400000008,106.41015599999992,112.30761700000039,105.0,85.0,76.79492200000004,52.69238299999961,97.56396500000028,35.897460999999566,115.0
75,87.05126999999993,118.58984400000008,48.589844000000085,47.30761700000039,106.15380900000036,105.38476599999922,112.17968800000017,97.82031300000017,82.30761700000039,75.0,50.76904300000024,95.76904300000024,36.666503999999804,115.64111300000059
76,97.30761700000039,128.9741210000002,53.589844000000085,50.51269500000035,110.76904300000024,108.9741210000002,116.15380900000036,98.46142599999985,88.58984400000008,83.84619099999964,58.333496000000196,97.94873000000007,46.025878999999804,115.25634799999989
77,107.05126999999993,139.23095699999976,58.46142599999985,56.79492200000004,121.9228520000006,114.48730499999965,119.87158199999976,104.35888699999941,97.69238299999961,92.94873000000007,68.0771479999994,101.79492200000004,54.23095699999976,114.35888699999941
78,107.05126999999993,138.58984400000008,57.43603499999972,58.974121000000196,129.23095699999976,117.69238299999961,118.46142599999985,109.35888699999941,101.53857400000015,93.3334960000002,70.64111300000059,103.46142599999985,52.05126999999993,113.20507799999996
79,97.17968800000017,126.79492200000004,51.025878999999804,54.87158199999976,126.79492200000004,116.9228520000006,111.9228520000006,109.35888699999941,97.56396500000028,85.76904300000024,64.48730499999965,101.79492200000004,40.0,112.05126999999993
80,86.9228520000006,114.74365200000011,45.38476599999922,50.0,118.3334960000002,113.84619099999964,105.25634799999989,106.15380900000036,91.0258789999998,79.61523400000078,57.30761700000039,99.48730499999965,30.128418000000238,110.89746099999957
81,86.6665039999998,113.84619099999964,47.05126999999993,51.153809000000365,112.94873000000007,111.9228520000006,104.23095699999976,104.61523400000078,90.0,83.58984400000008,58.7177729999994,99.48730499999965,34.74365200000011,110.64111300000059
82,98.46142599999985,125.64111300000059,56.2822270000006,59.102539000000434,116.41015599999992,113.46142599999985,109.23095699999976,107.56396500000028,97.82031300000017,97.05126999999993,71.0258789999998,102.17968800000017,55.76904300000024,111.2822270000006
83,114.48730499999965,139.7436520000001,67.30761700000039,67.43603499999972,126.0258789999998,117.17968800000017,116.15380900000036,113.58984400000008,109.87158199999976,111.6665039999998,88.0771479999994,104.87158199999976,83.3334960000002,112.30761700000039
84,124.23095699999976,142.56396500000028,73.58984400000008,69.35888699999941,133.58984400000008,119.74365200000011,120.0,118.20507799999996,118.46142599999985,118.58984400000008,100.76904300000024,105.64111300000059,103.84619099999964,113.0771479999994
85,123.46142599999985,129.48730499999965,73.0771479999994,63.20507799999996,133.20507799999996,119.23095699999976,119.10253900000043,118.7177729999994,119.23095699999976,116.53857400000015,104.61523400000078,104.61523400000078,110.25634799999989,113.46142599999985
86,116.15380900000036,107.82031300000017,68.84619099999964,53.46142599999985,125.51269500000035,116.0258789999998,115.64111300000059,115.76904300000024,114.23095699999976,111.79492200000004,103.0771479999994,103.9741210000002,106.41015599999992,114.10253900000043
87,110.25634799999989,90.64111300000059,65.51269500000035,46.666503999999804,116.6665039999998,112.82031300000017,113.46142599999985,113.0771479999994,109.74365200000011,112.30761700000039,102.94873000000007,105.12841800000024,103.84619099999964,115.0
88,110.51269500000035,86.41015599999992,65.64111300000059,46.9228520000006,112.30761700000039,112.17968800000017,114.61523400000078,113.7177729999994,110.12841800000024,120.0,108.58984400000008,108.3334960000002,111.2822270000006,115.76904300000024
89,115.38476599999922,93.46142599999985,68.9741210000002,53.20507799999996,114.35888699999941,114.10253900000043,118.0771479999994,117.43603499999972,115.12841800000024,130.51269500000035,117.82031300000017,112.56396500000028,128.20507799999996,115.38476599999922
90,119.23095699999976,103.0771479999994,73.46142599999985,60.64111300000059,119.74365200000011,116.53857400000015,121.53857400000015,121.6665039999998,120.76904300000024,136.6665039999998,124.48730499999965,116.0258789999998,145.76904300000024,113.46142599999985
91,118.58984400000008,107.69238299999961,76.6665039999998,63.7177729999994,123.58984400000008,117.17968800000017,122.56396500000028,123.84619099999964,123.84619099999964,134.3588869999994,125.0,117.43603499999972,154.87158199999976,111.0258789999998
92,114.48730499999965,105.12841800000024,76.6665039999998,60.0,122.69238299999961,115.89746099999957,120.76904300000024,122.82031300000017,123.0771479999994,125.64111300000059,120.76904300000024,116.0258789999998,153.0771479999994,109.87158199999976
93,110.89746099999957,98.46142599999985,73.58984400000008,51.025878999999804,118.0771479999994,114.35888699999941,117.69238299999961,119.61523400000078,120.0,116.41015599999992,116.15380900000036,112.94873000000007,144.23095699999976,111.15380900000036
94,110.51269500000035,92.82031300000017,68.84619099999964,41.79492200000004,114.35888699999941,113.9741210000002,115.12841800000024,116.6665039999998,116.9228520000006,112.30761700000039,114.10253900000043,109.23095699999976,135.12841800000024,114.23095699999976
95,112.82031300000017,91.53857400000015,65.25634799999989,37.56396500000028,115.25634799999989,114.74365200000011,114.61523400000078,116.0258789999998,115.38476599999922,114.87158199999976,114.61523400000078,106.53857400000015,129.87158199999976,117.17968800000017
96,115.25634799999989,95.12841800000024,65.64111300000059,41.79492200000004,121.2822270000006,115.51269500000035,117.17968800000017,117.94873000000007,116.53857400000015,121.79492200000004,116.15380900000036,105.89746099999957,129.61523400000078,118.20507799999996
97,116.53857400000015,102.17968800000017,70.89746099999957,53.46142599999985,128.84619099999964,115.25634799999989,122.69238299999961,121.53857400000015,120.64111300000059,128.9741210000002,118.58984400000008,107.94873000000007,133.84619099999964,117.43603499999972
98,117.82031300000017,110.25634799999989,79.35888699999941,66.41015599999992,133.0771479999994,115.12841800000024,129.23095699999976,124.61523400000078,126.2822270000006,133.84619099999964,122.17968800000017,112.56396500000028,140.89746099999957,116.0258789999998
99,119.61523400000078,115.51269500000035,86.53857400000015,73.46142599999985,131.53857400000015,115.76904300000024,132.94873000000007,125.64111300000059,131.2822270000006,135.6411130000006,126.2822270000006,117.43603499999972,147.6923829999996,115.25634799999989
100,121.15380900000036,114.61523400000078,88.3334960000002,70.89746099999957,125.64111300000059,116.79492200000004,130.89746099999957,123.84619099999964,132.94873000000007,135.38476599999922,128.7177729999994,119.61523400000078,149.48730499999965,115.38476599999922
101,120.64111300000059,106.9228520000006,83.7177729999994,61.153809000000365,119.23095699999976,116.6665039999998,123.58984400000008,120.25634799999989,129.87158199999976,134.23095699999976,126.6665039999998,117.17968800000017,143.7177729999994,115.89746099999957
102,117.30761700000039,95.51269500000035,76.2822270000006,50.51269500000035,115.64111300000059,114.61523400000078,115.25634799999989,116.79492200000004,123.58984400000008,132.94873000000007,119.87158199999976,111.2822270000006,132.3076170000004,116.0258789999998
103,111.15380900000036,84.48730499999965,70.25634799999989,44.23095699999976,114.48730499999965,111.15380900000036,110.38476599999922,114.35888699999941,117.17968800000017,130.6411130000006,110.51269500000035,105.12841800000024,120.38476599999922,115.12841800000024
104,103.58984400000008,76.6665039999998,67.30761700000039,42.82031300000017,112.82031300000017,107.05126999999993,109.74365200000011,112.82031300000017,112.82031300000017,126.53857400000015,102.05126999999993,101.41015599999992,112.56396500000028,113.20507799999996
105,96.6665039999998,73.84619099999964,66.9228520000006,43.0771479999994,108.3334960000002,104.23095699999976,111.6665039999998,111.9228520000006,111.41015599999992,120.64111300000059,97.56396500000028,100.38476599999922,110.12841800000024,111.53857400000015
106,93.58984400000008,76.6665039999998,67.82031300000017,42.30761700000039,102.94873000000007,104.74365200000011,113.58984400000008,112.69238299999961,112.94873000000007,116.0258789999998,98.20507799999996,101.9228520000006,111.6665039999998,111.15380900000036
107,96.79492200000004,85.38476599999922,70.12841800000024,41.2822270000006,101.79492200000004,109.23095699999976,115.12841800000024,116.2822270000006,117.94873000000007,116.53857400000015,103.84619099999964,105.38476599999922,116.2822270000006,112.05126999999993
108,105.89746099999957,97.94873000000007,74.35888699999941,42.94873000000007,108.58984400000008,115.0,117.30761700000039,122.05126999999993,125.51269500000035,123.9741210000002,112.30761700000039,110.0,123.20507799999996,113.20507799999996
109,116.41015599999992,109.87158199999976,79.35888699999941,48.0771479999994,120.38476599999922,117.94873000000007,120.51269500000035,127.69238299999961,132.56396500000028,134.7436520000001,120.38476599999922,114.10253900000043,130.76904300000024,113.58984400000008
110,122.82031300000017,115.38476599999922,82.94873000000007,53.846190999999635,129.87158199999976,116.15380900000036,123.58984400000008,129.61523400000078,135.0,142.94873000000007,124.48730499999965,115.89746099999957,136.0258789999998,113.0771479999994
111,121.79492200000004,111.79492200000004,83.0771479999994,56.53857400000015,130.89746099999957,111.53857400000015,124.74365200000011,126.79492200000004,131.6665039999998,144.10253900000043,123.7177729999994,115.25634799999989,137.05126999999993,112.56396500000028
112,114.61523400000078,100.89746099999957,79.87158199999976,55.38476599999922,123.84619099999964,107.82031300000017,122.82031300000017,121.2822270000006,125.12841800000024,139.23095699999976,119.48730499999965,112.94873000000007,133.7177729999994,112.30761700000039
113,105.38476599999922,88.7177729999994,74.74365200000011,52.69238299999961,114.35888699999941,107.43603499999972,118.58984400000008,116.6665039999998,120.12841800000024,132.56396500000028,114.87158199999976,110.25634799999989,127.56396500000028,112.94873000000007
114,98.58984400000008,81.6665039999998,70.51269500000035,51.410155999999915,109.35888699999941,109.48730499999965,114.48730499999965,115.64111300000059,120.12841800000024,127.69238299999961,112.30761700000039,107.69238299999961,121.41015599999992,114.23095699999976
115,96.41015599999992,83.20507799999996,69.35888699999941,52.69238299999961,111.41015599999992,111.53857400000015,112.94873000000007,118.0771479999994,124.87158199999976,125.89746099999957,112.69238299999961,105.76904300000024,117.43603499999972,115.51269500000035
116,97.94873000000007,90.89746099999957,71.53857400000015,54.61523400000078,117.30761700000039,111.79492200000004,114.10253900000043,120.89746099999957,130.6411130000006,126.9228520000006,114.61523400000078,105.0,116.9228520000006,116.15380900000036
117,101.15380900000036,98.7177729999994,74.87158199999976,54.74365200000011,121.41015599999992,110.38476599999922,116.53857400000015,121.15380900000036,133.46142599999985,129.87158199999976,115.76904300000024,105.38476599999922,118.9741210000002,115.64111300000059
118,103.84619099999964,101.9228520000006,77.17968800000017,53.46142599999985,120.64111300000059,109.10253900000043,118.0771479999994,119.48730499999965,132.05126999999993,133.7177729999994,115.25634799999989,106.53857400000015,121.9228520000006,114.74365200000011
119,106.15380900000036,100.89746099999957,78.84619099999964,54.102539000000434,117.56396500000028,109.48730499999965,118.3334960000002,119.10253900000043,128.9741210000002,137.94873000000007,114.48730499999965,108.3334960000002,124.48730499999965,114.61523400000078
120,108.46142599999985,99.10253900000043,81.2822270000006,60.12841800000024,116.9228520000006,112.17968800000017,117.94873000000007,122.43603499999972,127.56396500000028,141.15380900000036,115.25634799999989,110.25634799999989,126.2822270000006,115.89746099999957
121,110.89746099999957,98.9741210000002,83.7177729999994,70.0,120.64111300000059,115.38476599999922,117.82031300000017,128.7177729999994,129.10253900000043,141.6665039999998,117.56396500000028,111.6665039999998,127.05126999999993,117.69238299999961
122,112.82031300000017,100.0,84.23095699999976,77.94873000000007,125.76904300000024,116.9228520000006,118.3334960000002,133.58984400000008,132.05126999999993,138.0771479999994,119.35888699999941,112.05126999999993,127.05126999999993,118.58984400000008
123,113.7177729999994,100.64111300000059,82.30761700000039,78.9741210000002,128.0771479999994,115.64111300000059,119.10253900000043,133.46142599999985,134.23095699999976,132.3076170000004,119.23095699999976,111.79492200000004,127.30761700000039,117.56396500000028
124,114.23095699999976,100.64111300000059,79.48730499999965,73.9741210000002,125.64111300000059,112.82031300000017,119.61523400000078,128.3334960000002,134.61523400000078,128.46142599999985,118.20507799999996,111.53857400000015,128.84619099999964,115.0
125,114.87158199999976,101.0258789999998,78.20507799999996,68.46142599999985,120.12841800000024,110.76904300000024,118.7177729999994,121.6665039999998,133.0771479999994,129.61523400000078,117.43603499999972,111.41015599999992,131.2822270000006,112.30761700000039
126,115.25634799999989,101.79492200000004,78.58984400000008,67.17968800000017,114.48730499999965,111.15380900000036,115.76904300000024,116.6665039999998,130.12841800000024,134.23095699999976,116.9228520000006,110.38476599999922,131.79492200000004,111.2822270000006
127,113.84619099999964,101.41015599999992,78.84619099999964,70.89746099999957,110.89746099999957,112.94873000000007,110.38476599999922,114.10253900000043,126.15380900000036,137.56396500000028,115.51269500000035,107.30761700000039,128.0771479999994,112.43603499999972
128,110.64111300000059,99.35888699999941,77.05126999999993,76.6665039999998,109.74365200000011,113.84619099999964,104.35888699999941,113.0771479999994,121.53857400000015,136.15380900000036,113.46142599999985,102.82031300000017,120.76904300000024,115.38476599999922
129,107.43603499999972,96.9228520000006,74.61523400000078,81.53857400000015,111.2822270000006,112.69238299999961,101.0258789999998,112.82031300000017,117.69238299999961,132.3076170000004,112.56396500000028,99.87158199999976,114.74365200000011,117.94873000000007
130,107.69238299999961,97.17968800000017,74.61523400000078,84.74365200000011,115.89746099999957,111.0258789999998,103.20507799999996,113.58984400000008,116.9228520000006,131.53857400000015,115.12841800000024,101.9228520000006,115.38476599999922,118.3334960000002
131,112.56396500000028,100.89746099999957,78.84619099999964,86.6665039999998,122.05126999999993,110.89746099999957,109.61523400000078,115.25634799999989,120.0,136.2822270000006,120.64111300000059,108.46142599999985,122.94873000000007,116.53857400000015
132,119.10253900000043,105.0,85.25634799999989,87.43603499999972,125.25634799999989,112.56396500000028,115.64111300000059,117.05126999999993,123.9741210000002,143.0771479999994,125.76904300000024,114.87158199999976,131.9228520000006,114.10253900000043
133,122.30761700000039,105.38476599999922,89.35888699999941,85.89746099999957,121.6665039999998,114.10253900000043,116.9228520000006,117.17968800000017,124.61523400000078,144.87158199999976,126.6665039999998,116.6665039999998,134.7436520000001,112.69238299999961
134,120.25634799999989,100.89746099999957,88.9741210000002,82.56396500000028,111.6665039999998,114.48730499999965,112.94873000000007,115.0,120.51269500000035,138.20507799999996,122.82031300000017,112.94873000000007,128.84619099999964,112.94873000000007
135,115.76904300000024,95.38476599999922,85.76904300000024,80.12841800000024,101.79492200000004,114.23095699999976,107.43603499999972,111.9228520000006,115.0,126.9228520000006,117.05126999999993,107.94873000000007,119.74365200000011,113.9741210000002
136,114.10253900000043,94.35888699999941,84.23095699999976,81.6665039999998,98.3334960000002,114.35888699999941,105.51269500000035,110.64111300000059,112.82031300000017,118.3334960000002,112.56396500000028,106.15380900000036,115.64111300000059,114.35888699999941
137,117.30761700000039,100.12841800000024,86.79492200000004,86.9228520000006,103.0771479999994,115.12841800000024,108.46142599999985,112.56396500000028,116.15380900000036,117.05126999999993,111.15380900000036,108.7177729999994,120.76904300000024,113.58984400000008
138,122.05126999999993,109.48730499999965,92.30761700000039,92.69238299999961,111.9228520000006,115.89746099999957,113.7177729999994,116.79492200000004,122.69238299999961,122.05126999999993,112.82031300000017,113.7177729999994,131.2822270000006,111.79492200000004
139,123.9741210000002,117.30761700000039,97.82031300000017,94.74365200000011,119.35888699999941,116.41015599999992,117.30761700000039,121.0258789999998,128.7177729999994,129.7436520000001,115.89746099999957,117.94873000000007,139.48730499999965,110.38476599999922
140,121.79492200000004,119.87158199999976,101.0258789999998,91.53857400000015,122.30761700000039,116.6665039999998,118.58984400000008,123.58984400000008,132.6923829999996,136.53857400000015,119.61523400000078,119.48730499999965,140.2563479999999,110.51269500000035
141,118.7177729999994,116.79492200000004,101.41015599999992,85.38476599999922,121.79492200000004,116.79492200000004,118.9741210000002,124.35888699999941,135.2563479999999,141.0258789999998,123.7177729999994,118.9741210000002,135.0,112.43603499999972
142,118.46142599999985,111.0258789999998,100.25634799999989,80.64111300000059,120.38476599999922,115.89746099999957,119.35888699999941,123.58984400000008,136.79492200000004,142.94873000000007,127.43603499999972,117.43603499999972,129.10253900000043,115.0
143,121.41015599999992,105.64111300000059,98.84619099999964,80.0,119.10253900000043,113.58984400000008,118.58984400000008,121.79492200000004,135.89746099999957,142.82031300000017,128.9741210000002,116.15380900000036,127.30761700000039,116.2822270000006
144,124.74365200000011,102.17968800000017,97.30761700000039,83.3334960000002,116.15380900000036,111.15380900000036,115.38476599999922,119.23095699999976,131.41015599999992,140.6411130000006,126.41015599999992,115.38476599999922,129.61523400000078,115.89746099999957
145,125.76904300000024,100.51269500000035,95.38476599999922,87.30761700000039,110.0,110.0,110.76904300000024,116.53857400000015,124.74365200000011,137.05126999999993,120.25634799999989,115.0,132.6923829999996,114.48730499999965
146,125.0,100.51269500000035,93.3334960000002,89.10253900000043,102.30761700000039,110.76904300000024,108.20507799999996,114.87158199999976,119.87158199999976,133.20507799999996,114.35888699999941,115.12841800000024,133.84619099999964,112.94873000000007
147,124.74365200000011,102.82031300000017,92.30761700000039,88.20507799999996,97.94873000000007,112.05126999999993,110.12841800000024,116.15380900000036,120.51269500000035,132.05126999999993,112.94873000000007,116.2822270000006,132.94873000000007,111.79492200000004
148,126.2822270000006,108.3334960000002,93.9741210000002,85.89746099999957,101.2822270000006,112.82031300000017,116.0258789999998,121.0258789999998,126.6665039999998,135.76904300000024,117.94873000000007,118.58984400000008,131.41015599999992,111.53857400000015
149,129.10253900000043,115.64111300000059,98.46142599999985,84.61523400000078,112.43603499999972,112.17968800000017,123.20507799999996,128.3334960000002,135.2563479999999,143.7177729999994,126.41015599999992,121.6665039999998,131.0258789999998,112.82031300000017
150,130.89746099999957,120.89746099999957,103.58984400000008,85.51269500000035,125.38476599999922,110.38476599999922,127.56396500000028,134.87158199999976,141.9228520000006,151.9228520000006,132.82031300000017,123.7177729999994,132.05126999999993,115.64111300000059
151,129.10253900000043,120.12841800000024,105.89746099999957,87.30761700000039,131.6665039999998,107.82031300000017,126.2822270000006,136.9228520000006,142.82031300000017,154.7436520000001,132.56396500000028,122.43603499999972,133.3334960000002,118.84619099999964
152,123.3334960000002,112.69238299999961,103.0771479999994,87.43603499999972,127.17968800000017,105.51269500000035,119.23095699999976,132.56396500000028,137.43603499999972,149.48730499999965,124.87158199999976,117.69238299999961,133.46142599999985,120.89746099999957
153,115.89746099999957,103.20507799999996,96.79492200000004,84.48730499999965,115.64111300000059,105.25634799999989,110.64111300000059,124.10253900000043,128.84619099999964,139.10253900000043,114.48730499999965,111.9228520000006,131.79492200000004,120.38476599999922
154,110.38476599999922,97.69238299999961,91.53857400000015,80.12841800000024,105.89746099999957,107.82031300000017,105.64111300000059,116.41015599999992,122.30761700000039,130.76904300000024,108.46142599999985,108.9741210000002,129.61523400000078,116.9228520000006
155,108.58984400000008,98.84619099999964,90.64111300000059,76.79492200000004,103.0771479999994,111.2822270000006,106.15380900000036,113.9741210000002,120.51269500000035,128.9741210000002,109.35888699999941,109.87158199999976,127.30761700000039,111.9228520000006
156,108.9741210000002,103.0771479999994,93.0771479999994,75.0,104.61523400000078,112.82031300000017,110.12841800000024,116.2822270000006,121.2822270000006,131.53857400000015,113.46142599999985,112.17968800000017,123.9741210000002,108.3334960000002
157,108.3334960000002,104.48730499999965,95.12841800000024,73.9741210000002,104.74365200000011,111.0258789999998,113.20507799999996,119.35888699999941,120.38476599999922,132.56396500000028,114.35888699999941,112.56396500000028,118.7177729999994,108.3334960000002
158,106.53857400000015,102.05126999999993,94.35888699999941,73.3334960000002,102.05126999999993,107.94873000000007,112.30761700000039,119.74365200000011,116.9228520000006,128.0771479999994,110.38476599999922,110.51269500000035,112.82031300000017,111.9228520000006
159,106.15380900000036,100.12841800000024,91.79492200000004,74.35888699999941,100.51269500000035,106.15380900000036,108.7177729999994,117.82031300000017,113.7177729999994,120.64111300000059,105.51269500000035,107.82031300000017,110.0,116.0258789999998
160,110.25634799999989,103.58984400000008,91.2822270000006,78.46142599999985,105.25634799999989,106.79492200000004,106.9228520000006,116.6665039999998,115.0,116.53857400000015,104.87158199999976,107.30761700000039,112.56396500000028,117.69238299999961
161,117.43603499999972,112.05126999999993,94.74365200000011,84.35888699999941,116.2822270000006,109.23095699999976,110.25634799999989,118.9741210000002,120.89746099999957,119.61523400000078,109.23095699999976,109.87158199999976,118.9741210000002,116.15380900000036
162,122.94873000000007,119.48730499999965,99.87158199999976,88.7177729999994,127.43603499999972,112.05126999999993,117.05126999999993,123.3334960000002,127.43603499999972,128.0771479999994,114.48730499999965,113.7177729999994,124.23095699999976,113.20507799999996
163,122.17968800000017,119.61523400000078,102.56396500000028,87.94873000000007,131.15380900000036,113.58984400000008,122.43603499999972,126.2822270000006,130.12841800000024,135.89746099999957,115.51269500000035,115.51269500000035,124.61523400000078,110.76904300000024
164,115.25634799999989,110.89746099999957,99.87158199999976,81.9228520000006,124.10253900000043,113.20507799999996,122.17968800000017,125.0,127.30761700000039,137.56396500000028,111.41015599999992,113.58984400000008,119.87158199999976,109.74365200000011
165,106.6665039999998,98.7177729999994,93.7177729999994,73.7177729999994,110.64111300000059,111.53857400000015,115.51269500000035,120.0,120.64111300000059,131.53857400000015,105.64111300000059,108.84619099999964,114.23095699999976,110.25634799999989
166,101.53857400000015,90.64111300000059,88.3334960000002,67.30761700000039,98.20507799999996,109.48730499999965,106.41015599999992,114.23095699999976,113.46142599999985,121.53857400000015,102.56396500000028,104.87158199999976,112.43603499999972,112.17968800000017
167,101.2822270000006,90.89746099999957,87.17968800000017,65.0,92.94873000000007,108.20507799999996,100.12841800000024,110.76904300000024,109.35888699999941,113.3334960000002,104.10253900000043,104.35888699999941,116.15380900000036,114.87158199999976
168,104.23095699999976,96.2822270000006,90.51269500000035,65.89746099999957,95.89746099999957,108.20507799999996,100.76904300000024,111.15380900000036,109.74365200000011,111.15380900000036,108.3334960000002,107.69238299999961,122.56396500000028,117.43603499999972
169,107.56396500000028,100.38476599999922,96.0258789999998,67.82031300000017,103.46142599999985,109.48730499999965,108.20507799999996,114.87158199999976,114.23095699999976,115.64111300000059,111.6665039999998,113.0771479999994,127.69238299999961,118.84619099999964
170,110.25634799999989,99.61523400000078,100.76904300000024,69.35888699999941,110.89746099999957,111.41015599999992,117.30761700000039,119.87158199999976,120.64111300000059,123.84619099999964,112.43603499999972,116.9228520000006,129.48730499999965,118.7177729999994
171,112.94873000000007,96.6665039999998,103.20507799999996,71.2822270000006,115.64111300000059,113.3334960000002,122.82031300000017,124.87158199999976,126.9228520000006,132.6923829999996,111.41015599999992,117.69238299999961,128.84619099999964,116.6665039999998
172,116.9228520000006,96.53857400000015,104.10253900000043,75.0,117.69238299999961,113.9741210000002,122.94873000000007,128.46142599999985,132.05126999999993,140.0,111.6665039999998,116.53857400000015,128.3334960000002,113.7177729999994
173,122.56396500000028,101.9228520000006,105.64111300000059,81.0258789999998,118.9741210000002,113.3334960000002,120.51269500000035,130.2563479999999,136.0258789999998,144.61523400000078,115.12841800000024,116.2822270000006,129.61523400000078,111.79492200000004
174,127.82031300000017,109.48730499999965,108.20507799999996,87.69238299999961,120.0,111.53857400000015,119.10253900000043,129.3588869999994,138.0771479999994,145.38476599999922,120.51269500000035,117.82031300000017,131.41015599999992,112.05126999999993
175,129.10253900000043,113.58984400000008,109.74365200000011,91.6665039999998,120.0,109.10253900000043,119.23095699999976,125.64111300000059,136.6665039999998,141.15380900000036,123.58984400000008,119.74365200000011,131.0258789999998,113.58984400000008
176,124.35888699999941,111.2822270000006,107.69238299999961,90.64111300000059,118.3334960000002,106.9228520000006,119.10253900000043,119.87158199999976,130.89746099999957,132.6923829999996,121.53857400000015,119.48730499999965,126.9228520000006,114.35888699999941
177,115.64111300000059,105.0,103.0771479999994,85.64111300000059,115.89746099999957,106.0258789999998,117.17968800000017,114.10253900000043,123.20507799999996,123.7177729999994,115.76904300000024,116.53857400000015,120.64111300000059,113.3334960000002
178,108.3334960000002,99.35888699999941,99.10253900000043,80.64111300000059,114.10253900000043,107.30761700000039,113.84619099999964,110.89746099999957,116.9228520000006,118.46142599999985,110.12841800000024,112.94873000000007,115.89746099999957,110.76904300000024
179,106.6665039999998,97.30761700000039,98.46142599999985,79.10253900000043,113.7177729999994,109.74365200000011,110.76904300000024,111.0258789999998,114.74365200000011,118.84619099999964,107.82031300000017,110.64111300000059,114.61523400000078,108.7177729999994
180,110.51269500000035,97.69238299999961,100.64111300000059,81.6665039999998,114.23095699999976,111.79492200000004,109.74365200000011,112.94873000000007,115.51269500000035,123.0771479999994,108.9741210000002,110.38476599999922,115.89746099999957,108.3334960000002
181,115.64111300000059,98.3334960000002,102.82031300000017,85.64111300000059,115.76904300000024,112.17968800000017,111.0258789999998,114.23095699999976,117.05126999999993,127.56396500000028,112.05126999999993,111.53857400000015,117.56396500000028,110.25634799999989
182,117.56396500000028,98.58984400000008,103.46142599999985,87.94873000000007,118.20507799999996,111.41015599999992,113.58984400000008,113.84619099999964,117.82031300000017,129.87158199999976,115.25634799999989,113.0771479999994,118.7177729999994,113.58984400000008
183,114.87158199999976,99.23095699999976,102.94873000000007,86.9228520000006,119.61523400000078,110.64111300000059,115.38476599999922,112.30761700000039,117.69238299999961,129.7436520000001,117.05126999999993,113.84619099999964,119.48730499999965,116.41015599999992
184,109.23095699999976,99.87158199999976,102.43603499999972,82.43603499999972,117.05126999999993,110.0,115.25634799999989,110.25634799999989,116.6665039999998,127.94873000000007,115.76904300000024,112.94873000000007,119.61523400000078,117.05126999999993
185,103.58984400000008,98.9741210000002,102.30761700000039,75.76904300000024,109.61523400000078,109.35888699999941,112.94873000000007,108.7177729999994,114.74365200000011,124.48730499999965,110.64111300000059,109.48730499999965,117.69238299999961,116.2822270000006
186,100.76904300000024,96.0258789999998,101.9228520000006,69.23095699999976,101.15380900000036,108.3334960000002,109.87158199999976,107.69238299999961,112.56396500000028,120.38476599999922,103.46142599999985,104.87158199999976,113.46142599999985,115.38476599999922
187,101.9228520000006,93.0771479999994,101.2822270000006,66.53857400000015,97.94873000000007,107.56396500000028,108.0771479999994,107.94873000000007,111.6665039999998,117.82031300000017,98.58984400000008,101.9228520000006,109.10253900000043,115.12841800000024
188,106.79492200000004,93.58984400000008,101.0258789999998,70.25634799999989,104.35888699999941,107.56396500000028,108.7177729999994,110.12841800000024,113.3334960000002,120.0,100.0,102.56396500000028,108.3334960000002,114.87158199999976
189,113.0771479999994,98.9741210000002,102.69238299999961,78.84619099999964,118.0771479999994,108.46142599999985,111.53857400000015,113.46142599999985,117.17968800000017,126.9228520000006,107.82031300000017,106.53857400000015,113.0771479999994,114.23095699999976
190,116.79492200000004,106.6665039999998,105.76904300000024,86.9228520000006,131.41015599999992,109.35888699999941,114.74365200000011,116.41015599999992,121.41015599999992,134.48730499999965,117.56396500000028,110.64111300000059,121.41015599999992,113.46142599999985
191,115.0,111.41015599999992,107.82031300000017,88.7177729999994,136.2822270000006,109.87158199999976,117.56396500000028,117.43603499999972,123.20507799999996,137.43603499999972,123.46142599999985,112.69238299999961,127.82031300000017,113.7177729999994
192,108.3334960000002,109.74365200000011,107.05126999999993,83.46142599999985,130.51269500000035,110.0,119.74365200000011,116.6665039999998,122.17968800000017,134.23095699999976,122.82031300000017,112.69238299999961,127.69238299999961,115.12841800000024
193,100.76904300000024,103.3334960000002,104.10253900000043,75.64111300000059,119.23095699999976,110.38476599999922,122.17968800000017,116.15380900000036,119.74365200000011,127.56396500000028,117.69238299999961,111.79492200000004,121.53857400000015,116.79492200000004
194,96.79492200000004,97.82031300000017,101.2822270000006,71.0258789999998,110.0,111.41015599999992,124.61523400000078,117.05126999999993,118.3334960000002,122.69238299999961,112.94873000000007,111.0258789999998,114.74365200000011,117.17968800000017
195,97.69238299999961,96.9228520000006,100.38476599999922,72.56396500000028,107.69238299999961,112.69238299999961,125.64111300000059,118.58984400000008,118.84619099999964,122.56396500000028,111.9228520000006,111.0258789999998,112.17968800000017,115.64111300000059
196,101.2822270000006,100.12841800000024,101.6665039999998,78.7177729999994,111.79492200000004,113.0771479999994,124.35888699999941,118.84619099999964,119.87158199999976,126.6665039999998,114.48730499999965,111.41015599999992,114.10253900000043,112.82031300000017
197,104.23095699999976,102.82031300000017,103.84619099999964,85.0,116.9228520000006,111.9228520000006,120.89746099999957,116.9228520000006,120.12841800000024,131.6665039999998,117.69238299999961,111.41015599999992,117.17968800000017,110.25634799999989
198,104.48730499999965,102.05126999999993,105.12841800000024,87.56396500000028,118.58984400000008,109.48730499999965,116.79492200000004,114.23095699999976,119.23095699999976,134.23095699999976,118.9741210000002,110.51269500000035,118.0771479999994,110.12841800000024
199,101.79492200000004,99.10253900000043,104.48730499999965,86.41015599999992,116.2822270000006,107.56396500000028,113.9741210000002,113.0771479999994,118.7177729999994,133.58984400000008,118.0771479999994,108.84619099999964,116.53857400000015,113.0771479999994
200,98.58984400000008,97.82031300000017,102.82031300000017,84.10253900000043,113.84619099999964,107.43603499999972,113.3334960000002,114.74365200000011,120.51269500000035,131.6665039999998,116.6665039999998,107.82031300000017,115.51269500000035,117.43603499999972
201,97.94873000000007,101.53857400000015,101.6665039999998,83.46142599999985,114.48730499999965,108.84619099999964,114.87158199999976,118.3334960000002,125.12841800000024,131.53857400000015,116.79492200000004,108.46142599999985,117.94873000000007,120.64111300000059
202,101.0258789999998,108.9741210000002,102.05126999999993,85.64111300000059,118.20507799999996,110.76904300000024,117.82031300000017,121.6665039999998,130.89746099999957,134.23095699999976,119.10253900000043,110.38476599999922,123.7177729999994,120.25634799999989
203,105.12841800000024,115.25634799999989,104.10253900000043,88.7177729999994,121.53857400000015,111.79492200000004,121.0258789999998,122.82031300000017,135.76904300000024,137.94873000000007,122.17968800000017,112.05126999999993,128.9741210000002,116.9228520000006
204,106.79492200000004,115.25634799999989,106.0258789999998,90.25634799999989,121.79492200000004,111.15380900000036,123.3334960000002,121.9228520000006,137.17968800000017,139.61523400000078,123.3334960000002,112.56396500000028,128.7177729999994,113.20507799999996
205,103.84619099999964,108.7177729999994,106.2822270000006,89.35888699999941,119.35888699999941,109.61523400000078,124.35888699999941,120.38476599999922,134.48730499999965,136.6665039999998,121.53857400000015,111.79492200000004,121.9228520000006,111.41015599999992
206,97.82031300000017,99.87158199999976,104.87158199999976,86.2822270000006,116.79492200000004,108.84619099999964,123.58984400000008,119.35888699999941,128.7177729999994,130.0,117.56396500000028,110.64111300000059,112.17968800000017,111.6665039999998
207,92.43603499999972,94.35888699999941,102.30761700000039,81.9228520000006,115.38476599999922,109.74365200000011,120.64111300000059,118.7177729999994,120.76904300000024,122.30761700000039,112.94873000000007,109.48730499999965,104.61523400000078,112.69238299999961
208,90.25634799999989,94.35888699999941,99.61523400000078,76.41015599999992,114.10253900000043,111.0258789999998,116.15380900000036,117.30761700000039,112.17968800000017,116.53857400000015,108.3334960000002,108.46142599999985,101.41015599999992,113.20507799999996
209,91.6665039999998,98.3334960000002,97.69238299999961,70.51269500000035,112.56396500000028,111.2822270000006,111.9228520000006,114.35888699999941,105.38476599999922,113.84619099999964,104.23095699999976,107.30761700000039,101.79492200000004,112.69238299999961
210,95.51269500000035,103.20507799999996,97.43603499999972,67.43603499999972,112.17968800000017,110.76904300000024,110.51269500000035,111.2822270000006,103.0771479999994,113.7177729999994,102.17968800000017,106.79492200000004,103.84619099999964,111.9228520000006
211,100.0,106.41015599999992,99.10253900000043,70.0,114.10253900000043,111.0258789999998,112.94873000000007,110.0,106.41015599999992,115.51269500000035,103.84619099999964,107.82031300000017,106.2822270000006,111.6665039999998
212,103.58984400000008,106.79492200000004,102.05126999999993,77.30761700000039,116.41015599999992,112.94873000000007,117.43603499999972,111.53857400000015,113.0771479999994,117.17968800000017,108.7177729999994,109.74365200000011,108.9741210000002,112.56396500000028
213,105.12841800000024,104.10253900000043,104.48730499999965,83.9741210000002,115.51269500000035,115.76904300000024,120.64111300000059,114.48730499999965,117.82031300000017,115.64111300000059,113.58984400000008,110.25634799999989,111.41015599999992,113.9741210000002
214,104.23095699999976,99.48730499999965,105.0,84.74365200000011,109.87158199999976,117.30761700000039,120.25634799999989,116.15380900000036,116.53857400000015,109.61523400000078,113.9741210000002,107.94873000000007,112.82031300000017,114.87158199999976
215,101.6665039999998,95.64111300000059,103.46142599999985,78.58984400000008,103.20507799999996,116.41015599999992,117.30761700000039,115.51269500000035,110.12841800000024,101.9228520000006,109.35888699999941,104.10253900000043,112.56396500000028,114.61523400000078
216,99.48730499999965,95.0,101.41015599999992,71.0258789999998,101.6665039999998,114.23095699999976,114.87158199999976,113.9741210000002,104.35888699999941,97.82031300000017,103.0771479999994,102.56396500000028,112.05126999999993,113.84619099999964
217,100.0,98.7177729999994,101.2822270000006,69.10253900000043,108.3334960000002,112.82031300000017,115.76904300000024,114.23095699999976,105.25634799999989,100.76904300000024,100.64111300000059,105.76904300000024,113.58984400000008,113.9741210000002
218,103.46142599999985,105.0,103.3334960000002,75.64111300000059,120.0,113.20507799999996,119.74365200000011,117.17968800000017,112.82031300000017,108.46142599999985,103.7177729999994,112.43603499999972,117.69238299999961,115.25634799999989
219,106.9228520000006,110.12841800000024,105.51269500000035,86.53857400000015,128.7177729999994,114.61523400000078,123.20507799999996,120.89746099999957,121.0258789999998,114.48730499999965,108.84619099999964,118.20507799999996,121.15380900000036,117.56396500000028
220,107.05126999999993,110.38476599999922,105.25634799999989,94.10253900000043,128.20507799999996,115.25634799999989,122.30761700000039,122.17968800000017,122.43603499999972,112.94873000000007,109.87158199999976,118.9741210000002,119.61523400000078,119.74365200000011
221,102.43603499999972,105.38476599999922,101.53857400000015,92.94873000000007,118.20507799999996,113.9741210000002,116.6665039999998,119.48730499999965,115.25634799999989,103.7177729999994,104.74365200000011,114.10253900000043,112.05126999999993,120.38476599999922
222,96.15380900000036,98.7177729999994,96.2822270000006,84.48730499999965,105.25634799999989,111.15380900000036,109.61523400000078,114.61523400000078,105.12841800000024,93.58984400000008,97.43603499999972,107.05126999999993,103.58984400000008,118.7177729999994
223,92.82031300000017,95.0,93.3334960000002,75.76904300000024,98.58984400000008,108.7177729999994,105.89746099999957,111.2822270000006,100.12841800000024,90.76904300000024,94.87158199999976,102.82031300000017,100.51269500000035,115.51269500000035
224,95.25634799999989,96.53857400000015,94.61523400000078,73.20507799999996,102.69238299999961,108.58984400000008,107.69238299999961,111.9228520000006,104.48730499999965,98.3334960000002,100.12841800000024,104.23095699999976,106.15380900000036,112.30761700000039
225,102.17968800000017,101.79492200000004,99.48730499999965,78.46142599999985,114.23095699999976,110.76904300000024,113.46142599999985,115.89746099999957,115.38476599999922,112.05126999999993,110.25634799999989,109.87158199999976,117.43603499999972,110.64111300000059
226,109.10253900000043,106.6665039999998,104.61523400000078,86.79492200000004,124.87158199999976,113.58984400000008,119.35888699999941,120.12841800000024,125.51269500000035,123.46142599999985,117.69238299999961,115.64111300000059,127.43603499999972,110.51269500000035
227,111.79492200000004,108.20507799999996,107.05126999999993,92.17968800000017,127.43603499999972,115.0,121.79492200000004,121.53857400000015,128.9741210000002,126.41015599999992,116.9228520000006,117.94873000000007,130.2563479999999,111.53857400000015
228,109.23095699999976,105.25634799999989,105.89746099999957,91.41015599999992,121.53857400000015,113.84619099999964,120.12841800000024,119.61523400000078,125.38476599999922,120.76904300000024,108.46142599999985,116.15380900000036,124.87158199999976,113.20507799999996
229,104.10253900000043,100.12841800000024,102.69238299999961,87.05126999999993,113.0771479999994,111.15380900000036,116.41015599999992,115.76904300000024,118.58984400000008,111.53857400000015,98.58984400000008,112.30761700000039,116.0258789999998,115.0
230,99.48730499999965,95.76904300000024,99.48730499999965,83.58984400000008,108.58984400000008,108.58984400000008,113.46142599999985,112.30761700000039,112.94873000000007,104.74365200000011,92.94873000000007,108.58984400000008,109.23095699999976,116.41015599999992
231,97.82031300000017,94.23095699999976,97.82031300000017,83.3334960000002,109.87158199999976,107.43603499999972,112.43603499999972,111.0258789999998,110.12841800000024,102.94873000000007,92.94873000000007,105.89746099999957,107.43603499999972,116.79492200000004
232,99.61523400000078,95.76904300000024,98.20507799999996,85.76904300000024,114.48730499999965,108.3334960000002,113.20507799999996,113.0771479999994,110.12841800000024,104.74365200000011,95.76904300000024,105.0,110.51269500000035,116.0258789999998
233,104.10253900000043,99.48730499999965,101.0258789999998,89.23095699999976,119.10253900000043,111.15380900000036,115.51269500000035,118.46142599999985,113.20507799999996,108.0771479999994,99.61523400000078,106.6665039999998,116.41015599999992,115.0
234,109.48730499999965,103.84619099999964,104.87158199999976,91.9228520000006,121.6665039999998,114.74365200000011,118.58984400000008,125.89746099999957,118.84619099999964,112.43603499999972,104.23095699999976,110.64111300000059,121.9228520000006,114.74365200000011
235,113.3334960000002,106.2822270000006,107.69238299999961,92.17968800000017,121.15380900000036,117.17968800000017,120.89746099999957,131.79492200000004,124.74365200000011,117.56396500000028,108.7177729999994,114.87158199999976,123.7177729999994,115.51269500000035
236,113.20507799999996,104.61523400000078,107.17968800000017,89.23095699999976,117.17968800000017,117.05126999999993,120.89746099999957,132.56396500000028,127.43603499999972,121.2822270000006,110.25634799999989,116.6665039999998,119.87158199999976,116.79492200000004
237,108.9741210000002,98.3334960000002,103.46142599999985,84.61523400000078,111.0258789999998,114.61523400000078,118.58984400000008,127.30761700000039,124.48730499999965,120.51269500000035,106.9228520000006,114.35888699999941,111.2822270000006,117.43603499999972
238,103.7177729999994,91.53857400000015,99.87158199999976,81.9228520000006,106.15380900000036,111.0258789999998,116.15380900000036,119.74365200000011,118.20507799999996,115.89746099999957,100.89746099999957,109.48730499999965,102.17968800000017,117.05126999999993
239,102.30761700000039,90.25634799999989,100.76904300000024,84.61523400000078,106.9228520000006,108.3334960000002,116.2822270000006,115.89746099999957,114.10253900000043,111.6665039999998,97.43603499999972,105.89746099999957,99.10253900000043,115.38476599999922
240,107.69238299999961,98.20507799999996,107.94873000000007,93.20507799999996,114.48730499999965,108.20507799999996,120.38476599999922,119.87158199999976,117.05126999999993,113.0771479999994,100.89746099999957,106.79492200000004,105.51269500000035,113.0771479999994
241,117.94873000000007,111.9228520000006,117.94873000000007,103.58984400000008,123.84619099999964,110.89746099999957,126.41015599999992,129.23095699999976,126.15380900000036,120.0,110.0,112.69238299999961,118.20507799999996,111.6665039999998
242,125.64111300000059,122.05126999999993,123.84619099999964,108.3334960000002,127.69238299999961,114.48730499999965,129.87158199999976,136.15380900000036,133.84619099999964,126.41015599999992,117.82031300000017,119.61523400000078,128.0771479999994,111.9228520000006
243,124.35888699999941,120.0,120.89746099999957,103.20507799999996,121.9228520000006,116.2822270000006,126.79492200000004,133.84619099999964,132.6923829999996,125.12841800000024,116.6665039999998,122.17968800000017,127.30761700000039,113.20507799999996
244,114.35888699999941,106.2822270000006,110.64111300000059,91.41015599999992,109.87158199999976,115.12841800000024,118.58984400000008,122.94873000000007,122.56396500000028,115.38476599999922,106.41015599999992,118.58984400000008,116.53857400000015,114.35888699999941
245,104.23095699999976,91.53857400000015,101.15380900000036,82.82031300000017,99.74365200000011,113.0771479999994,110.76904300000024,112.05126999999993,111.41015599999992,105.0,94.87158199999976,112.82031300000017,105.51269500000035,114.48730499999965
246,102.94873000000007,87.30761700000039,100.64111300000059,85.38476599999922,98.9741210000002,112.69238299999961,109.23095699999976,110.12841800000024,109.10253900000043,104.10253900000043,91.53857400000015,110.51269500000035,104.23095699999976,113.84619099999964
247,111.2822270000006,96.0258789999998,109.61523400000078,97.82031300000017,107.69238299999961,113.9741210000002,114.23095699999976,118.58984400000008,117.69238299999961,114.87158199999976,98.58984400000008,113.3334960000002,113.9741210000002,112.82031300000017
248,120.51269500000035,108.9741210000002,120.0,110.76904300000024,118.9741210000002,115.25634799999989,120.25634799999989,129.87158199999976,130.12841800000024,129.23095699999976,108.0771479999994,117.43603499999972,126.0258789999998,112.17968800000017
249,121.2822270000006,114.87158199999976,122.69238299999961,115.38476599999922,124.48730499999965,114.48730499999965,122.17968800000017,134.7436520000001,135.89746099999957,135.51269500000035,110.25634799999989,118.58984400000008,130.2563479999999,112.43603499999972
250,112.17968800000017,110.0,115.64111300000059,110.51269500000035,122.05126999999993,112.56396500000028,119.10253900000043,130.0,130.38476599999922,128.84619099999964,102.69238299999961,115.76904300000024,123.9741210000002,113.7177729999994
251,101.41015599999992,100.89746099999957,105.12841800000024,102.69238299999961,116.2822270000006,111.41015599999992,115.25634799999989,120.76904300000024,118.9741210000002,114.87158199999976,91.6665039999998,111.79492200000004,113.9741210000002,115.51269500000035
252,98.0771479999994,97.82031300000017,99.48730499999965,99.87158199999976,113.84619099999964,111.9228520000006,114.61523400000078,114.74365200000011,111.6665039999998,104.35888699999941,87.05126999999993,110.25634799999989,109.10253900000043,116.79492200000004
253,104.35888699999941,105.0,102.30761700000039,104.61523400000078,116.53857400000015,112.94873000000007,117.05126999999993,115.12841800000024,113.3334960000002,104.48730499999965,92.05126999999993,112.05126999999993,112.17968800000017,117.05126999999993
254,114.10253900000043,116.53857400000015,109.23095699999976,111.9228520000006,120.12841800000024,112.69238299999961,118.84619099999964,118.3334960000002,120.25634799999989,113.20507799999996,100.64111300000059,114.48730499999965,118.3334960000002,116.41015599999992
255,118.58984400000008,121.15380900000036,112.94873000000007,114.74365200000011,118.3334960000002,110.64111300000059,116.2822270000006,118.3334960000002,123.7177729999994,121.53857400000015,103.20507799999996,114.35888699999941,120.0,115.25634799999989
256,114.48730499999965,112.82031300000017,109.87158199999976,110.51269500000035,109.35888699999941,108.20507799999996,109.48730499999965,112.94873000000007,118.9741210000002,121.79492200000004,95.64111300000059,110.0,113.7177729999994,114.23095699999976
257,104.87158199999976,96.2822270000006,102.30761700000039,102.82031300000017,97.82031300000017,107.05126999999993,102.30761700000039,105.0,108.3334960000002,113.3334960000002,83.3334960000002,103.58984400000008,102.30761700000039,113.3334960000002
258,96.0258789999998,82.43603499999972,96.0258789999998,98.20507799999996,91.0258789999998,108.0771479999994,98.58984400000008,99.35888699999941,98.3334960000002,102.30761700000039,74.87158199999976,98.84619099999964,92.43603499999972,112.56396500000028
259,92.69238299999961,79.61523400000078,95.0,100.0,92.30761700000039,110.12841800000024,99.23095699999976,98.84619099999964,94.23095699999976,95.51269500000035,75.51269500000035,98.20507799999996,89.35888699999941,111.79492200000004
260,95.0,87.17968800000017,98.58984400000008,106.41015599999992,99.23095699999976,111.9228520000006,102.56396500000028,102.30761700000039,96.79492200000004,95.89746099999957,83.58984400000008,101.53857400000015,93.58984400000008,111.15380900000036
261,99.74365200000011,97.30761700000039,103.20507799999996,112.43603499999972,105.38476599999922,112.43603499999972,106.15380900000036,105.89746099999957,102.43603499999972,101.0258789999998,93.3334960000002,106.15380900000036,101.15380900000036,111.0258789999998
262,104.23095699999976,102.30761700000039,105.51269500000035,115.38476599999922,106.6665039999998,111.9228520000006,108.0771479999994,106.53857400000015,106.2822270000006,106.2822270000006,98.9741210000002,108.7177729999994,107.56396500000028,111.6665039999998
263,107.05126999999993,100.89746099999957,104.23095699999976,115.76904300000024,103.58984400000008,111.9228520000006,107.82031300000017,104.35888699999941,104.74365200000011,107.30761700000039,97.94873000000007,107.82031300000017,110.64111300000059,112.69238299999961
264,108.58984400000008,98.3334960000002,101.15380900000036,116.6665039999998,99.87158199999976,113.3334960000002,105.51269500000035,101.53857400000015,98.84619099999964,103.20507799999996,92.56396500000028,104.23095699999976,112.05126999999993,113.7177729999994
265,109.35888699999941,99.35888699999941,99.23095699999976,119.23095699999976,98.58984400000008,115.76904300000024,102.30761700000039,100.12841800000024,91.6665039999998,96.79492200000004,87.30761700000039,100.76904300000024,114.74365200000011,113.7177729999994
266,109.35888699999941,102.94873000000007,99.74365200000011,120.76904300000024,99.23095699999976,116.79492200000004,98.20507799999996,99.48730499999965,86.6665039999998,91.41015599999992,85.51269500000035,99.87158199999976,120.38476599999922,112.94873000000007
267,108.84619099999964,104.10253900000043,102.17968800000017,118.58984400000008,99.48730499999965,115.25634799999989,93.9741210000002,98.20507799999996,84.87158199999976,88.58984400000008,87.17968800000017,101.79492200000004,128.20507799999996,112.56396500000028
268,109.61523400000078,101.2822270000006,105.76904300000024,113.9741210000002,98.7177729999994,112.05126999999993,91.6665039999998,96.79492200000004,86.0258789999998,88.58984400000008,91.41015599999992,105.64111300000059,136.9228520000006,113.3334960000002
269,114.48730499999965,99.74365200000011,110.12841800000024,112.82031300000017,99.23095699999976,109.74365200000011,93.84619099999964,97.82031300000017,89.48730499999965,91.15380900000036,98.46142599999985,110.38476599999922,146.9228520000006,115.0
270,124.74365200000011,106.79492200000004,115.38476599999922,119.74365200000011,103.46142599999985,109.87158199999976,100.89746099999957,102.94873000000007,95.0,96.0258789999998,108.58984400000008,115.38476599999922,159.48730499999965,116.0258789999998
271,137.56396500000028,124.74365200000011,120.0,133.9741210000002,109.74365200000011,111.41015599999992,109.61523400000078,110.12841800000024,100.89746099999957,102.43603499999972,119.74365200000011,119.48730499999965,174.48730499999965,115.76904300000024
272,148.20507799999996,147.94873000000007,122.43603499999972,149.61523400000078,112.43603499999972,111.9228520000006,114.61523400000078,114.61523400000078,105.0,108.20507799999996,128.9741210000002,121.6665039999998,189.3588869999994,114.23095699999976
273,153.58984400000008,166.79492200000004,121.79492200000004,160.76904300000024,107.82031300000017,110.12841800000024,112.94873000000007,112.30761700000039,104.48730499999965,111.15380900000036,133.3334960000002,121.15380900000036,201.15380900000036,112.17968800000017
274,154.3588869999994,175.38476599999922,119.87158199999976,164.7436520000001,97.56396500000028,107.94873000000007,106.15380900000036,103.84619099999964,99.10253900000043,110.25634799999989,132.17968800000017,118.84619099999964,208.7177729999994,110.89746099999957
275,154.61523400000078,175.51269500000035,118.9741210000002,163.84619099999964,88.84619099999964,107.82031300000017,98.9741210000002,93.9741210000002,91.15380900000036,106.6665039999998,128.46142599999985,116.6665039999998,213.46142599999985,111.53857400000015
276,158.7177729999994,175.76904300000024,121.41015599999992,164.23095699999976,88.7177729999994,110.89746099999957,95.76904300000024,88.46142599999985,85.64111300000059,103.20507799999996,126.9228520000006,116.6665039999998,219.3588869999994,113.7177729999994
277,168.9741210000002,185.76904300000024,127.69238299999961,170.76904300000024,98.84619099999964,115.12841800000024,97.43603499999972,90.0,85.89746099999957,102.69238299999961,132.43603499999972,119.23095699999976,230.89746099999957,116.41015599999992
278,183.0771479999994,207.94873000000007,136.0258789999998,183.9741210000002,113.7177729999994,117.17968800000017,101.2822270000006,96.41015599999992,91.41015599999992,105.76904300000024,144.61523400000078,124.23095699999976,248.84619099999964,117.69238299999961
279,196.41015599999992,235.6411130000006,143.46142599999985,199.23095699999976,125.12841800000024,115.51269500000035,103.46142599999985,102.56396500000028,97.82031300000017,109.74365200000011,158.20507799999996,129.48730499999965,268.0771479999994,117.17968800000017
280,204.7436520000001,257.94873000000007,147.6923829999996,210.2563479999999,127.82031300000017,111.0258789999998,102.43603499999972,104.48730499999965,100.38476599999922,110.76904300000024,166.15380900000036,132.6923829999996,280.6411130000006,115.51269500000035
281,207.17968800000017,267.94873000000007,148.0771479999994,213.84619099999964,122.30761700000039,106.9228520000006,100.25634799999989,102.56396500000028,97.30761700000039,107.17968800000017,165.12841800000024,132.82031300000017,281.6665039999998,113.58984400000008
282,206.6665039999998,267.4360349999997,145.6411130000006,212.17968800000017,112.94873000000007,105.64111300000059,99.74365200000011,100.25634799999989,91.0258789999998,101.41015599999992,157.94873000000007,130.6411130000006,273.7177729999994,112.43603499999972
283,207.94873000000007,265.3847659999992,143.20507799999996,210.6411130000006,104.61523400000078,107.94873000000007,101.2822270000006,100.51269500000035,86.15380900000036,97.94873000000007,151.2822270000006,128.84619099999964,265.3847659999992,112.56396500000028
284,213.46142599999985,270.12841800000024,142.94873000000007,213.58984400000008,99.87158199999976,111.9228520000006,102.82031300000017,102.43603499999972,86.15380900000036,99.10253900000043,150.38476599999922,129.10253900000043,264.23095699999976,113.7177729999994
285,222.17968800000017,283.5898440000001,145.76904300000024,221.41015599999992,98.84619099999964,114.23095699999976,101.41015599999992,102.82031300000017,89.61523400000078,102.30761700000039,155.2563479999999,131.53857400000015,270.89746099999957,115.0
286,229.7436520000001,301.15380900000036,149.48730499999965,231.0258789999998,100.0,113.58984400000008,95.89746099999957,98.9741210000002,92.43603499999972,102.30761700000039,160.89746099999957,133.84619099999964,278.20507799999996,115.51269500000035
287,232.94873000000007,316.0258789999998,151.53857400000015,238.3334960000002,102.56396500000028,111.2822270000006,88.9741210000002,92.05126999999993,91.0258789999998,95.89746099999957,161.9228520000006,134.3588869999994,277.94873000000007,114.87158199999976
288,231.79492200000004,323.9741210000002,151.53857400000015,240.89746099999957,106.2822270000006,109.74365200000011,84.61523400000078,86.2822270000006,85.51269500000035,85.0,157.05126999999993,133.46142599999985,268.0771479999994,113.7177729999994
289,229.10253900000043,324.87158199999976,150.38476599999922,238.3334960000002,109.10253900000043,110.38476599999922,84.61523400000078,84.74365200000011,78.9741210000002,74.61523400000078,148.84619099999964,132.3076170000004,253.9741210000002,112.82031300000017
290,227.56396500000028,320.51269500000035,149.3588869999994,231.6665039999998,107.69238299999961,112.56396500000028,87.05126999999993,86.15380900000036,73.84619099999964,68.7177729999994,140.51269500000035,131.53857400000015,242.82031300000017,112.30761700000039
291,227.94873000000007,314.3588869999994,149.3588869999994,223.84619099999964,100.64111300000059,115.0,88.3334960000002,86.41015599999992,70.0,67.05126999999993,133.9741210000002,130.76904300000024,238.58984400000008,111.79492200000004
292,229.87158199999976,310.89746099999957,150.89746099999957,220.0,92.17968800000017,116.53857400000015,87.56396500000028,83.84619099999964,67.17968800000017,68.0771479999994,130.76904300000024,130.12841800000024,239.23095699999976,111.53857400000015
293,233.7177729999994,314.10253900000043,154.3588869999994,224.10253900000043,90.64111300000059,116.79492200000004,87.43603499999972,81.41015599999992,66.79492200000004,71.41015599999992,131.79492200000004,131.0258789999998,240.6411130000006,112.17968800000017
294,239.23095699999976,322.94873000000007,158.9741210000002,235.38476599999922,99.35888699999941,116.15380900000036,91.0258789999998,82.94873000000007,70.89746099999957,77.82031300000017,136.6665039999998,134.61523400000078,239.7436520000001,113.84619099999964
295,244.10253900000043,332.5639650000003,162.94873000000007,248.3334960000002,113.20507799999996,115.25634799999989,97.94873000000007,89.48730499999965,79.35888699999941,85.25634799999989,142.94873000000007,138.9741210000002,236.15380900000036,115.12841800000024
296,245.38476599999922,336.9228520000006,163.84619099999964,255.6411130000006,122.17968800000017,114.87158199999976,104.23095699999976,96.79492200000004,87.69238299999961,89.10253900000043,146.15380900000036,140.76904300000024,230.38476599999922,115.25634799999989
297,240.89746099999957,333.0771479999994,161.0258789999998,253.20507799999996,120.0,115.12841800000024,105.76904300000024,99.87158199999976,89.74365200000011,86.15380900000036,143.0771479999994,138.20507799999996,223.58984400000008,113.84619099999964
298,231.9228520000006,322.3076170000004,155.76904300000024,242.56396500000028,109.10253900000043,115.64111300000059,100.89746099999957,96.41015599999992,83.46142599999985,78.0771479999994,133.84619099999964,132.6923829999996,216.2822270000006,111.79492200000004
299,222.05126999999993,308.20507799999996,150.89746099999957,230.38476599999922,98.84619099999964,115.89746099999957,92.94873000000007,89.48730499999965,73.3334960000002,70.76904300000024,122.82031300000017,127.69238299999961,209.10253900000043,110.25634799999989
300,214.61523400000078,295.12841800000024,148.58984400000008,223.3334960000002,97.56396500000028,115.25634799999989,86.41015599999992,84.87158199999976,67.05126999999993,69.74365200000011,115.89746099999957,126.0258789999998,202.82031300000017,110.25634799999989
301,210.38476599999922,285.6411130000006,148.46142599999985,223.0771479999994,105.64111300000059,113.3334960000002,84.48730499999965,86.15380900000036,68.9741210000002,75.89746099999957,115.76904300000024,127.30761700000039,198.20507799999996,111.79492200000004
302,206.79492200000004,278.9741210000002,148.20507799999996,225.38476599999922,116.0258789999998,110.64111300000059,87.05126999999993,91.9228520000006,76.41015599999992,83.9741210000002,119.87158199999976,128.7177729999994,194.61523400000078,113.46142599999985
303,200.76904300000024,271.4101559999999,145.2563479999999,224.10253900000043,120.64111300000059,108.7177729999994,91.41015599999992,98.20507799999996,83.3334960000002,87.94873000000007,122.17968800000017,127.05126999999993,189.61523400000078,113.84619099999964
304,191.53857400000015,260.12841800000024,140.0,216.79492200000004,117.30761700000039,109.23095699999976,95.64111300000059,101.15380900000036,85.64111300000059,85.76904300000024,118.3334960000002,122.05126999999993,181.2822270000006,113.3334960000002
305,181.6665039999998,245.51269500000035,134.87158199999976,206.0258789999998,110.64111300000059,112.30761700000039,98.58984400000008,100.76904300000024,84.35888699999941,81.41015599999992,109.87158199999976,116.53857400000015,170.51269500000035,112.82031300000017
306,174.61523400000078,230.76904300000024,132.17968800000017,197.17968800000017,107.05126999999993,115.76904300000024,100.12841800000024,98.7177729999994,83.7177729999994,81.6665039999998,102.43603499999972,114.23095699999976,162.05126999999993,112.82031300000017
307,171.79492200000004,218.7177729999994,131.6665039999998,193.20507799999996,108.7177729999994,117.30761700000039,100.25634799999989,97.56396500000028,87.30761700000039,89.48730499999965,100.76904300000024,115.76904300000024,160.12841800000024,113.0771479999994
308,170.6411130000006,208.84619099999964,131.2822270000006,192.43603499999972,112.05126999999993,116.53857400000015,98.9741210000002,98.20507799999996,93.84619099999964,101.2822270000006,103.84619099999964,117.82031300000017,163.7177729999994,113.0771479999994
309,166.15380900000036,197.94873000000007,128.46142599999985,190.89746099999957,112.05126999999993,114.87158199999976,97.56396500000028,100.25634799999989,99.48730499999965,109.74365200000011,106.6665039999998,117.17968800000017,167.17968800000017,113.7177729999994
310,156.15380900000036,184.7436520000001,122.82031300000017,185.38476599999922,106.9228520000006,114.23095699999976,97.30761700000039,102.43603499999972,100.64111300000059,110.38476599999922,105.12841800000024,113.3334960000002,165.0,115.38476599999922
311,143.3334960000002,170.76904300000024,116.15380900000036,176.79492200000004,101.0258789999998,114.87158199999976,98.58984400000008,103.20507799999996,97.69238299999961,104.48730499999965,100.0,108.9741210000002,157.56396500000028,117.69238299999961
312,132.94873000000007,159.48730499999965,111.79492200000004,168.20507799999996,100.38476599999922,115.51269500000035,100.76904300000024,102.69238299999961,94.35888699999941,98.46142599999985,96.15380900000036,107.05126999999993,150.38476599999922,119.48730499999965
313,128.7177729999994,152.05126999999993,111.53857400000015,163.46142599999985,107.17968800000017,115.25634799999989,102.56396500000028,101.79492200000004,94.23095699999976,97.82031300000017,97.43603499999972,108.46142599999985,148.9741210000002,119.74365200000011
314,130.0,146.79492200000004,114.87158199999976,163.7177729999994,117.43603499999972,114.61523400000078,103.58984400000008,102.05126999999993,98.20507799999996,103.3334960000002,103.58984400000008,111.15380900000036,153.7177729999994,118.20507799999996
315,132.6923829999996,141.2822270000006,118.7177729999994,167.3076170000004,125.0,114.35888699999941,104.35888699999941,104.48730499999965,103.58984400000008,111.2822270000006,111.2822270000006,112.43603499999972,160.2563479999999,115.64111300000059
316,132.6923829999996,134.23095699999976,119.74365200000011,170.0,125.51269500000035,114.61523400000078,105.12841800000024,108.84619099999964,107.30761700000039,117.43603499999972,116.6665039999998,110.89746099999957,162.94873000000007,112.94873000000007
317,127.69238299999961,125.76904300000024,116.79492200000004,167.56396500000028,119.61523400000078,114.74365200000011,105.12841800000024,112.94873000000007,107.56396500000028,120.25634799999989,117.30761700000039,107.69238299999961,160.0,111.53857400000015
318,119.23095699999976,117.17968800000017,111.41015599999992,159.23095699999976,111.9228520000006,113.7177729999994,103.7177729999994,114.74365200000011,105.89746099999957,120.76904300000024,113.9741210000002,105.12841800000024,154.87158199999976,112.05126999999993
319,111.79492200000004,111.0258789999998,106.9228520000006,149.48730499999965,108.46142599999985,111.6665039999998,101.79492200000004,114.23095699999976,105.76904300000024,121.41015599999992,110.25634799999989,105.25634799999989,153.0771479999994,113.58984400000008
320,110.12841800000024,110.12841800000024,106.0258789999998,145.2563479999999,112.30761700000039,109.35888699999941,101.41015599999992,113.84619099999964,110.25634799999989,123.84619099999964,110.38476599999922,107.94873000000007,157.17968800000017,114.74365200000011
321,115.76904300000024,114.10253900000043,109.10253900000043,149.7436520000001,122.05126999999993,108.46142599999985,104.48730499999965,115.76904300000024,119.23095699999976,127.56396500000028,115.0,112.05126999999993,164.87158199999976,114.87158199999976
322,125.0,118.84619099999964,114.48730499999965,160.2563479999999,131.79492200000004,110.25634799999989,110.38476599999922,119.87158199999976,128.84619099999964,131.0258789999998,120.64111300000059,115.12841800000024,170.2563479999999,114.23095699999976
323,130.89746099999957,120.12841800000024,118.9741210000002,169.48730499999965,136.0258789999998,114.23095699999976,116.2822270000006,123.9741210000002,135.0,133.0771479999994,122.94873000000007,116.2822270000006,168.9741210000002,113.9741210000002
324,128.84619099999964,116.53857400000015,120.38476599999922,172.3076170000004,133.46142599999985,117.82031300000017,118.9741210000002,125.38476599999922,134.87158199999976,133.46142599999985,119.74365200000011,115.38476599999922,161.0258789999998,113.9741210000002
325,120.38476599999922,110.51269500000035,118.46142599999985,168.7177729999994,127.05126999999993,118.20507799999996,118.20507799999996,123.3334960000002,129.3588869999994,132.82031300000017,112.94873000000007,113.84619099999964,150.76904300000024,114.10253900000043
326,110.76904300000024,105.0,114.87158199999976,162.94873000000007,120.51269500000035,115.0,116.0258789999998,119.35888699999941,121.41015599999992,131.41015599999992,106.41015599999992,112.69238299999961,143.46142599999985,113.84619099999964
327,104.87158199999976,101.53857400000015,111.2822270000006,158.9741210000002,116.41015599999992,109.61523400000078,115.0,116.2822270000006,114.74365200000011,129.61523400000078,102.43603499999972,112.05126999999993,140.2563479999999,113.7177729999994
328,103.46142599999985,98.7177729999994,108.58984400000008,157.17968800000017,113.9741210000002,105.12841800000024,115.25634799999989,115.51269500000035,111.41015599999992,126.79492200000004,100.12841800000024,110.64111300000059,138.20507799999996,113.58984400000008
329,103.0771479999994,94.10253900000043,106.2822270000006,153.7177729999994,111.15380900000036,103.7177729999994,114.87158199999976,115.89746099999957,110.25634799999989,122.56396500000028,96.53857400000015,107.94873000000007,132.82031300000017,113.58984400000008
330,100.25634799999989,86.41015599999992,103.58984400000008,145.76904300000024,106.79492200000004,105.76904300000024,111.9228520000006,115.64111300000059,108.7177729999994,117.43603499999972,89.87158199999976,104.48730499999965,122.82031300000017,113.7177729999994
331,94.61523400000078,77.69238299999961,100.64111300000059,134.7436520000001,103.7177729999994,110.12841800000024,107.05126999999993,113.84619099999964,105.25634799999989,113.20507799999996,81.41015599999992,101.53857400000015,111.0258789999998,113.58984400000008
332,88.58984400000008,71.53857400000015,98.7177729999994,126.0258789999998,105.38476599999922,114.61523400000078,103.0771479999994,111.79492200000004,101.6665039999998,111.6665039999998,74.48730499999965,100.0,101.2822270000006,113.20507799999996
333,85.0,70.0,98.58984400000008,124.23095699999976,111.6665039999998,117.05126999999993,102.17968800000017,111.53857400000015,100.12841800000024,112.82031300000017,71.53857400000015,100.25634799999989,96.15380900000036,112.56396500000028
334,84.74365200000011,73.0771479999994,100.0,128.84619099999964,117.94873000000007,117.17968800000017,104.74365200000011,112.94873000000007,101.6665039999998,114.48730499999965,72.94873000000007,101.53857400000015,96.0258789999998,112.30761700000039
335,86.9228520000006,78.20507799999996,101.6665039999998,135.0,119.23095699999976,115.89746099999957,108.9741210000002,114.74365200000011,105.25634799999989,114.74365200000011,77.56396500000028,102.69238299999961,99.23095699999976,112.56396500000028
336,89.23095699999976,82.82031300000017,103.0771479999994,137.6923829999996,115.12841800000024,115.51269500000035,113.84619099999964,116.15380900000036,110.0,114.48730499999965,82.82031300000017,103.0771479999994,103.3334960000002,113.0771479999994
337,90.0,84.87158199999976,104.35888699999941,136.53857400000015,109.87158199999976,116.0258789999998,119.10253900000043,117.43603499999972,114.87158199999976,115.25634799999989,86.15380900000036,103.46142599999985,105.25634799999989,113.58984400000008
338,88.9741210000002,83.46142599999985,105.38476599999922,134.3588869999994,107.82031300000017,115.89746099999957,123.84619099999964,119.23095699999976,119.23095699999976,117.56396500000028,86.2822270000006,104.48730499999965,103.58984400000008,113.58984400000008
339,86.53857400000015,78.9741210000002,105.51269500000035,132.94873000000007,109.23095699999976,114.10253900000043,125.64111300000059,120.51269500000035,121.6665039999998,119.23095699999976,83.20507799999996,105.51269500000035,98.58984400000008,113.3334960000002
340,83.0771479999994,73.0771479999994,103.84619099999964,131.9228520000006,111.0258789999998,110.76904300000024,122.43603499999972,119.35888699999941,119.87158199999976,117.56396500000028,77.94873000000007,104.87158199999976,92.05126999999993,112.82031300000017
341,78.3334960000002,68.3334960000002,100.76904300000024,130.2563479999999,110.25634799999989,107.56396500000028,114.48730499999965,115.25634799999989,113.46142599999985,112.43603499999972,72.30761700000039,102.05126999999993,86.15380900000036,112.30761700000039
342,73.3334960000002,66.41015599999992,97.43603499999972,129.23095699999976,107.56396500000028,106.41015599999992,105.76904300000024,110.51269500000035,105.12841800000024,107.05126999999993,68.0771479999994,98.7177729999994,82.30761700000039,112.17968800000017
343,69.61523400000078,67.05126999999993,95.76904300000024,130.38476599999922,105.38476599999922,108.0771479999994,101.15380900000036,108.0771479999994,98.9741210000002,104.23095699999976,66.79492200000004,97.43603499999972,80.64111300000059,112.56396500000028
344,68.20507799999996,67.82031300000017,95.89746099999957,133.7177729999994,105.0,111.9228520000006,102.82031300000017,108.9741210000002,97.30761700000039,104.10253900000043,68.0771479999994,98.58984400000008,79.87158199999976,113.20507799999996
345,68.46142599999985,65.64111300000059,96.6665039999998,135.76904300000024,105.25634799999989,115.0,108.46142599999985,111.53857400000015,98.7177729999994,104.23095699999976,69.74365200000011,100.25634799999989,77.94873000000007,113.7177729999994
346,68.9741210000002,60.0,96.2822270000006,133.7177729999994,104.48730499999965,115.76904300000024,113.46142599999985,113.20507799999996,100.76904300000024,102.82031300000017,69.61523400000078,100.51269500000035,74.61523400000078,113.20507799999996
347,68.9741210000002,54.23095699999976,94.87158199999976,128.20507799999996,102.56396500000028,114.10253900000043,114.74365200000011,112.56396500000028,102.56396500000028,100.51269500000035,67.69238299999961,99.48730499999965,70.89746099999957,112.17968800000017
348,69.10253900000043,52.43603499999972,93.9741210000002,124.23095699999976,102.17968800000017,112.05126999999993,113.20507799999996,111.0258789999998,104.48730499999965,100.12841800000024,66.41015599999992,98.3334960000002,68.46142599999985,111.15380900000036
349,70.38476599999922,56.153809000000365,95.38476599999922,126.6665039999998,105.25634799999989,110.76904300000024,112.30761700000039,110.51269500000035,106.41015599999992,103.58984400000008,67.30761700000039,98.3334960000002,68.58984400000008,110.89746099999957
350,72.43603499999972,62.43603499999972,98.58984400000008,135.2563479999999,110.51269500000035,110.76904300000024,113.84619099999964,112.05126999999993,107.30761700000039,109.35888699999941,69.48730499999965,99.35888699999941,70.64111300000059,111.0258789999998
351,73.58984400000008,65.89746099999957,101.2822270000006,144.10253900000043,113.7177729999994,111.15380900000036,117.17968800000017,114.61523400000078,106.6665039999998,113.3334960000002,70.76904300000024,100.51269500000035,72.17968800000017,111.41015599999992
352,72.17968800000017,63.7177729999994,101.79492200000004,146.41015599999992,111.15380900000036,111.0258789999998,119.10253900000043,116.53857400000015,104.48730499999965,111.41015599999992,69.10253900000043,100.64111300000059,70.89746099999957,112.17968800000017
353,68.46142599999985,57.94873000000007,99.61523400000078,140.2563479999999,103.3334960000002,110.25634799999989,117.17968800000017,117.05126999999993,102.82031300000017,103.7177729999994,65.64111300000059,99.48730499999965,66.9228520000006,113.20507799999996
354,65.12841800000024,54.61523400000078,96.79492200000004,131.15380900000036,96.2822270000006,109.74365200000011,113.3334960000002,116.6665039999998,104.10253900000043,96.0258789999998,63.7177729999994,98.0771479999994,63.7177729999994,113.46142599999985
355,65.51269500000035,58.20507799999996,95.64111300000059,126.79492200000004,96.41015599999992,110.76904300000024,111.15380900000036,116.41015599999992,109.35888699999941,95.0,65.51269500000035,98.0771479999994,64.35888699999941,112.82031300000017
356,69.61523400000078,67.17968800000017,97.30761700000039,130.89746099999957,105.0,113.20507799999996,112.82031300000017,117.05126999999993,116.53857400000015,103.0771479999994,70.12841800000024,99.74365200000011,69.10253900000043,112.17968800000017
357,74.35888699999941,75.12841800000024,101.0258789999998,140.6411130000006,115.89746099999957,115.51269500000035,116.9228520000006,118.0771479999994,121.41015599999992,115.12841800000024,73.9741210000002,101.9228520000006,74.74365200000011,112.82031300000017
358,76.53857400000015,77.17968800000017,104.87158199999976,149.48730499999965,121.9228520000006,116.53857400000015,120.0,118.7177729999994,120.89746099999957,123.46142599999985,74.23095699999976,103.0771479999994,78.0771479999994,114.74365200000011
359,75.89746099999957,74.87158199999976,107.69238299999961,153.20507799999996,121.9228520000006,116.6665039999998,120.25634799999989,119.74365200000011,117.05126999999993,123.7177729999994,72.17968800000017,102.82031300000017,78.58984400000008,117.17968800000017
360,75.0,73.58984400000008,109.48730499999965,151.6665039999998,119.61523400000078,116.41015599999992,118.84619099999964,122.94873000000007,115.12841800000024,119.10253900000043,71.9228520000006,102.17968800000017,78.58984400000008,118.7177729999994
361,76.41015599999992,77.30761700000039,109.87158199999976,147.6923829999996,118.84619099999964,115.51269500000035,117.82031300000017,128.3334960000002,119.23095699999976,115.76904300000024,76.2822270000006,102.17968800000017,80.0,118.0771479999994
362,79.61523400000078,83.9741210000002,108.7177729999994,143.0771479999994,118.3334960000002,114.10253900000043,117.43603499999972,133.3334960000002,127.56396500000028,117.94873000000007,83.84619099999964,103.0771479999994,82.69238299999961,115.51269500000035
363,81.6665039999998,87.94873000000007,106.2822270000006,138.3334960000002,115.0,112.82031300000017,117.43603499999972,134.23095699999976,135.0,124.48730499999965,89.48730499999965,103.7177729999994,84.61523400000078,112.94873000000007
364,80.12841800000024,85.51269500000035,103.58984400000008,134.10253900000043,107.82031300000017,112.82031300000017,117.30761700000039,130.2563479999999,136.53857400000015,131.0258789999998,88.58984400000008,103.3334960000002,83.46142599999985,112.56396500000028
365,75.12841800000024,77.69238299999961,101.53857400000015,132.05126999999993,100.12841800000024,113.7177729999994,117.05126999999993,124.10253900000043,131.0258789999998,132.82031300000017,81.15380900000036,101.9228520000006,78.46142599999985,114.23095699999976
366,69.23095699999976,69.61523400000078,100.25634799999989,133.46142599999985,96.79492200000004,115.12841800000024,116.41015599999992,119.48730499999965,122.30761700000039,128.84619099999964,71.6665039999998,99.74365200000011,71.41015599999992,115.89746099999957
367,65.89746099999957,65.76904300000024,99.74365200000011,137.6923829999996,101.15380900000036,116.2822270000006,115.51269500000035,118.84619099999964,115.38476599999922,121.0258789999998,66.53857400000015,97.82031300000017,65.25634799999989,116.15380900000036
368,66.15380900000036,67.05126999999993,100.12841800000024,141.79492200000004,111.2822270000006,117.05126999999993,115.12841800000024,122.05126999999993,113.7177729999994,114.23095699999976,68.84619099999964,97.30761700000039,62.17968800000017,115.25634799999989
369,69.10253900000043,71.0258789999998,101.15380900000036,143.0771479999994,121.41015599999992,116.9228520000006,116.0258789999998,126.6665039999998,117.56396500000028,112.30761700000039,76.9228520000006,98.58984400000008,63.20507799999996,114.74365200000011
370,71.79492200000004,74.74365200000011,102.43603499999972,140.6411130000006,125.25634799999989,116.2822270000006,118.46142599999985,130.12841800000024,124.48730499999965,116.53857400000015,85.76904300000024,101.0258789999998,67.17968800000017,115.38476599999922
371,72.43603499999972,76.2822270000006,103.0771479999994,135.89746099999957,120.76904300000024,115.76904300000024,120.89746099999957,131.53857400000015,131.2822270000006,124.23095699999976,91.2822270000006,103.20507799999996,71.79492200000004,116.9228520000006
372,71.0258789999998,75.0,102.69238299999961,131.79492200000004,111.2822270000006,115.51269500000035,121.53857400000015,131.2822270000006,134.61523400000078,131.15380900000036,91.79492200000004,103.58984400000008,74.74365200000011,117.94873000000007
373,68.7177729999994,70.51269500000035,101.41015599999992,130.76904300000024,103.58984400000008,114.87158199999976,118.84619099999964,129.87158199999976,133.0771479999994,133.46142599999985,88.3334960000002,102.43603499999972,74.48730499999965,117.05126999999993
374,67.05126999999993,63.7177729999994,100.25634799999989,132.6923829999996,101.6665039999998,113.20507799999996,113.46142599999985,127.94873000000007,128.20507799999996,131.15380900000036,83.20507799999996,101.15380900000036,70.89746099999957,114.10253900000043
375,66.53857400000015,57.94873000000007,99.74365200000011,135.76904300000024,104.10253900000043,111.2822270000006,107.82031300000017,125.64111300000059,122.82031300000017,126.2822270000006,77.82031300000017,100.64111300000059,65.12841800000024,110.51269500000035
376,66.15380900000036,56.53857400000015,100.0,137.17968800000017,106.15380900000036,110.38476599999922,104.35888699999941,123.46142599999985,119.48730499999965,121.9228520000006,73.46142599999985,100.51269500000035,59.35888699999941,108.9741210000002
377,64.48730499999965,60.76904300000024,99.87158199999976,135.76904300000024,104.87158199999976,111.53857400000015,103.46142599999985,121.6665039999998,118.3334960000002,119.10253900000043,70.51269500000035,100.0,55.12841800000024,110.89746099999957
378,60.897460999999566,68.9741210000002,98.46142599999985,132.3076170000004,101.9228520000006,113.9741210000002,103.7177729999994,119.87158199999976,117.82031300000017,116.41015599999992,68.9741210000002,98.9741210000002,51.9228520000006,114.87158199999976
379,56.53857400000015,77.82031300000017,95.64111300000059,129.61523400000078,100.89746099999957,116.15380900000036,103.20507799999996,117.82031300000017,116.0258789999998,111.6665039999998,68.0771479999994,96.79492200000004,49.102539000000434,117.56396500000028
380,54.35888699999941,83.7177729999994,92.56396500000028,129.48730499999965,103.20507799999996,116.6665039999998,101.2822270000006,115.76904300000024,112.30761700000039,104.74365200000011,67.30761700000039,93.58984400000008,46.025878999999804,117.05126999999993
381,55.897460999999566,84.74365200000011,91.0258789999998,132.17968800000017,107.56396500000028,115.64111300000059,99.35888699999941,114.48730499999965,108.46142599999985,98.84619099999964,66.6665039999998,90.51269500000035,43.589844000000085,114.23095699999976
382,60.76904300000024,82.43603499999972,92.94873000000007,136.6665039999998,111.41015599999992,114.10253900000043,99.48730499999965,114.61523400000078,107.69238299999961,98.46142599999985,66.53857400000015,89.61523400000078,43.20507799999996,111.53857400000015
383,66.2822270000006,79.74365200000011,97.82031300000017,141.53857400000015,112.94873000000007,113.3334960000002,103.0771479999994,116.41015599999992,111.6665039999998,106.0258789999998,67.56396500000028,91.79492200000004,45.38476599999922,110.64111300000059
