,EEG.AF3,EEG.F7,EEG.F3,EEG.FC5,EEG.T7,EEG.P7,EEG.O1,EEG.O2,EEG.P8,EEG.T8,EEG.FC6,EEG.F4,EEG.F8,EEG.AF4
0,101.15380900000036,74.87158199999976,103.3334960000002,113.9741210000002,103.84619099999964,116.6665039999998,110.64111300000059,114.23095699999976,113.58984400000008,116.15380900000036,128.58984400000008,106.41015599999992,135.51269500000035,110.0
1,98.3334960000002,73.3334960000002,102.56396500000028,112.82031300000017,102.82031300000017,115.38476599999922,108.7177729999994,111.79492200000004,107.05126999999993,112.82031300000017,126.0258789999998,107.69238299999961,132.94873000000007,111.53857400000015
2,98.9741210000002,74.74365200000011,103.58984400000008,113.3334960000002,101.79492200000004,114.74365200000011,109.48730499999965,109.61523400000078,105.64111300000059,113.58984400000008,125.0,110.12841800000024,135.51269500000035,113.3334960000002
3,101.79492200000004,78.3334960000002,105.64111300000059,114.74365200000011,100.51269500000035,114.61523400000078,111.79492200000004,108.46142599999985,108.84619099999964,116.41015599999992,125.51269500000035,112.43603499999972,141.2822270000006,114.23095699999976
4,105.89746099999957,83.20507799999996,108.58984400000008,116.9228520000006,102.17968800000017,115.0,115.38476599999922,109.23095699999976,115.0,119.48730499999965,128.3334960000002,113.9741210000002,147.94873000000007,113.46142599999985
5,111.41015599999992,89.10253900000043,112.56396500000028,120.76904300000024,108.84619099999964,115.89746099999957,120.64111300000059,112.82031300000017,122.43603499999972,123.3334960000002,134.23095699999976,115.25634799999989,154.10253900000043,111.79492200000004
6,117.56396500000028,94.48730499999965,116.9228520000006,125.76904300000024,118.58984400000008,117.30761700000039,126.6665039999998,118.58984400000008,129.3588869999994,128.0771479999994,141.41015599999992,116.79492200000004,158.58984400000008,110.38476599999922
7,121.41015599999992,96.9228520000006,119.35888699999941,129.61523400000078,124.61523400000078,117.82031300000017,130.6411130000006,123.7177729999994,133.3334960000002,131.9228520000006,145.76904300000024,117.94873000000007,159.48730499999965,110.0
8,119.87158199999976,94.87158199999976,118.46142599999985,129.10253900000043,121.9228520000006,116.41015599999992,130.0,125.38476599999922,133.20507799999996,131.9228520000006,143.7177729999994,117.69238299999961,155.51269500000035,110.76904300000024
9,113.46142599999985,90.0,115.38476599999922,123.84619099999964,111.41015599999992,113.3334960000002,124.61523400000078,123.3334960000002,130.0,127.43603499999972,136.79492200000004,115.76904300000024,148.3334960000002,111.6665039999998
10,106.53857400000015,85.38476599999922,113.0771479999994,117.30761700000039,100.38476599999922,110.38476599999922,117.69238299999961,120.76904300000024,127.30761700000039,122.43603499999972,130.2563479999999,113.7177729999994,142.43603499999972,111.79492200000004
11,103.0771479999994,83.20507799999996,113.3334960000002,113.7177729999994,96.41015599999992,109.35888699999941,113.58984400000008,120.25634799999989,127.94873000000007,122.17968800000017,129.10253900000043,113.3334960000002,141.2822270000006,111.15380900000036
12,104.10253900000043,82.69238299999961,115.38476599999922,114.74365200000011,100.64111300000059,110.76904300000024,113.20507799999996,122.17968800000017,131.53857400000015,127.30761700000039,133.7177729999994,115.25634799999989,144.87158199999976,110.64111300000059
13,106.53857400000015,81.41015599999992,116.53857400000015,117.69238299999961,107.43603499999972,113.20507799999996,114.23095699999976,123.58984400000008,133.58984400000008,133.3334960000002,138.9741210000002,117.43603499999972,149.61523400000078,111.0258789999998
14,107.05126999999993,78.20507799999996,115.12841800000024,118.58984400000008,109.74365200000011,114.87158199999976,114.10253900000043,122.30761700000039,129.7436520000001,134.10253900000043,138.84619099999964,117.94873000000007,150.6411130000006,112.30761700000039
15,105.25634799999989,74.74365200000011,111.6665039999998,116.2822270000006,105.64111300000059,114.74365200000011,112.30761700000039,118.3334960000002,120.51269500000035,127.94873000000007,132.56396500000028,116.2822270000006,146.53857400000015,113.7177729999994
16,104.23095699999976,75.12841800000024,109.48730499999965,113.58984400000008,100.25634799999989,113.3334960000002,111.41015599999992,114.48730499999965,112.17968800000017,119.74365200000011,125.12841800000024,114.10253900000043,140.12841800000024,114.10253900000043
17,107.82031300000017,82.69238299999961,110.89746099999957,114.61523400000078,100.38476599999922,112.17968800000017,113.9741210000002,114.23095699999976,111.53857400000015,116.53857400000015,123.7177729999994,113.84619099999964,137.82031300000017,113.46142599999985
18,116.6665039999998,95.64111300000059,115.38476599999922,120.51269500000035,107.43603499999972,112.94873000000007,119.87158199999976,117.94873000000007,120.25634799999989,121.6665039999998,130.2563479999999,116.0258789999998,143.46142599999985,112.30761700000039
19,126.15380900000036,106.79492200000004,120.12841800000024,128.0771479999994,115.76904300000024,115.12841800000024,125.64111300000059,122.69238299999961,131.9228520000006,131.79492200000004,139.87158199999976,118.7177729999994,154.61523400000078,111.2822270000006
20,130.38476599999922,109.48730499999965,122.05126999999993,132.05126999999993,117.17968800000017,116.9228520000006,126.79492200000004,124.23095699999976,137.43603499999972,139.61523400000078,145.2563479999999,119.48730499999965,163.9741210000002,110.76904300000024
21,126.9228520000006,103.46142599999985,120.12841800000024,129.48730499999965,110.38476599999922,116.6665039999998,121.9228520000006,121.15380900000036,132.82031300000017,139.87158199999976,143.0771479999994,118.0771479999994,165.89746099999957,110.76904300000024
22,119.87158199999976,95.25634799999989,116.2822270000006,122.82031300000017,101.41015599999992,115.0,114.87158199999976,116.15380900000036,122.56396500000028,134.23095699999976,136.9228520000006,115.89746099999957,161.15380900000036,111.2822270000006
23,115.64111300000059,91.79492200000004,113.58984400000008,116.79492200000004,98.0771479999994,113.84619099999964,110.51269500000035,113.58984400000008,115.76904300000024,128.46142599999985,132.82031300000017,114.87158199999976,155.51269500000035,111.79492200000004
24,118.0771479999994,94.61523400000078,113.7177729999994,114.48730499999965,102.94873000000007,114.23095699999976,111.41015599999992,115.38476599999922,117.69238299999961,127.82031300000017,134.23095699999976,115.51269500000035,154.3588869999994,111.9228520000006
25,125.25634799999989,99.48730499999965,116.15380900000036,116.0258789999998,111.2822270000006,116.0258789999998,115.38476599999922,119.74365200000011,125.76904300000024,132.05126999999993,139.3588869999994,117.30761700000039,158.46142599999985,111.9228520000006
26,131.6665039999998,100.64111300000059,118.0771479999994,118.84619099999964,116.15380900000036,116.79492200000004,118.3334960000002,122.43603499999972,132.6923829999996,136.6665039999998,143.46142599999985,118.7177729999994,163.3334960000002,112.56396500000028
27,132.17968800000017,95.89746099999957,117.56396500000028,120.38476599999922,113.84619099999964,115.0,117.69238299999961,120.64111300000059,132.3076170000004,136.79492200000004,142.82031300000017,119.10253900000043,163.84619099999964,114.10253900000043
28,125.76904300000024,87.43603499999972,114.61523400000078,119.35888699999941,106.15380900000036,111.41015599999992,113.46142599999985,114.48730499999965,124.48730499999965,131.6665039999998,137.17968800000017,118.3334960000002,158.0771479999994,115.51269500000035
29,116.41015599999992,80.51269500000035,110.89746099999957,116.15380900000036,98.46142599999985,108.9741210000002,108.84619099999964,107.56396500000028,113.84619099999964,124.74365200000011,129.87158199999976,116.53857400000015,149.48730499999965,115.76904300000024
30,109.74365200000011,80.0,109.10253900000043,113.46142599999985,95.89746099999957,110.0,107.17968800000017,104.48730499999965,107.30761700000039,121.2822270000006,125.51269500000035,115.12841800000024,144.3588869999994,115.0
31,110.0,86.53857400000015,111.15380900000036,113.7177729999994,100.38476599999922,113.7177729999994,110.12841800000024,106.9228520000006,108.84619099999964,123.84619099999964,126.79492200000004,115.25634799999989,146.9228520000006,113.9741210000002
32,116.41015599999992,95.25634799999989,116.15380900000036,117.17968800000017,108.0771479999994,117.56396500000028,115.64111300000059,112.56396500000028,116.15380900000036,129.10253900000043,132.17968800000017,116.9228520000006,154.61523400000078,113.20507799999996
33,123.20507799999996,99.23095699999976,120.12841800000024,120.0,111.79492200000004,118.3334960000002,120.12841800000024,116.41015599999992,122.17968800000017,131.0258789999998,136.41015599999992,118.0771479999994,160.0,112.82031300000017
34,124.48730499999965,94.61523400000078,119.35888699999941,118.84619099999964,107.43603499999972,115.89746099999957,120.89746099999957,115.38476599999922,121.15380900000036,125.64111300000059,134.87158199999976,116.9228520000006,156.53857400000015,112.43603499999972
35,119.61523400000078,85.0,114.23095699999976,115.0,97.82031300000017,112.56396500000028,118.84619099999964,110.89746099999957,114.35888699999941,115.51269500000035,129.10253900000043,113.58984400000008,145.2563479999999,112.17968800000017
36,114.10253900000043,78.9741210000002,109.10253900000043,113.20507799999996,91.2822270000006,111.2822270000006,116.9228520000006,107.69238299999961,108.7177729999994,108.46142599999985,124.61523400000078,110.89746099999957,134.61523400000078,112.05126999999993
37,112.56396500000028,83.20507799999996,107.69238299999961,117.43603499999972,93.84619099999964,112.82031300000017,117.30761700000039,109.74365200000011,110.76904300000024,111.2822270000006,125.64111300000059,111.0258789999998,133.7177729999994,111.9228520000006
38,115.51269500000035,95.89746099999957,110.12841800000024,125.25634799999989,103.0771479999994,115.38476599999922,119.48730499999965,116.2822270000006,120.38476599999922,123.20507799999996,131.9228520000006,113.9741210000002,143.58984400000008,111.6665039999998
39,118.84619099999964,108.0771479999994,113.46142599999985,131.15380900000036,111.41015599999992,116.0258789999998,121.2822270000006,123.0771479999994,130.76904300000024,135.6411130000006,138.7177729999994,116.9228520000006,155.6411130000006,111.79492200000004
40,118.7177729999994,110.76904300000024,114.48730499999965,131.2822270000006,112.69238299999961,113.84619099999964,120.51269500000035,125.64111300000059,135.12841800000024,139.48730499999965,141.6665039999998,117.17968800000017,159.48730499999965,112.30761700000039
41,114.61523400000078,102.43603499999972,112.43603499999972,126.41015599999992,108.0771479999994,110.64111300000059,117.17968800000017,123.20507799999996,131.53857400000015,133.0771479999994,138.9741210000002,113.7177729999994,151.9228520000006,112.82031300000017
42,109.61523400000078,88.84619099999964,108.7177729999994,120.89746099999957,102.69238299999961,109.23095699999976,113.46142599999985,117.94873000000007,123.3334960000002,122.94873000000007,132.6923829999996,108.7177729999994,139.10253900000043,113.3334960000002
43,107.56396500000028,78.58984400000008,106.53857400000015,118.3334960000002,100.89746099999957,111.2822270000006,111.9228520000006,113.9741210000002,116.2822270000006,117.17968800000017,127.17968800000017,105.89746099999957,130.6411130000006,113.46142599999985
44,110.25634799999989,76.9228520000006,107.56396500000028,119.48730499999965,103.46142599999985,115.25634799999989,113.3334960000002,113.20507799999996,113.9741210000002,119.35888699999941,125.51269500000035,107.94873000000007,131.6665039999998,113.20507799999996
45,115.89746099999957,82.94873000000007,110.51269500000035,122.43603499999972,107.43603499999972,117.69238299999961,116.15380900000036,115.25634799999989,116.41015599999992,125.51269500000035,128.3334960000002,113.46142599999985,139.7436520000001,112.43603499999972
46,120.38476599999922,91.15380900000036,112.82031300000017,124.10253900000043,109.61523400000078,117.05126999999993,118.58984400000008,117.82031300000017,120.25634799999989,129.3588869999994,132.56396500000028,118.3334960000002,147.43603499999972,111.41015599999992
47,120.0,95.38476599999922,112.94873000000007,122.82031300000017,109.23095699999976,114.35888699999941,119.10253900000043,119.48730499999965,122.43603499999972,127.82031300000017,134.61523400000078,118.9741210000002,149.23095699999976,111.15380900000036
48,114.48730499999965,93.58984400000008,111.0258789999998,118.9741210000002,108.3334960000002,112.82031300000017,117.56396500000028,119.74365200000011,121.53857400000015,122.05126999999993,132.6923829999996,115.38476599999922,143.9741210000002,112.05126999999993
49,107.43603499999972,87.94873000000007,108.46142599999985,115.12841800000024,109.23095699999976,113.58984400000008,115.0,118.7177729999994,118.7177729999994,115.89746099999957,128.3334960000002,109.74365200000011,135.51269500000035,113.84619099999964
50,103.58984400000008,82.94873000000007,106.6665039999998,113.3334960000002,111.6665039999998,115.25634799999989,112.69238299999961,117.05126999999993,116.0258789999998,112.30761700000039,124.61523400000078,105.64111300000059,129.3588869999994,115.38476599999922
51,105.89746099999957,81.15380900000036,107.43603499999972,114.10253900000043,112.69238299999961,115.64111300000059,112.17968800000017,115.51269500000035,115.25634799999989,112.56396500000028,123.7177729999994,105.76904300000024,128.58984400000008,115.89746099999957
52,112.43603499999972,82.94873000000007,110.76904300000024,116.79492200000004,109.61523400000078,113.46142599999985,113.46142599999985,115.38476599999922,116.0258789999998,116.0258789999998,125.89746099999957,110.12841800000024,132.82031300000017,115.38476599999922
53,118.7177729999994,85.89746099999957,114.87158199999976,120.25634799999989,103.46142599999985,110.25634799999989,115.38476599999922,117.05126999999993,117.30761700000039,121.0258789999998,129.10253900000043,115.51269500000035,138.7177729999994,113.7177729999994
54,121.2822270000006,88.0771479999994,117.17968800000017,123.46142599999985,98.84619099999964,108.0771479999994,116.6665039999998,119.10253900000043,118.20507799999996,125.38476599999922,131.15380900000036,118.0771479999994,142.56396500000028,111.9228520000006
55,119.87158199999976,88.20507799999996,116.53857400000015,125.51269500000035,99.23095699999976,109.10253900000043,116.9228520000006,119.48730499999965,118.58984400000008,126.2822270000006,130.51269500000035,116.6665039999998,142.6923829999996,111.15380900000036
56,116.53857400000015,86.79492200000004,113.46142599999985,124.48730499999965,102.56396500000028,112.69238299999961,116.2822270000006,116.15380900000036,118.46142599999985,123.20507799999996,127.43603499999972,112.56396500000028,139.10253900000043,111.79492200000004
57,113.58984400000008,84.35888699999941,109.48730499999965,119.10253900000043,103.7177729999994,116.15380900000036,115.64111300000059,109.87158199999976,117.05126999999993,117.56396500000028,123.20507799999996,108.0771479999994,133.7177729999994,113.0771479999994
58,112.30761700000039,81.9228520000006,106.9228520000006,110.76904300000024,100.51269500000035,117.30761700000039,115.38476599999922,103.46142599999985,114.61523400000078,112.82031300000017,120.25634799999989,105.51269500000035,129.61523400000078,113.46142599999985
59,113.3334960000002,80.64111300000059,107.94873000000007,104.61523400000078,96.2822270000006,115.89746099999957,116.0258789999998,100.76904300000024,112.69238299999961,112.43603499999972,120.51269500000035,106.15380900000036,129.61523400000078,112.56396500000028
60,116.41015599999992,81.0258789999998,112.94873000000007,105.38476599999922,96.9228520000006,113.7177729999994,117.17968800000017,103.46142599999985,112.82031300000017,117.05126999999993,123.9741210000002,109.61523400000078,134.48730499999965,111.2822270000006
61,119.74365200000011,83.3334960000002,119.23095699999976,112.43603499999972,103.9741210000002,112.56396500000028,117.82031300000017,110.0,114.87158199999976,123.20507799999996,128.3334960000002,113.7177729999994,141.9228520000006,110.76904300000024
62,121.0258789999998,87.43603499999972,122.30761700000039,119.87158199999976,112.17968800000017,112.82031300000017,117.05126999999993,116.2822270000006,116.6665039999998,126.41015599999992,131.6665039999998,116.53857400000015,147.3076170000004,111.2822270000006
63,118.7177729999994,91.6665039999998,120.38476599999922,121.53857400000015,115.25634799999989,113.9741210000002,115.12841800000024,119.10253900000043,116.53857400000015,124.23095699999976,133.20507799999996,117.05126999999993,147.17968800000017,112.56396500000028
64,113.7177729999994,93.58984400000008,114.35888699999941,115.89746099999957,110.89746099999957,114.87158199999976,113.0771479999994,118.0771479999994,115.51269500000035,119.35888699999941,132.6923829999996,115.89746099999957,141.41015599999992,113.7177729999994
65,108.20507799999996,90.12841800000024,107.82031300000017,107.17968800000017,102.69238299999961,114.87158199999976,111.9228520000006,115.12841800000024,115.51269500000035,116.79492200000004,130.89746099999957,113.9741210000002,133.58984400000008,114.23095699999976
66,104.74365200000011,82.30761700000039,103.7177729999994,101.2822270000006,96.2822270000006,114.23095699999976,112.69238299999961,113.3334960000002,117.69238299999961,119.35888699999941,128.20507799999996,112.05126999999993,128.3334960000002,113.46142599999985
67,105.0,74.35888699999941,103.3334960000002,101.53857400000015,94.35888699999941,113.7177729999994,114.87158199999976,113.9741210000002,120.89746099999957,125.12841800000024,125.64111300000059,111.15380900000036,128.0771479999994,112.17968800000017
68,108.46142599999985,72.43603499999972,105.89746099999957,107.05126999999993,95.89746099999957,114.10253900000043,117.17968800000017,116.15380900000036,122.82031300000017,128.58984400000008,123.9741210000002,111.6665039999998,131.53857400000015,112.05126999999993
69,112.82031300000017,78.58984400000008,109.35888699999941,113.58984400000008,98.3334960000002,114.74365200000011,117.82031300000017,117.94873000000007,121.9228520000006,125.89746099999957,122.82031300000017,112.94873000000007,135.2563479999999,113.3334960000002
70,116.0258789999998,90.0,111.6665039999998,117.43603499999972,100.12841800000024,115.12841800000024,115.51269500000035,117.43603499999972,119.10253900000043,118.7177729999994,121.9228520000006,114.74365200000011,136.53857400000015,114.87158199999976
71,117.69238299999961,100.64111300000059,112.43603499999972,117.69238299999961,101.0258789999998,114.74365200000011,110.89746099999957,115.12841800000024,116.53857400000015,112.43603499999972,121.2822270000006,116.6665039999998,135.0,115.25634799999989
72,118.58984400000008,105.76904300000024,111.9228520000006,115.89746099999957,101.0258789999998,114.23095699999976,105.76904300000024,111.53857400000015,115.64111300000059,111.41015599999992,121.2822270000006,118.3334960000002,131.9228520000006,114.35888699999941
73,119.61523400000078,104.74365200000011,111.0258789999998,114.23095699999976,100.25634799999989,113.9741210000002,102.69238299999961,107.17968800000017,115.89746099999957,114.61523400000078,121.2822270000006,118.84619099999964,129.23095699999976,113.20507799999996
74,121.15380900000036,101.41015599999992,110.38476599999922,114.23095699999976,99.61523400000078,114.35888699999941,102.94873000000007,102.94873000000007,115.89746099999957,118.20507799999996,121.0258789999998,117.69238299999961,128.84619099999964,112.56396500000028
75,122.43603499999972,101.2822270000006,110.38476599999922,115.76904300000024,100.51269500000035,114.87158199999976,106.15380900000036,100.38476599999922,115.25634799999989,118.7177729999994,120.25634799999989,115.51269500000035,131.15380900000036,112.56396500000028
76,122.69238299999961,106.2822270000006,111.15380900000036,118.46142599999985,103.58984400000008,114.87158199999976,110.25634799999989,101.41015599999992,113.9741210000002,116.2822270000006,118.9741210000002,113.46142599999985,133.9741210000002,112.94873000000007
77,121.0258789999998,113.84619099999964,111.6665039999998,121.2822270000006,108.20507799999996,114.23095699999976,113.46142599999985,105.38476599999922,112.69238299999961,113.46142599999985,116.6665039999998,112.43603499999972,133.7177729999994,112.82031300000017
78,118.0771479999994,119.35888699999941,111.6665039999998,123.7177729999994,112.94873000000007,113.7177729999994,115.38476599999922,109.61523400000078,112.56396500000028,112.43603499999972,113.46142599999985,112.94873000000007,128.46142599999985,112.05126999999993
79,115.89746099999957,120.12841800000024,111.15380900000036,125.51269500000035,115.38476599999922,113.58984400000008,117.05126999999993,111.41015599999992,114.10253900000043,114.23095699999976,111.0258789999998,115.0,119.61523400000078,110.76904300000024
80,115.64111300000059,116.41015599999992,110.64111300000059,125.38476599999922,113.58984400000008,113.7177729999994,118.20507799999996,110.25634799999989,116.6665039999998,117.43603499999972,111.0258789999998,117.05126999999993,111.2822270000006,110.0
81,115.89746099999957,111.0258789999998,109.35888699999941,121.6665039999998,107.05126999999993,113.20507799999996,117.69238299999961,107.05126999999993,117.82031300000017,119.35888699999941,113.0771479999994,117.56396500000028,106.53857400000015,110.64111300000059
82,114.35888699999941,105.76904300000024,106.15380900000036,114.35888699999941,97.94873000000007,111.79492200000004,113.84619099999964,103.46142599999985,115.25634799999989,117.94873000000007,115.25634799999989,115.12841800000024,106.0258789999998,112.56396500000028
83,111.2822270000006,102.17968800000017,101.15380900000036,106.41015599999992,90.0,109.74365200000011,107.43603499999972,100.51269500000035,110.12841800000024,113.9741210000002,115.89746099999957,110.38476599999922,108.46142599999985,114.10253900000043
84,109.87158199999976,101.6665039999998,97.05126999999993,103.20507799999996,87.17968800000017,108.3334960000002,101.53857400000015,99.35888699999941,105.76904300000024,110.64111300000059,115.51269500000035,106.2822270000006,112.82031300000017,114.10253900000043
85,113.20507799999996,105.38476599999922,96.9228520000006,108.3334960000002,90.76904300000024,108.7177729999994,100.0,100.25634799999989,105.64111300000059,111.0258789999998,116.2822270000006,105.76904300000024,118.58984400000008,112.56396500000028
86,120.89746099999957,112.43603499999972,101.9228520000006,120.25634799999989,98.20507799999996,111.6665039999998,103.84619099999964,102.82031300000017,109.23095699999976,115.0,119.74365200000011,109.87158199999976,124.87158199999976,110.89746099999957
87,128.46142599999985,118.84619099999964,109.48730499999965,132.05126999999993,105.0,115.12841800000024,110.64111300000059,105.51269500000035,113.58984400000008,118.7177729999994,124.48730499999965,115.89746099999957,129.7436520000001,110.12841800000024
88,130.89746099999957,120.38476599999922,116.0258789999998,136.53857400000015,107.43603499999972,116.41015599999992,116.15380900000036,107.30761700000039,115.89746099999957,118.7177729999994,127.30761700000039,119.87158199999976,131.0258789999998,110.51269500000035
89,126.6665039999998,115.76904300000024,118.58984400000008,131.2822270000006,105.64111300000059,114.10253900000043,117.94873000000007,108.7177729999994,115.89746099999957,115.25634799999989,126.6665039999998,120.0,128.3334960000002,111.9228520000006
90,119.23095699999976,109.10253900000043,116.79492200000004,121.0258789999998,102.94873000000007,110.51269500000035,116.53857400000015,111.2822270000006,115.38476599999922,112.17968800000017,124.23095699999976,117.82031300000017,123.7177729999994,113.58984400000008
91,113.46142599999985,105.38476599999922,112.43603499999972,113.46142599999985,102.30761700000039,108.7177729999994,114.61523400000078,114.87158199999976,116.53857400000015,113.20507799999996,122.05126999999993,115.89746099999957,120.25634799999989,114.87158199999976
92,111.6665039999998,106.2822270000006,107.69238299999961,112.30761700000039,104.35888699999941,109.74365200000011,113.7177729999994,117.43603499999972,119.23095699999976,117.30761700000039,120.76904300000024,115.12841800000024,119.10253900000043,114.87158199999976
93,112.69238299999961,108.84619099999964,104.23095699999976,115.51269500000035,106.6665039999998,111.9228520000006,113.7177729999994,117.17968800000017,121.6665039999998,119.74365200000011,118.58984400000008,114.61523400000078,118.9741210000002,113.58984400000008
94,114.35888699999941,109.10253900000043,102.05126999999993,117.82031300000017,106.6665039999998,113.3334960000002,113.9741210000002,113.9741210000002,121.79492200000004,116.79492200000004,114.48730499999965,113.7177729999994,117.94873000000007,111.79492200000004
95,115.12841800000024,106.15380900000036,101.2822270000006,115.89746099999957,103.84619099999964,113.3334960000002,113.84619099999964,110.38476599999922,119.35888699999941,109.61523400000078,109.48730499999965,112.43603499999972,116.15380900000036,110.38476599999922
96,115.89746099999957,102.94873000000007,101.79492200000004,110.38476599999922,100.25634799999989,112.69238299999961,113.9741210000002,109.10253900000043,116.2822270000006,103.0771479999994,106.41015599999992,111.6665039999998,115.25634799999989,110.25634799999989
97,118.20507799999996,103.20507799999996,103.84619099999964,105.89746099999957,100.12841800000024,112.30761700000039,115.0,110.89746099999957,115.12841800000024,101.9228520000006,107.82031300000017,112.05126999999993,116.9228520000006,111.15380900000036
98,122.82031300000017,107.56396500000028,107.05126999999993,106.6665039999998,105.76904300000024,112.43603499999972,116.9228520000006,114.74365200000011,116.9228520000006,106.6665039999998,113.3334960000002,113.58984400000008,121.2822270000006,112.43603499999972
99,128.20507799999996,112.69238299999961,110.25634799999989,112.69238299999961,114.35888699999941,112.05126999999993,118.0771479999994,118.20507799999996,120.64111300000059,114.10253900000043,119.74365200000011,115.51269500000035,126.15380900000036,113.46142599999985
100,131.6665039999998,114.48730499999965,112.17968800000017,120.25634799999989,119.35888699999941,110.51269500000035,117.43603499999972,119.61523400000078,124.48730499999965,119.61523400000078,123.0771479999994,117.43603499999972,128.58984400000008,113.84619099999964
101,132.43603499999972,111.41015599999992,112.82031300000017,124.23095699999976,117.30761700000039,108.20507799999996,116.0258789999998,119.10253900000043,127.43603499999972,121.15380900000036,121.9228520000006,119.23095699999976,126.53857400000015,113.58984400000008
102,132.05126999999993,106.79492200000004,113.7177729999994,123.0771479999994,111.15380900000036,106.6665039999998,116.2822270000006,117.94873000000007,130.0,120.0,118.84619099999964,121.41015599999992,121.41015599999992,112.56396500000028
103,133.0771479999994,105.0,116.53857400000015,119.35888699999941,107.43603499999972,106.9228520000006,118.7177729999994,117.30761700000039,132.3076170000004,118.7177729999994,117.17968800000017,123.84619099999964,116.6665039999998,110.76904300000024
104,135.6411130000006,107.30761700000039,120.0,116.6665039999998,109.48730499999965,107.94873000000007,121.2822270000006,117.30761700000039,132.17968800000017,118.3334960000002,117.82031300000017,125.25634799999989,114.87158199999976,109.23095699999976
105,137.43603499999972,110.0,121.41015599999992,116.2822270000006,114.61523400000078,108.20507799999996,120.38476599999922,115.89746099999957,126.41015599999992,116.79492200000004,118.20507799999996,124.48730499999965,115.25634799999989,108.84619099999964
106,134.61523400000078,107.69238299999961,118.20507799999996,116.0258789999998,116.79492200000004,106.53857400000015,115.0,111.15380900000036,114.87158199999976,111.79492200000004,114.48730499999965,121.2822270000006,114.87158199999976,110.76904300000024
107,126.79492200000004,98.7177729999994,110.89746099999957,112.82031300000017,113.0771479999994,104.35888699999941,107.43603499999972,103.7177729999994,101.6665039999998,103.0771479999994,105.89746099999957,116.53857400000015,111.6665039999998,114.48730499999965
108,117.05126999999993,87.56396500000028,102.69238299999961,106.15380900000036,106.53857400000015,103.3334960000002,102.05126999999993,97.05126999999993,93.0771479999994,94.48730499999965,95.64111300000059,112.43603499999972,106.6665039999998,117.94873000000007
109,110.89746099999957,81.79492200000004,97.56396500000028,99.61523400000078,103.3334960000002,105.0,101.9228520000006,95.12841800000024,93.20507799999996,90.89746099999957,90.12841800000024,110.64111300000059,103.3334960000002,119.10253900000043
110,112.05126999999993,85.38476599999922,97.56396500000028,97.82031300000017,106.9228520000006,108.3334960000002,107.43603499999972,99.35888699999941,101.6665039999998,94.87158199999976,93.46142599999985,111.6665039999998,104.35888699999941,117.43603499999972
111,119.74365200000011,95.64111300000059,101.9228520000006,101.6665039999998,114.48730499999965,110.76904300000024,115.0,107.56396500000028,113.3334960000002,104.35888699999941,103.58984400000008,113.84619099999964,109.23095699999976,114.10253900000043
112,128.0771479999994,104.61523400000078,106.6665039999998,107.69238299999961,119.35888699999941,110.38476599999922,120.38476599999922,114.87158199999976,121.6665039999998,113.0771479999994,113.7177729999994,115.51269500000035,113.46142599999985,110.89746099999957
113,130.6411130000006,105.38476599999922,107.94873000000007,110.51269500000035,116.0258789999998,108.58984400000008,120.89746099999957,117.94873000000007,122.30761700000039,115.12841800000024,117.30761700000039,115.38476599999922,112.05126999999993,109.10253900000043
114,125.76904300000024,97.56396500000028,105.12841800000024,108.3334960000002,106.0258789999998,108.46142599999985,117.69238299999961,116.6665039999998,116.53857400000015,109.23095699999976,113.46142599999985,114.10253900000043,104.74365200000011,109.23095699999976
115,117.43603499999972,87.94873000000007,101.15380900000036,103.84619099999964,96.15380900000036,111.6665039999998,114.10253900000043,114.10253900000043,110.0,100.25634799999989,107.43603499999972,113.0771479999994,96.41015599999992,110.76904300000024
116,112.94873000000007,84.74365200000011,100.25634799999989,101.6665039999998,93.58984400000008,116.41015599999992,113.0771479999994,114.10253900000043,109.35888699999941,95.12841800000024,106.15380900000036,113.9741210000002,93.7177729999994,112.43603499999972
117,116.53857400000015,91.0258789999998,103.7177729999994,104.23095699999976,100.38476599999922,119.74365200000011,115.51269500000035,117.94873000000007,116.6665039999998,98.3334960000002,112.43603499999972,116.6665039999998,99.48730499999965,113.3334960000002
118,126.0258789999998,102.05126999999993,108.9741210000002,109.87158199999976,110.76904300000024,120.0,119.35888699999941,123.84619099999964,127.69238299999961,107.94873000000007,122.43603499999972,119.74365200000011,109.74365200000011,113.46142599999985
119,134.3588869999994,109.23095699999976,111.79492200000004,113.7177729999994,116.15380900000036,117.82031300000017,121.53857400000015,127.17968800000017,134.23095699999976,117.43603499999972,128.0771479999994,120.38476599999922,116.2822270000006,113.3334960000002
120,135.2563479999999,106.6665039999998,109.23095699999976,112.43603499999972,111.9228520000006,114.74365200000011,120.25634799999989,124.61523400000078,130.76904300000024,120.0,123.0771479999994,116.79492200000004,112.43603499999972,112.82031300000017
121,128.20507799999996,95.38476599999922,102.43603499999972,106.41015599999992,101.9228520000006,112.30761700000039,116.2822270000006,115.89746099999957,118.3334960000002,113.9741210000002,108.58984400000008,109.61523400000078,98.58984400000008,111.6665039999998
122,118.0771479999994,83.0771479999994,95.89746099999957,100.25634799999989,94.74365200000011,111.6665039999998,112.30761700000039,105.51269500000035,104.35888699999941,103.7177729999994,93.20507799999996,103.0771479999994,82.94873000000007,111.0258789999998
123,111.15380900000036,77.05126999999993,93.84619099999964,97.94873000000007,96.53857400000015,113.3334960000002,110.51269500000035,98.9741210000002,97.05126999999993,96.0258789999998,86.41015599999992,101.15380900000036,75.12841800000024,112.17968800000017
124,110.12841800000024,78.84619099999964,96.53857400000015,99.48730499999965,105.76904300000024,115.76904300000024,110.76904300000024,99.23095699999976,99.61523400000078,94.87158199999976,91.53857400000015,105.0,79.74365200000011,115.38476599999922
125,113.7177729999994,83.84619099999964,100.51269500000035,101.6665039999998,114.48730499999965,116.79492200000004,111.79492200000004,103.9741210000002,108.0771479999994,98.20507799999996,103.58984400000008,111.2822270000006,92.56396500000028,118.7177729999994
126,117.94873000000007,87.43603499999972,101.9228520000006,101.6665039999998,115.64111300000059,115.89746099999957,112.43603499999972,108.0771479999994,115.25634799999989,101.15380900000036,113.7177729999994,115.64111300000059,105.76904300000024,120.0
127,120.76904300000024,88.0771479999994,100.38476599999922,100.25634799999989,109.35888699999941,113.84619099999964,112.56396500000028,107.56396500000028,116.53857400000015,100.64111300000059,116.79492200000004,116.15380900000036,113.84619099999964,118.3334960000002
128,123.0771479999994,87.94873000000007,99.48730499999965,101.2822270000006,102.30761700000039,112.05126999999993,113.20507799999996,103.46142599999985,112.94873000000007,98.20507799999996,114.61523400000078,114.23095699999976,116.79492200000004,115.51269500000035
129,126.9228520000006,89.23095699999976,102.43603499999972,106.9228520000006,101.2822270000006,111.15380900000036,114.74365200000011,99.87158199999976,109.10253900000043,97.56396500000028,113.9741210000002,112.69238299999961,118.46142599999985,113.58984400000008
130,132.17968800000017,92.05126999999993,108.84619099999964,114.61523400000078,107.43603499999972,110.89746099999957,116.41015599999992,100.0,108.84619099999964,100.25634799999989,118.7177729999994,113.46142599999985,122.17968800000017,113.58984400000008
131,136.0258789999998,93.84619099999964,114.87158199999976,119.48730499999965,115.38476599999922,111.41015599999992,116.41015599999992,104.35888699999941,111.9228520000006,104.23095699999976,126.41015599999992,116.0258789999998,128.20507799999996,114.35888699999941
132,136.0258789999998,93.3334960000002,116.53857400000015,118.58984400000008,118.3334960000002,112.94873000000007,113.7177729999994,110.25634799999989,115.12841800000024,106.79492200000004,132.17968800000017,118.0771479999994,134.23095699999976,114.61523400000078
133,132.94873000000007,91.53857400000015,113.3334960000002,113.9741210000002,113.7177729999994,115.64111300000059,109.74365200000011,115.0,116.41015599999992,107.43603499999972,133.58984400000008,118.58984400000008,138.3334960000002,113.20507799999996
134,130.2563479999999,91.41015599999992,108.84619099999964,110.25634799999989,105.25634799999989,117.94873000000007,107.69238299999961,117.56396500000028,116.6665039999998,107.94873000000007,132.6923829999996,117.56396500000028,141.79492200000004,111.0258789999998
135,130.6411130000006,93.9741210000002,107.30761700000039,109.87158199999976,98.84619099999964,117.82031300000017,109.48730499999965,118.3334960000002,117.82031300000017,110.12841800000024,133.0771479999994,116.6665039999998,146.2822270000006,109.74365200000011
136,133.84619099999964,98.0771479999994,110.38476599999922,112.30761700000039,97.69238299999961,114.87158199999976,114.48730499999965,118.58984400000008,120.12841800000024,114.35888699999941,136.15380900000036,116.6665039999998,152.3076170000004,110.89746099999957
137,137.3076170000004,101.15380900000036,116.0258789999998,115.76904300000024,100.76904300000024,110.76904300000024,119.35888699999941,118.9741210000002,122.17968800000017,118.46142599999985,140.51269500000035,117.30761700000039,157.56396500000028,113.9741210000002
138,138.58984400000008,102.30761700000039,120.25634799999989,118.9741210000002,104.48730499999965,107.56396500000028,121.2822270000006,119.48730499999965,122.30761700000039,120.25634799999989,142.94873000000007,117.43603499999972,159.61523400000078,117.05126999999993
139,137.3076170000004,102.17968800000017,119.87158199999976,121.9228520000006,105.64111300000059,106.15380900000036,119.74365200000011,119.61523400000078,120.38476599999922,119.74365200000011,141.6665039999998,116.9228520000006,157.82031300000017,117.69238299999961
140,134.10253900000043,101.79492200000004,115.51269500000035,124.10253900000043,104.10253900000043,106.6665039999998,116.9228520000006,118.7177729999994,117.43603499999972,118.3334960000002,137.17968800000017,116.41015599999992,154.3588869999994,115.76904300000024
141,130.2563479999999,100.89746099999957,110.64111300000059,125.51269500000035,102.05126999999993,108.84619099999964,115.25634799999989,117.17968800000017,115.76904300000024,118.3334960000002,132.56396500000028,116.2822270000006,151.2822270000006,113.20507799999996
142,126.2822270000006,98.9741210000002,108.0771479999994,125.12841800000024,102.05126999999993,111.15380900000036,115.51269500000035,116.0258789999998,116.2822270000006,120.12841800000024,130.76904300000024,116.41015599999992,149.87158199999976,112.05126999999993
143,122.43603499999972,95.25634799999989,108.20507799999996,122.43603499999972,103.58984400000008,112.17968800000017,116.2822270000006,115.76904300000024,117.69238299999961,121.15380900000036,131.9228520000006,116.41015599999992,148.7177729999994,112.56396500000028
144,119.35888699999941,90.64111300000059,108.46142599999985,117.30761700000039,103.7177729999994,110.89746099999957,116.0258789999998,115.89746099999957,117.82031300000017,118.0771479999994,132.6923829999996,116.0258789999998,146.0258789999998,113.9741210000002
145,117.94873000000007,87.05126999999993,107.05126999999993,111.9228520000006,100.38476599999922,108.20507799999996,114.87158199999976,115.38476599999922,115.64111300000059,110.76904300000024,130.2563479999999,115.38476599999922,141.79492200000004,115.25634799999989
146,119.23095699999976,87.05126999999993,104.61523400000078,109.23095699999976,95.12841800000024,106.15380900000036,114.61523400000078,114.10253900000043,112.69238299999961,103.3334960000002,126.0258789999998,114.48730499999965,137.82031300000017,115.38476599999922
147,123.46142599999985,90.89746099999957,103.46142599999985,111.79492200000004,92.43603499999972,106.2822270000006,117.05126999999993,112.82031300000017,111.15380900000036,100.89746099999957,124.23095699999976,113.7177729999994,137.05126999999993,114.10253900000043
148,129.23095699999976,97.05126999999993,105.51269500000035,118.9741210000002,95.64111300000059,108.84619099999964,121.53857400000015,112.82031300000017,112.69238299999961,105.76904300000024,128.0771479999994,113.7177729999994,140.89746099999957,112.43603499999972
149,134.23095699999976,102.69238299999961,110.64111300000059,128.0771479999994,103.3334960000002,112.69238299999961,125.89746099999957,114.23095699999976,116.53857400000015,115.51269500000035,136.2822270000006,115.76904300000024,147.82031300000017,111.53857400000015
150,136.79492200000004,105.51269500000035,116.15380900000036,135.2563479999999,110.25634799999989,116.0258789999998,128.0771479999994,116.79492200000004,120.38476599999922,124.87158199999976,144.48730499999965,118.84619099999964,153.9741210000002,111.6665039999998
151,136.53857400000015,104.87158199999976,118.84619099999964,136.9228520000006,111.0258789999998,117.56396500000028,126.9228520000006,118.58984400000008,122.05126999999993,129.48730499999965,147.6923829999996,120.51269500000035,155.2563479999999,112.82031300000017
152,134.3588869999994,100.76904300000024,117.05126999999993,132.05126999999993,103.58984400000008,116.6665039999998,122.17968800000017,118.46142599999985,120.12841800000024,127.17968800000017,143.9741210000002,118.20507799999996,149.87158199999976,114.35888699999941
153,131.2822270000006,94.61523400000078,111.41015599999992,122.82031300000017,91.2822270000006,114.10253900000043,115.89746099999957,115.76904300000024,115.0,119.10253900000043,136.0258789999998,112.17968800000017,140.12841800000024,115.38476599999922
154,128.58984400000008,88.58984400000008,105.25634799999989,114.48730499999965,81.6665039999998,111.41015599999992,110.89746099999957,112.05126999999993,108.9741210000002,108.84619099999964,128.0771479999994,105.25634799999989,131.15380900000036,115.12841800000024
155,127.69238299999961,86.6665039999998,102.82031300000017,113.0771479999994,81.6665039999998,109.87158199999976,110.64111300000059,110.0,106.2822270000006,102.17968800000017,124.23095699999976,101.6665039999998,128.46142599999985,113.7177729999994
156,129.7436520000001,90.89746099999957,106.79492200000004,120.64111300000059,92.94873000000007,110.12841800000024,116.41015599999992,111.79492200000004,109.87158199999976,103.20507799999996,126.41015599999992,103.7177729999994,134.10253900000043,112.30761700000039
157,134.23095699999976,99.61523400000078,114.87158199999976,132.56396500000028,109.10253900000043,111.41015599999992,125.51269500000035,117.30761700000039,119.10253900000043,111.41015599999992,132.82031300000017,110.12841800000024,145.0,112.56396500000028
158,138.3334960000002,106.6665039999998,121.6665039999998,139.61523400000078,119.87158199999976,111.6665039999998,132.6923829999996,123.0771479999994,128.0771479999994,121.0258789999998,139.3588869999994,117.05126999999993,154.10253900000043,114.61523400000078
159,138.84619099999964,106.41015599999992,122.05126999999993,135.6411130000006,117.94873000000007,109.74365200000011,133.20507799999996,124.87158199999976,129.87158199999976,124.61523400000078,141.0258789999998,120.25634799999989,155.0,117.30761700000039
160,135.0,98.9741210000002,116.6665039999998,123.0771479999994,105.51269500000035,106.79492200000004,126.9228520000006,120.89746099999957,122.43603499999972,119.48730499999965,136.6665039999998,118.7177729999994,147.56396500000028,118.7177729999994
161,129.7436520000001,90.64111300000059,110.12841800000024,110.76904300000024,92.17968800000017,105.51269500000035,118.20507799999996,114.10253900000043,110.76904300000024,109.87158199999976,129.48730499999965,114.87158199999976,137.17968800000017,118.0771479999994
162,127.43603499999972,87.94873000000007,107.56396500000028,106.9228520000006,87.82031300000017,107.05126999999993,113.20507799999996,109.87158199999976,103.0771479999994,103.7177729999994,125.25634799999989,112.82031300000017,131.15380900000036,115.51269500000035
163,129.87158199999976,91.53857400000015,110.25634799999989,112.30761700000039,93.7177729999994,110.12841800000024,113.9741210000002,110.89746099999957,104.35888699999941,105.51269500000035,126.6665039999998,114.35888699999941,132.82031300000017,112.05126999999993
164,134.48730499999965,96.0258789999998,115.0,121.41015599999992,102.43603499999972,112.30761700000039,117.94873000000007,115.25634799999989,112.17968800000017,112.69238299999961,131.2822270000006,117.82031300000017,139.61523400000078,109.48730499999965
165,136.9228520000006,95.0,117.94873000000007,126.9228520000006,105.25634799999989,112.43603499999972,119.87158199999976,118.0771479999994,118.46142599999985,117.43603499999972,133.7177729999994,120.25634799999989,145.12841800000024,109.23095699999976
166,134.3588869999994,87.17968800000017,117.43603499999972,125.64111300000059,99.87158199999976,111.2822270000006,117.05126999999993,115.76904300000024,116.6665039999998,113.58984400000008,130.6411130000006,119.74365200000011,144.3588869999994,111.41015599999992
167,127.69238299999961,77.30761700000039,114.87158199999976,120.0,92.05126999999993,110.12841800000024,111.15380900000036,109.10253900000043,106.41015599999992,101.79492200000004,123.3334960000002,117.30761700000039,137.17968800000017,114.35888699999941
168,120.25634799999989,72.30761700000039,112.69238299999961,116.15380900000036,89.48730499999965,109.74365200000011,106.79492200000004,102.82031300000017,94.87158199999976,89.35888699999941,116.15380900000036,115.12841800000024,128.20507799999996,115.76904300000024
169,115.89746099999957,75.25634799999989,112.17968800000017,118.20507799999996,94.87158199999976,110.38476599999922,108.20507799999996,101.6665039999998,91.0258789999998,85.38476599999922,114.10253900000043,114.61523400000078,123.3334960000002,115.25634799999989
170,116.2822270000006,83.3334960000002,112.94873000000007,125.64111300000059,103.84619099999964,112.30761700000039,114.87158199999976,106.79492200000004,98.58984400000008,93.20507799999996,118.7177729999994,115.51269500000035,125.25634799999989,113.84619099999964
171,119.35888699999941,90.0,113.0771479999994,133.46142599999985,109.23095699999976,114.87158199999976,122.69238299999961,115.0,112.56396500000028,107.43603499999972,126.9228520000006,116.6665039999998,131.9228520000006,113.46142599999985
172,120.51269500000035,90.64111300000059,111.0258789999998,136.0258789999998,107.30761700000039,116.53857400000015,125.76904300000024,120.51269500000035,122.82031300000017,118.3334960000002,133.0771479999994,116.79492200000004,138.7177729999994,114.23095699999976
173,117.30761700000039,86.15380900000036,107.30761700000039,132.3076170000004,100.89746099999957,115.89746099999957,122.82031300000017,120.25634799999989,123.58984400000008,120.64111300000059,133.20507799999996,115.76904300000024,142.3076170000004,115.12841800000024
174,111.9228520000006,81.9228520000006,104.74365200000011,126.79492200000004,96.9228520000006,113.58984400000008,117.43603499999972,116.2822270000006,117.56396500000028,117.05126999999993,128.7177729999994,114.35888699999941,142.6923829999996,115.0
175,109.10253900000043,83.20507799999996,106.41015599999992,125.0,100.25634799999989,110.89746099999957,115.38476599999922,113.84619099999964,113.58984400000008,114.48730499999965,125.0,114.35888699999941,143.0771479999994,114.23095699999976
176,112.43603499999972,90.76904300000024,112.30761700000039,129.48730499999965,109.10253900000043,108.7177729999994,119.35888699999941,116.79492200000004,117.43603499999972,116.79492200000004,126.6665039999998,116.79492200000004,145.38476599999922,113.46142599999985
177,120.25634799999989,100.12841800000024,118.84619099999964,137.56396500000028,116.41015599999992,107.43603499999972,126.41015599999992,123.7177729999994,127.17968800000017,121.0258789999998,133.20507799999996,121.15380900000036,148.3334960000002,113.0771479999994
178,127.82031300000017,105.38476599999922,121.41015599999992,143.58984400000008,115.51269500000035,107.30761700000039,131.53857400000015,129.23095699999976,134.3588869999994,121.53857400000015,139.10253900000043,125.12841800000024,148.9741210000002,113.3334960000002
179,130.76904300000024,104.35888699999941,118.0771479999994,143.3334960000002,106.2822270000006,108.20507799999996,131.2822270000006,128.46142599999985,132.3076170000004,115.76904300000024,139.23095699999976,126.0258789999998,145.76904300000024,113.84619099999964
180,127.56396500000028,99.48730499999965,110.89746099999957,137.56396500000028,95.64111300000059,109.74365200000011,126.0258789999998,120.76904300000024,121.2822270000006,106.79492200000004,132.43603499999972,122.69238299999961,139.87158199999976,113.84619099999964
181,120.64111300000059,95.64111300000059,104.48730499999965,130.89746099999957,91.6665039999998,110.64111300000059,119.23095699999976,110.25634799999989,107.17968800000017,99.74365200000011,122.30761700000039,116.9228520000006,133.58984400000008,113.0771479999994
182,114.23095699999976,95.0,103.0771479999994,128.3334960000002,96.9228520000006,110.12841800000024,114.23095699999976,102.17968800000017,97.43603499999972,97.69238299999961,113.9741210000002,112.17968800000017,129.23095699999976,111.9228520000006
183,111.79492200000004,96.79492200000004,107.30761700000039,131.2822270000006,107.30761700000039,108.7177729999994,113.58984400000008,99.74365200000011,95.51269500000035,99.87158199999976,110.76904300000024,111.0258789999998,128.3334960000002,111.6665039999998
184,114.10253900000043,98.9741210000002,114.23095699999976,137.56396500000028,115.64111300000059,107.43603499999972,117.17968800000017,102.56396500000028,99.61523400000078,102.69238299999961,112.69238299999961,113.58984400000008,131.2822270000006,112.82031300000017
185,118.84619099999964,100.25634799999989,118.84619099999964,142.43603499999972,117.43603499999972,106.79492200000004,121.79492200000004,106.9228520000006,104.48730499999965,103.84619099999964,117.17968800000017,117.17968800000017,135.89746099999957,114.48730499999965
186,122.82031300000017,99.74365200000011,117.56396500000028,142.43603499999972,112.94873000000007,106.41015599999992,123.20507799999996,108.9741210000002,105.38476599999922,102.82031300000017,120.51269500000035,118.84619099999964,138.20507799999996,115.51269500000035
187,123.20507799999996,97.17968800000017,110.76904300000024,137.43603499999972,105.25634799999989,106.15380900000036,119.35888699999941,106.53857400000015,102.05126999999993,101.0258789999998,120.25634799999989,117.30761700000039,136.0258789999998,115.25634799999989
188,120.38476599999922,93.9741210000002,102.94873000000007,130.76904300000024,97.69238299999961,106.41015599999992,111.79492200000004,101.15380900000036,97.94873000000007,99.74365200000011,116.41015599999992,114.10253900000043,130.38476599999922,114.10253900000043
189,116.9228520000006,92.17968800000017,99.61523400000078,126.79492200000004,92.30761700000039,107.30761700000039,104.87158199999976,96.79492200000004,96.6665039999998,98.84619099999964,111.9228520000006,111.79492200000004,125.51269500000035,112.82031300000017
190,115.25634799999989,92.30761700000039,103.20507799999996,127.43603499999972,89.61523400000078,108.58984400000008,101.9228520000006,96.6665039999998,98.58984400000008,98.0771479999994,109.87158199999976,112.43603499999972,125.0,112.30761700000039
191,115.38476599999922,92.94873000000007,110.64111300000059,131.15380900000036,88.58984400000008,109.74365200000011,103.0771479999994,100.51269500000035,101.15380900000036,97.43603499999972,111.6665039999998,115.25634799999989,128.84619099999964,112.82031300000017
192,115.89746099999957,93.58984400000008,116.0258789999998,134.87158199999976,87.82031300000017,110.51269500000035,105.76904300000024,105.64111300000059,102.05126999999993,97.94873000000007,116.2822270000006,117.69238299999961,133.84619099999964,114.10253900000043
193,116.9228520000006,95.38476599999922,116.53857400000015,137.43603499999972,87.69238299999961,110.89746099999957,108.0771479999994,110.0,102.30761700000039,101.9228520000006,122.17968800000017,118.46142599999985,137.05126999999993,115.25634799999989
194,120.64111300000059,100.12841800000024,115.0,140.38476599999922,90.12841800000024,110.64111300000059,110.25634799999989,113.46142599999985,104.87158199999976,109.74365200000011,128.7177729999994,118.3334960000002,137.6923829999996,115.51269500000035
195,127.17968800000017,107.43603499999972,115.89746099999957,144.87158199999976,95.64111300000059,109.74365200000011,113.3334960000002,116.0258789999998,111.15380900000036,118.0771479999994,134.3588869999994,118.7177729999994,136.53857400000015,115.0
196,133.7177729999994,113.7177729999994,119.35888699999941,149.10253900000043,102.17968800000017,108.46142599999985,116.53857400000015,117.05126999999993,117.94873000000007,122.30761700000039,136.9228520000006,119.74365200000011,135.0,114.10253900000043
197,136.15380900000036,115.12841800000024,121.0258789999998,149.7436520000001,106.9228520000006,107.43603499999972,118.3334960000002,115.76904300000024,120.89746099999957,120.12841800000024,134.3588869999994,119.87158199999976,133.58984400000008,113.3334960000002
198,132.3076170000004,110.51269500000035,117.17968800000017,145.89746099999957,108.3334960000002,107.30761700000039,118.0771479999994,112.82031300000017,118.0771479999994,115.12841800000024,127.17968800000017,118.20507799999996,132.82031300000017,112.94873000000007
199,124.10253900000043,102.30761700000039,108.9741210000002,139.48730499999965,107.43603499999972,108.7177729999994,116.9228520000006,110.12841800000024,112.05126999999993,112.56396500000028,118.46142599999985,115.25634799999989,133.0771479999994,113.58984400000008
200,115.51269500000035,95.64111300000059,101.9228520000006,133.58984400000008,105.89746099999957,110.64111300000059,116.41015599999992,109.23095699999976,107.17968800000017,114.74365200000011,112.43603499999972,112.56396500000028,133.84619099999964,114.87158199999976
201,111.0258789999998,94.35888699999941,100.76904300000024,130.51269500000035,104.10253900000043,111.6665039999998,116.6665039999998,110.51269500000035,107.05126999999993,119.10253900000043,111.0258789999998,111.79492200000004,134.3588869999994,115.64111300000059
202,111.79492200000004,98.0771479999994,105.89746099999957,130.51269500000035,101.2822270000006,111.79492200000004,116.9228520000006,112.94873000000007,111.53857400000015,121.15380900000036,114.10253900000043,112.82031300000017,134.48730499999965,115.25634799999989
203,115.64111300000059,102.69238299999961,112.56396500000028,131.79492200000004,97.43603499999972,111.53857400000015,116.0258789999998,115.0,116.9228520000006,118.3334960000002,118.58984400000008,114.61523400000078,134.48730499999965,114.35888699999941
204,118.20507799999996,104.23095699999976,115.25634799999989,133.0771479999994,94.23095699999976,111.53857400000015,113.20507799999996,115.25634799999989,119.10253900000043,111.53857400000015,120.51269500000035,115.51269500000035,134.10253900000043,114.35888699999941
205,117.05126999999993,102.43603499999972,111.79492200000004,133.9741210000002,93.3334960000002,111.53857400000015,109.61523400000078,113.84619099999964,116.2822270000006,104.48730499999965,118.7177729999994,114.87158199999976,133.9741210000002,115.64111300000059
206,113.58984400000008,100.64111300000059,105.12841800000024,135.6411130000006,95.76904300000024,111.15380900000036,107.56396500000028,112.30761700000039,111.15380900000036,101.6665039999998,115.25634799999989,113.58984400000008,134.87158199999976,116.79492200000004
207,111.79492200000004,102.05126999999993,101.15380900000036,139.3588869999994,101.41015599999992,110.89746099999957,109.35888699999941,112.82031300000017,108.84619099999964,105.76904300000024,114.61523400000078,113.20507799999996,138.3334960000002,116.41015599999992
208,114.23095699999976,107.30761700000039,103.3334960000002,145.12841800000024,108.7177729999994,111.53857400000015,114.87158199999976,116.41015599999992,112.94873000000007,115.25634799999989,119.10253900000043,115.0,143.58984400000008,114.48730499999965
209,118.9741210000002,113.0771479999994,110.25634799999989,150.38476599999922,115.51269500000035,113.20507799999996,120.89746099999957,121.41015599999992,121.79492200000004,124.87158199999976,126.79492200000004,117.69238299999961,148.3334960000002,112.30761700000039
210,121.2822270000006,114.74365200000011,116.15380900000036,151.53857400000015,119.10253900000043,114.74365200000011,123.84619099999964,124.23095699999976,129.3588869999994,128.7177729999994,132.6923829999996,119.48730499999965,148.84619099999964,111.15380900000036
211,118.20507799999996,110.25634799999989,115.76904300000024,147.3076170000004,117.05126999999993,115.0,121.79492200000004,122.43603499999972,129.7436520000001,124.74365200000011,132.6923829999996,118.9741210000002,143.9741210000002,111.2822270000006
212,110.76904300000024,102.94873000000007,109.48730499999965,139.7436520000001,110.12841800000024,113.46142599999985,116.53857400000015,117.17968800000017,122.05126999999993,116.0258789999998,126.79492200000004,116.9228520000006,136.0258789999998,112.69238299999961
213,104.23095699999976,97.94873000000007,102.56396500000028,133.20507799999996,102.30761700000039,110.38476599999922,111.79492200000004,112.30761700000039,110.38476599999922,107.94873000000007,118.7177729999994,114.74365200000011,129.7436520000001,114.10253900000043
214,103.20507799999996,98.3334960000002,100.38476599999922,130.89746099999957,98.46142599999985,106.9228520000006,110.76904300000024,111.0258789999998,101.79492200000004,105.12841800000024,113.20507799999996,113.84619099999964,128.9741210000002,114.48730499999965
215,107.56396500000028,102.43603499999972,103.58984400000008,132.94873000000007,99.10253900000043,104.48730499999965,113.20507799999996,112.56396500000028,99.87158199999976,107.82031300000017,112.43603499999972,114.35888699999941,133.3334960000002,114.10253900000043
216,113.3334960000002,105.38476599999922,108.7177729999994,136.2822270000006,100.64111300000059,104.48730499999965,116.0258789999998,113.84619099999964,103.84619099999964,113.0771479999994,114.61523400000078,115.51269500000035,138.3334960000002,113.46142599999985
217,116.53857400000015,103.9741210000002,111.53857400000015,138.9741210000002,99.35888699999941,106.2822270000006,115.64111300000059,112.94873000000007,109.74365200000011,116.79492200000004,116.2822270000006,116.15380900000036,139.10253900000043,113.46142599999985
218,116.15380900000036,99.48730499999965,111.41015599999992,141.2822270000006,95.89746099999957,108.3334960000002,112.17968800000017,110.51269500000035,113.46142599999985,117.30761700000039,116.0258789999998,116.2822270000006,135.2563479999999,113.7177729999994
219,114.35888699999941,96.0258789999998,110.12841800000024,144.23095699999976,93.58984400000008,109.10253900000043,108.0771479999994,108.9741210000002,114.23095699999976,116.0258789999998,115.0,116.53857400000015,130.12841800000024,113.58984400000008
220,113.9741210000002,97.69238299999961,110.0,147.6923829999996,95.51269500000035,108.3334960000002,106.15380900000036,109.23095699999976,112.94873000000007,115.38476599999922,116.0258789999998,117.43603499999972,128.46142599999985,113.3334960000002
221,116.41015599999992,104.23095699999976,111.9228520000006,149.87158199999976,102.05126999999993,107.30761700000039,107.17968800000017,110.76904300000024,112.30761700000039,117.43603499999972,120.25634799999989,118.7177729999994,132.05126999999993,113.0771479999994
222,121.15380900000036,112.56396500000028,115.0,148.9741210000002,110.38476599999922,107.30761700000039,110.12841800000024,111.6665039999998,113.46142599999985,121.15380900000036,125.89746099999957,119.87158199999976,139.48730499999965,113.0771479999994
223,126.2822270000006,118.46142599999985,117.17968800000017,145.12841800000024,115.38476599999922,108.46142599999985,112.94873000000007,110.76904300000024,115.64111300000059,123.46142599999985,129.48730499999965,120.0,146.41015599999992,113.46142599999985
224,130.0,119.61523400000078,117.43603499999972,139.87158199999976,113.3334960000002,109.87158199999976,114.61523400000078,108.3334960000002,116.6665039999998,121.53857400000015,128.46142599999985,118.84619099999964,148.58984400000008,114.61523400000078
225,131.79492200000004,116.9228520000006,116.15380900000036,136.9228520000006,106.0258789999998,110.38476599999922,115.38476599999922,106.9228520000006,116.0258789999998,116.0258789999998,123.84619099999964,117.69238299999961,145.6411130000006,115.64111300000059
226,131.79492200000004,112.82031300000017,115.12841800000024,139.23095699999976,101.41015599999992,110.51269500000035,116.6665039999998,108.84619099999964,115.38476599999922,111.2822270000006,119.23095699999976,117.69238299999961,140.12841800000024,115.89746099999957
227,130.51269500000035,109.61523400000078,115.76904300000024,146.15380900000036,106.0258789999998,110.64111300000059,118.84619099999964,114.10253900000043,116.6665039999998,111.53857400000015,117.43603499999972,119.35888699999941,136.15380900000036,115.25634799999989
228,127.56396500000028,107.30761700000039,117.30761700000039,153.0771479999994,117.56396500000028,111.15380900000036,121.2822270000006,119.48730499999965,119.23095699999976,116.41015599999992,118.46142599999985,120.76904300000024,135.2563479999999,114.61523400000078
229,122.17968800000017,105.0,117.05126999999993,153.7177729999994,125.51269500000035,112.05126999999993,122.30761700000039,121.41015599999992,120.76904300000024,120.89746099999957,119.74365200000011,120.0,136.0258789999998,115.12841800000024
230,115.0,101.79492200000004,112.94873000000007,146.53857400000015,120.38476599999922,112.94873000000007,120.89746099999957,118.9741210000002,119.10253900000043,120.76904300000024,118.9741210000002,116.41015599999992,135.89746099999957,116.53857400000015
231,108.9741210000002,97.94873000000007,106.2822270000006,136.0258789999998,103.7177729999994,113.0771479999994,117.82031300000017,115.0,115.25634799999989,116.9228520000006,115.76904300000024,111.53857400000015,133.9741210000002,117.69238299999961
232,107.17968800000017,95.64111300000059,100.76904300000024,129.87158199999976,87.94873000000007,112.43603499999972,115.12841800000024,113.46142599999985,112.69238299999961,114.10253900000043,112.05126999999993,108.3334960000002,131.53857400000015,117.56396500000028
233,110.64111300000059,96.15380900000036,99.48730499999965,132.56396500000028,85.25634799999989,111.6665039999998,114.74365200000011,115.76904300000024,113.7177729999994,115.12841800000024,110.89746099999957,108.84619099999964,131.15380900000036,115.76904300000024
234,116.6665039999998,99.10253900000043,101.9228520000006,141.9228520000006,96.79492200000004,111.41015599999992,116.6665039999998,119.48730499999965,117.05126999999993,118.84619099999964,113.20507799999996,112.82031300000017,133.58984400000008,113.3334960000002
235,120.38476599999922,101.53857400000015,104.61523400000078,150.38476599999922,111.9228520000006,111.53857400000015,118.46142599999985,121.0258789999998,119.87158199999976,120.76904300000024,117.43603499999972,117.05126999999993,136.6665039999998,111.53857400000015
236,118.84619099999964,101.15380900000036,104.87158199999976,151.53857400000015,118.46142599999985,111.79492200000004,118.3334960000002,119.35888699999941,120.12841800000024,118.58984400000008,120.25634799999989,117.94873000000007,137.05126999999993,111.0258789999998
237,113.3334960000002,99.23095699999976,102.69238299999961,144.87158199999976,113.9741210000002,112.30761700000039,116.9228520000006,117.05126999999993,118.58984400000008,113.9741210000002,119.87158199999976,115.12841800000024,134.23095699999976,111.79492200000004
238,107.94873000000007,99.10253900000043,100.89746099999957,136.15380900000036,105.76904300000024,112.69238299999961,116.15380900000036,116.79492200000004,117.56396500000028,111.53857400000015,117.43603499999972,110.76904300000024,130.12841800000024,113.0771479999994
239,104.87158199999976,101.53857400000015,100.76904300000024,131.0258789999998,101.9228520000006,112.30761700000039,117.05126999999993,117.82031300000017,117.56396500000028,112.94873000000007,113.9741210000002,107.30761700000039,126.53857400000015,114.10253900000043
240,102.69238299999961,102.94873000000007,101.0258789999998,130.12841800000024,102.69238299999961,110.51269500000035,117.82031300000017,116.41015599999992,116.41015599999992,115.12841800000024,108.84619099999964,105.0,122.43603499999972,114.48730499999965
241,99.23095699999976,99.48730499999965,99.48730499999965,130.12841800000024,103.20507799999996,108.3334960000002,116.41015599999992,110.12841800000024,111.41015599999992,112.69238299999961,101.9228520000006,102.56396500000028,116.2822270000006,113.9741210000002
242,95.0,91.79492200000004,96.2822270000006,128.46142599999985,99.35888699999941,107.43603499999972,113.3334960000002,101.79492200000004,103.7177729999994,104.87158199999976,95.51269500000035,100.12841800000024,109.23095699999976,113.46142599999985
243,92.69238299999961,85.12841800000024,94.10253900000043,126.2822270000006,92.56396500000028,108.58984400000008,111.2822270000006,96.79492200000004,97.69238299999961,96.6665039999998,93.7177729999994,99.35888699999941,104.87158199999976,113.0771479999994
244,94.87158199999976,84.35888699999941,95.89746099999957,126.9228520000006,88.46142599999985,110.89746099999957,112.30761700000039,98.84619099999964,96.9228520000006,94.74365200000011,98.46142599999985,101.6665039999998,106.41015599999992,112.69238299999961
245,101.15380900000036,90.0,101.79492200000004,132.05126999999993,91.6665039999998,112.82031300000017,115.76904300000024,106.15380900000036,101.53857400000015,101.2822270000006,106.9228520000006,106.6665039999998,112.82031300000017,112.17968800000017
246,108.20507799999996,97.56396500000028,108.7177729999994,139.7436520000001,101.53857400000015,113.20507799999996,118.7177729999994,113.46142599999985,107.82031300000017,111.53857400000015,113.46142599999985,111.6665039999998,120.12841800000024,112.05126999999993
247,110.76904300000024,101.9228520000006,112.43603499999972,144.7436520000001,111.6665039999998,111.79492200000004,118.3334960000002,115.76904300000024,111.15380900000036,117.82031300000017,113.7177729999994,113.20507799999996,123.58984400000008,113.46142599999985
248,107.05126999999993,100.38476599999922,110.12841800000024,142.56396500000028,114.10253900000043,109.61523400000078,113.46142599999985,111.53857400000015,109.35888699999941,114.74365200000011,107.94873000000007,109.87158199999976,121.2822270000006,115.76904300000024
249,99.74365200000011,94.87158199999976,103.3334960000002,134.23095699999976,107.30761700000039,108.0771479999994,105.64111300000059,103.46142599999985,103.58984400000008,104.48730499999965,100.38476599999922,103.7177729999994,115.12841800000024,117.43603499999972
250,95.38476599999922,91.53857400000015,97.30761700000039,126.2822270000006,98.0771479999994,107.56396500000028,98.84619099999964,96.41015599999992,97.94873000000007,94.74365200000011,96.2822270000006,99.23095699999976,109.74365200000011,117.17968800000017
251,98.58984400000008,94.61523400000078,96.41015599999992,125.51269500000035,94.87158199999976,107.43603499999972,96.9228520000006,93.9741210000002,95.89746099999957,92.56396500000028,97.56396500000028,99.87158199999976,109.48730499999965,115.25634799999989
252,107.69238299999961,102.05126999999993,100.12841800000024,132.3076170000004,99.23095699999976,107.17968800000017,100.76904300000024,95.89746099999957,98.3334960000002,97.94873000000007,101.79492200000004,103.9741210000002,113.7177729999994,113.3334960000002
253,115.51269500000035,106.9228520000006,103.84619099999964,139.61523400000078,104.74365200000011,107.17968800000017,106.9228520000006,99.74365200000011,102.82031300000017,103.9741210000002,104.74365200000011,107.05126999999993,118.0771479999994,112.43603499999972
254,116.2822270000006,104.74365200000011,103.84619099999964,140.6411130000006,104.10253900000043,108.7177729999994,111.6665039999998,103.20507799999996,106.53857400000015,104.74365200000011,104.35888699999941,106.15380900000036,118.58984400000008,113.0771479999994
255,110.76904300000024,98.20507799999996,100.64111300000059,135.0,97.82031300000017,111.6665039999998,113.58984400000008,106.6665039999998,109.74365200000011,101.15380900000036,102.94873000000007,102.56396500000028,115.76904300000024,114.48730499999965
256,105.89746099999957,95.51269500000035,98.84619099999964,128.9741210000002,93.3334960000002,115.12841800000024,115.0,111.79492200000004,114.61523400000078,99.87158199999976,104.48730499999965,101.0258789999998,114.87158199999976,115.12841800000024
257,107.56396500000028,101.6665039999998,101.53857400000015,129.48730499999965,97.69238299999961,118.20507799999996,119.10253900000043,118.3334960000002,122.05126999999993,106.0258789999998,111.0258789999998,104.23095699999976,120.12841800000024,114.48730499999965
258,114.87158199999976,113.20507799999996,107.94873000000007,137.17968800000017,109.48730499999965,119.61523400000078,126.0258789999998,124.35888699999941,130.38476599999922,118.46142599999985,120.0,110.38476599999922,130.2563479999999,113.3334960000002
259,120.64111300000059,120.12841800000024,113.9741210000002,146.0258789999998,120.51269500000035,118.7177729999994,132.3076170000004,127.05126999999993,135.6411130000006,130.12841800000024,125.38476599999922,114.87158199999976,138.3334960000002,112.56396500000028
260,118.58984400000008,115.64111300000059,114.61523400000078,148.7177729999994,123.0771479999994,115.89746099999957,133.9741210000002,125.25634799999989,135.0,133.9741210000002,123.20507799999996,114.35888699999941,138.0771479999994,112.82031300000017
261,109.23095699999976,102.82031300000017,108.84619099999964,143.46142599999985,116.53857400000015,113.0771479999994,129.3588869999994,120.51269500000035,128.84619099999964,128.3334960000002,115.38476599999922,109.87158199999976,129.87158199999976,113.46142599999985
262,99.10253900000043,92.69238299999961,100.64111300000059,135.0,107.43603499999972,111.9228520000006,121.53857400000015,116.2822270000006,120.76904300000024,118.58984400000008,108.46142599999985,105.64111300000059,120.64111300000059,114.23095699999976
263,95.64111300000059,94.10253900000043,96.2822270000006,129.3588869999994,102.56396500000028,113.20507799999996,115.89746099999957,115.76904300000024,115.51269500000035,112.43603499999972,107.82031300000017,105.38476599999922,116.41015599999992,115.12841800000024
264,100.38476599999922,106.0258789999998,98.7177729999994,129.61523400000078,103.20507799999996,115.76904300000024,115.51269500000035,118.84619099999964,115.38476599999922,112.82031300000017,112.82031300000017,108.9741210000002,118.46142599999985,116.0258789999998
265,108.9741210000002,119.23095699999976,105.76904300000024,133.7177729999994,105.25634799999989,117.30761700000039,118.9741210000002,122.69238299999961,119.10253900000043,117.43603499999972,117.82031300000017,113.0771479999994,122.17968800000017,116.41015599999992
266,114.35888699999941,124.23095699999976,111.15380900000036,137.56396500000028,103.84619099999964,116.53857400000015,122.17968800000017,123.46142599999985,122.94873000000007,120.64111300000059,116.79492200000004,113.58984400000008,122.30761700000039,116.41015599999992
267,112.30761700000039,118.46142599999985,110.25634799999989,137.3076170000004,97.43603499999972,113.7177729999994,121.15380900000036,119.48730499999965,122.82031300000017,118.46142599999985,108.3334960000002,109.35888699999941,116.0258789999998,115.76904300000024
268,105.12841800000024,107.05126999999993,103.46142599999985,133.20507799999996,88.9741210000002,110.38476599999922,115.89746099999957,112.69238299999961,117.56396500000028,111.15380900000036,96.53857400000015,103.0771479999994,105.51269500000035,114.74365200000011
269,98.7177729999994,99.10253900000043,96.2822270000006,128.84619099999964,84.61523400000078,108.20507799999996,109.48730499999965,106.79492200000004,109.48730499999965,102.82031300000017,88.0771479999994,98.7177729999994,96.41015599999992,113.58984400000008
270,97.30761700000039,100.25634799999989,94.10253900000043,128.20507799999996,88.0771479999994,107.94873000000007,106.2822270000006,104.87158199999976,102.56396500000028,97.94873000000007,87.05126999999993,98.84619099999964,93.9741210000002,112.94873000000007
271,100.0,109.35888699999941,97.69238299999961,132.17968800000017,96.9228520000006,109.48730499999965,107.82031300000017,107.05126999999993,98.9741210000002,97.17968800000017,91.79492200000004,102.43603499999972,97.56396500000028,113.20507799999996
272,102.94873000000007,119.87158199999976,103.46142599999985,137.94873000000007,105.0,111.6665039999998,111.6665039999998,110.38476599999922,98.20507799999996,97.94873000000007,97.05126999999993,106.53857400000015,101.53857400000015,113.84619099999964
273,103.7177729999994,126.53857400000015,107.30761700000039,142.56396500000028,107.56396500000028,113.3334960000002,114.87158199999976,112.05126999999993,98.7177729999994,97.69238299999961,98.7177729999994,109.48730499999965,100.76904300000024,114.10253900000043
274,103.58984400000008,128.9741210000002,108.46142599999985,145.2563479999999,106.0258789999998,113.84619099999964,116.0258789999998,111.53857400000015,100.12841800000024,97.43603499999972,97.05126999999993,111.2822270000006,95.51269500000035,113.84619099999964
275,105.12841800000024,129.87158199999976,108.46142599999985,147.05126999999993,104.35888699999941,113.3334960000002,116.53857400000015,110.76904300000024,103.20507799999996,100.64111300000059,96.0258789999998,113.0771479999994,90.25634799999989,113.84619099999964
276,108.58984400000008,130.76904300000024,109.10253900000043,148.0771479999994,104.35888699999941,112.43603499999972,117.69238299999961,111.6665039999998,107.17968800000017,107.82031300000017,98.20507799999996,114.87158199999976,89.35888699999941,114.61523400000078
277,111.0258789999998,130.51269500000035,110.12841800000024,146.79492200000004,103.9741210000002,111.2822270000006,118.20507799999996,113.58984400000008,109.61523400000078,115.12841800000024,102.43603499999972,115.12841800000024,92.69238299999961,115.89746099999957
278,109.10253900000043,127.17968800000017,109.87158199999976,142.17968800000017,99.74365200000011,109.74365200000011,116.15380900000036,114.10253900000043,108.0771479999994,116.79492200000004,103.9741210000002,112.05126999999993,96.15380900000036,116.79492200000004
279,102.56396500000028,120.25634799999989,106.9228520000006,134.87158199999976,92.05126999999993,107.82031300000017,111.0258789999998,110.51269500000035,102.43603499999972,109.61523400000078,99.10253900000043,106.2822270000006,95.64111300000059,116.6665039999998
280,94.48730499999965,112.17968800000017,101.9228520000006,127.05126999999993,85.12841800000024,106.41015599999992,104.23095699999976,103.3334960000002,95.0,96.9228520000006,88.7177729999994,100.25634799999989,90.0,115.64111300000059
281,89.23095699999976,107.56396500000028,97.30761700000039,122.17968800000017,83.84619099999964,105.89746099999957,99.10253900000043,95.76904300000024,89.48730499999965,86.0258789999998,79.10253900000043,96.9228520000006,82.56396500000028,114.74365200000011
282,89.61523400000078,109.87158199999976,96.2822270000006,122.94873000000007,90.12841800000024,105.64111300000059,98.84619099999964,92.94873000000007,89.48730499999965,83.7177729999994,77.43603499999972,98.0771479999994,78.9741210000002,114.35888699999941
283,95.38476599999922,118.46142599999985,99.87158199999976,128.84619099999964,101.0258789999998,104.48730499999965,104.10253900000043,97.56396500000028,96.0258789999998,91.15380900000036,86.0258789999998,102.94873000000007,83.0771479999994,114.74365200000011
284,103.20507799999996,128.7177729999994,105.38476599999922,135.76904300000024,110.0,102.69238299999961,112.56396500000028,107.17968800000017,105.76904300000024,102.05126999999993,99.10253900000043,108.46142599999985,92.94873000000007,115.64111300000059
285,108.3334960000002,134.48730499999965,108.20507799999996,138.3334960000002,112.17968800000017,101.53857400000015,119.48730499999965,115.51269500000035,113.3334960000002,108.84619099999964,107.43603499999972,111.41015599999992,102.43603499999972,116.41015599999992
286,107.69238299999961,132.94873000000007,105.89746099999957,134.10253900000043,107.30761700000039,102.69238299999961,121.6665039999998,117.82031300000017,114.23095699999976,107.82031300000017,105.38476599999922,109.48730499999965,105.38476599999922,116.15380900000036
287,101.41015599999992,124.74365200000011,100.25634799999989,125.12841800000024,99.48730499999965,105.89746099999957,119.35888699999941,114.48730499999965,108.58984400000008,102.05126999999993,95.25634799999989,103.7177729999994,100.12841800000024,114.87158199999976
288,93.20507799999996,114.74365200000011,95.64111300000059,117.30761700000039,94.10253900000043,108.9741210000002,115.51269500000035,109.87158199999976,100.76904300000024,96.79492200000004,84.61523400000078,98.20507799999996,90.51269500000035,113.58984400000008
289,87.82031300000017,108.0771479999994,95.0,115.12841800000024,93.7177729999994,109.61523400000078,113.0771479999994,107.94873000000007,96.15380900000036,95.25634799999989,81.15380900000036,96.41015599999992,83.46142599999985,113.3334960000002
290,87.94873000000007,108.46142599999985,97.82031300000017,119.23095699999976,97.17968800000017,107.69238299999961,113.20507799999996,109.61523400000078,97.56396500000028,96.9228520000006,86.6665039999998,99.10253900000043,84.10253900000043,114.35888699999941
291,93.20507799999996,115.12841800000024,101.6665039999998,126.41015599999992,101.79492200000004,105.51269500000035,115.25634799999989,113.0771479999994,103.7177729999994,99.23095699999976,97.43603499999972,104.10253900000043,92.30761700000039,115.38476599999922
292,100.38476599999922,123.9741210000002,104.74365200000011,132.17968800000017,105.64111300000059,106.2822270000006,117.43603499999972,115.25634799999989,110.38476599999922,100.64111300000059,106.53857400000015,108.46142599999985,103.58984400000008,115.89746099999957
293,105.51269500000035,131.0258789999998,106.15380900000036,134.48730499999965,108.9741210000002,110.76904300000024,118.58984400000008,113.7177729999994,113.20507799999996,101.2822270000006,109.48730499999965,110.25634799999989,112.56396500000028,115.38476599999922
294,105.76904300000024,134.10253900000043,105.51269500000035,133.7177729999994,112.43603499999972,115.64111300000059,118.3334960000002,108.58984400000008,110.25634799999989,102.30761700000039,106.15380900000036,109.23095699999976,115.38476599999922,114.10253900000043
295,101.79492200000004,133.3334960000002,103.0771479999994,131.6665039999998,115.25634799999989,117.05126999999993,116.6665039999998,102.05126999999993,103.3334960000002,103.20507799999996,100.12841800000024,106.15380900000036,112.05126999999993,112.69238299999961
296,97.43603499999972,130.6411130000006,100.51269500000035,130.6411130000006,115.89746099999957,114.35888699999941,114.74365200000011,97.56396500000028,96.6665039999998,103.20507799999996,95.89746099999957,103.20507799999996,105.12841800000024,111.79492200000004
297,97.43603499999972,128.46142599999985,100.0,132.05126999999993,114.74365200000011,110.12841800000024,113.58984400000008,97.17968800000017,94.74365200000011,102.69238299999961,96.41015599999992,102.69238299999961,99.61523400000078,112.05126999999993
298,103.7177729999994,127.69238299999961,102.82031300000017,135.51269500000035,113.7177729999994,107.82031300000017,114.10253900000043,100.25634799999989,98.3334960000002,103.46142599999985,101.79492200000004,105.51269500000035,99.35888699999941,113.20507799999996
299,113.46142599999985,127.43603499999972,107.43603499999972,139.10253900000043,113.20507799999996,108.46142599999985,116.0258789999998,104.35888699999941,103.58984400000008,105.89746099999957,108.9741210000002,110.38476599999922,104.35888699999941,113.9741210000002
300,120.38476599999922,125.51269500000035,111.0258789999998,139.87158199999976,111.15380900000036,110.25634799999989,117.30761700000039,105.89746099999957,104.61523400000078,107.17968800000017,112.69238299999961,113.84619099999964,110.12841800000024,113.84619099999964
301,118.58984400000008,120.38476599999922,110.89746099999957,136.2822270000006,105.25634799999989,110.76904300000024,115.76904300000024,102.94873000000007,97.82031300000017,103.58984400000008,108.9741210000002,113.3334960000002,110.64111300000059,113.46142599999985
302,108.7177729999994,112.82031300000017,106.9228520000006,129.3588869999994,96.6665039999998,109.10253900000043,111.0258789999998,97.05126999999993,86.41015599999992,94.48730499999965,98.20507799999996,108.3334960000002,102.94873000000007,113.46142599999985
303,97.43603499999972,106.15380900000036,101.79492200000004,123.0771479999994,90.38476599999922,107.17968800000017,105.89746099999957,92.69238299999961,78.84619099999964,85.0,86.0258789999998,101.79492200000004,91.0258789999998,114.10253900000043
304,93.0771479999994,105.0,99.10253900000043,121.15380900000036,91.0258789999998,107.30761700000039,104.10253900000043,94.23095699999976,82.05126999999993,82.43603499999972,79.87158199999976,97.82031300000017,82.94873000000007,114.48730499999965
305,98.20507799999996,110.64111300000059,100.64111300000059,124.87158199999976,98.20507799999996,110.25634799999989,106.9228520000006,101.9228520000006,96.15380900000036,90.12841800000024,83.7177729999994,98.84619099999964,84.74365200000011,114.61523400000078
306,108.7177729999994,119.74365200000011,105.0,132.3076170000004,106.53857400000015,113.58984400000008,112.17968800000017,111.9228520000006,112.56396500000028,103.58984400000008,94.10253900000043,103.58984400000008,94.61523400000078,114.35888699999941
307,116.15380900000036,125.25634799999989,108.3334960000002,137.94873000000007,109.48730499999965,113.46142599999985,115.76904300000024,117.94873000000007,121.53857400000015,113.9741210000002,102.69238299999961,107.94873000000007,104.74365200000011,113.7177729999994
308,114.23095699999976,122.30761700000039,107.56396500000028,137.05126999999993,104.23095699999976,108.58984400000008,114.74365200000011,116.6665039999998,118.46142599999985,114.74365200000011,103.20507799999996,107.94873000000007,107.17968800000017,113.0771479999994
309,103.3334960000002,111.2822270000006,102.30761700000039,128.7177729999994,94.10253900000043,101.9228520000006,110.25634799999989,110.0,107.94873000000007,106.9228520000006,96.0258789999998,103.7177729999994,100.76904300000024,113.0771479999994
310,90.25634799999989,99.23095699999976,96.6665039999998,117.43603499999972,86.6665039999998,98.20507799999996,106.0258789999998,104.10253900000043,99.35888699999941,97.69238299999961,88.46142599999985,98.58984400000008,92.56396500000028,113.9741210000002
311,83.9741210000002,94.35888699999941,94.61523400000078,110.0,87.69238299999961,99.74365200000011,106.0258789999998,104.23095699999976,99.74365200000011,95.25634799999989,88.20507799999996,96.41015599999992,91.15380900000036,115.38476599999922
312,89.23095699999976,100.89746099999957,97.05126999999993,110.64111300000059,96.2822270000006,104.87158199999976,111.15380900000036,110.51269500000035,108.9741210000002,102.43603499999972,97.69238299999961,99.10253900000043,100.0,116.15380900000036
313,102.94873000000007,115.12841800000024,101.6665039999998,118.46142599999985,106.9228520000006,109.87158199999976,118.0771479999994,118.58984400000008,120.76904300000024,115.0,112.17968800000017,104.48730499999965,114.48730499999965,115.89746099999957
314,116.79492200000004,128.7177729999994,104.61523400000078,128.9741210000002,112.94873000000007,111.79492200000004,122.56396500000028,122.17968800000017,127.05126999999993,125.12841800000024,123.3334960000002,109.10253900000043,126.0258789999998,114.61523400000078
315,123.58984400000008,134.10253900000043,104.48730499999965,136.41015599999992,112.17968800000017,110.51269500000035,121.9228520000006,118.3334960000002,124.10253900000043,125.76904300000024,125.38476599999922,110.64111300000059,128.58984400000008,113.58984400000008
316,121.41015599999992,130.89746099999957,102.69238299999961,137.94873000000007,107.17968800000017,108.20507799999996,117.05126999999993,109.35888699999941,115.0,116.53857400000015,119.35888699999941,109.35888699999941,122.56396500000028,112.82031300000017
317,114.35888699999941,124.74365200000011,102.30761700000039,134.23095699999976,101.9228520000006,107.17968800000017,112.05126999999993,101.2822270000006,106.41015599999992,103.20507799999996,111.6665039999998,107.94873000000007,114.10253900000043,112.56396500000028
318,108.46142599999985,121.79492200000004,105.0,128.9741210000002,99.23095699999976,108.20507799999996,110.51269500000035,98.7177729999994,103.84619099999964,93.84619099999964,108.7177729999994,107.82031300000017,109.48730499999965,112.56396500000028
319,107.69238299999961,124.23095699999976,110.38476599999922,126.41015599999992,99.48730499999965,110.51269500000035,113.46142599999985,102.82031300000017,108.20507799999996,93.9741210000002,112.82031300000017,108.7177729999994,111.41015599999992,112.56396500000028
320,112.05126999999993,129.48730499999965,115.38476599999922,128.7177729999994,102.43603499999972,112.43603499999972,118.0771479999994,109.87158199999976,115.51269500000035,102.94873000000007,120.64111300000059,109.23095699999976,117.56396500000028,112.43603499999972
321,117.30761700000039,132.3076170000004,117.05126999999993,133.7177729999994,106.41015599999992,113.3334960000002,120.76904300000024,114.87158199999976,120.38476599999922,114.61523400000078,126.9228520000006,108.3334960000002,122.82031300000017,112.17968800000017
322,120.0,129.23095699999976,114.61523400000078,136.6665039999998,108.84619099999964,112.69238299999961,119.35888699999941,114.74365200000011,118.84619099999964,120.89746099999957,128.0771479999994,106.79492200000004,123.0771479999994,112.30761700000039
323,118.0771479999994,120.25634799999989,109.48730499999965,134.3588869999994,106.0258789999998,110.51269500000035,114.10253900000043,109.35888699999941,110.25634799999989,116.53857400000015,122.69238299999961,105.25634799999989,116.6665039999998,112.69238299999961
324,111.79492200000004,109.48730499999965,103.84619099999964,127.30761700000039,96.79492200000004,106.9228520000006,107.05126999999993,100.76904300000024,96.9228520000006,103.20507799999996,112.43603499999972,103.58984400000008,105.38476599999922,113.20507799999996
325,103.9741210000002,102.43603499999972,99.61523400000078,119.35888699999941,85.0,103.3334960000002,100.51269500000035,92.30761700000039,83.84619099999964,88.46142599999985,100.64111300000059,100.89746099999957,93.58984400000008,113.3334960000002
326,98.9741210000002,102.82031300000017,98.58984400000008,115.0,78.9741210000002,102.17968800000017,97.69238299999961,87.43603499999972,77.30761700000039,81.6665039999998,92.94873000000007,98.58984400000008,86.2822270000006,112.94873000000007
327,100.89746099999957,111.2822270000006,101.15380900000036,117.43603499999972,84.87158199999976,105.51269500000035,100.38476599999922,88.9741210000002,81.6665039999998,86.79492200000004,93.9741210000002,98.7177729999994,87.69238299999961,112.30761700000039
328,110.25634799999989,124.10253900000043,106.41015599999992,126.41015599999992,101.0258789999998,112.05126999999993,107.56396500000028,96.0258789999998,95.12841800000024,100.76904300000024,103.58984400000008,102.30761700000039,98.20507799999996,112.17968800000017
329,123.0771479999994,135.38476599999922,111.41015599999992,137.94873000000007,118.20507799999996,117.82031300000017,115.51269500000035,104.87158199999976,109.87158199999976,115.0,115.64111300000059,107.17968800000017,112.69238299999961,112.43603499999972
330,132.3076170000004,139.61523400000078,113.58984400000008,146.41015599999992,126.41015599999992,119.74365200000011,120.38476599999922,110.76904300000024,117.30761700000039,121.53857400000015,122.17968800000017,110.64111300000059,123.20507799999996,112.94873000000007
331,133.20507799999996,134.87158199999976,112.17968800000017,148.0771479999994,121.9228520000006,116.79492200000004,120.89746099999957,111.9228520000006,114.35888699999941,117.82031300000017,119.61523400000078,111.2822270000006,123.7177729999994,113.46142599999985
332,125.12841800000024,123.3334960000002,108.7177729999994,142.43603499999972,109.23095699999976,111.53857400000015,118.58984400000008,109.48730499999965,105.12841800000024,106.53857400000015,110.0,109.35888699999941,114.48730499999965,113.58984400000008
333,112.30761700000039,110.51269500000035,104.61523400000078,132.3076170000004,96.9228520000006,107.56396500000028,115.64111300000059,106.0258789999998,96.41015599999992,93.46142599999985,99.35888699999941,106.53857400000015,101.9228520000006,113.20507799999996
334,101.2822270000006,101.6665039999998,101.2822270000006,121.53857400000015,92.05126999999993,106.79492200000004,113.58984400000008,102.94873000000007,92.82031300000017,83.7177729999994,93.0771479999994,104.10253900000043,93.84619099999964,112.56396500000028
335,97.17968800000017,99.61523400000078,99.74365200000011,114.23095699999976,95.51269500000035,108.84619099999964,113.20507799999996,101.2822270000006,94.87158199999976,80.76904300000024,93.20507799999996,102.94873000000007,95.0,112.30761700000039
336,101.53857400000015,103.0771479999994,100.64111300000059,112.43603499999972,102.05126999999993,111.79492200000004,114.61523400000078,101.6665039999998,100.51269500000035,86.15380900000036,98.7177729999994,103.58984400000008,103.9741210000002,112.43603499999972
337,111.15380900000036,108.20507799999996,103.20507799999996,115.64111300000059,104.87158199999976,113.9741210000002,117.30761700000039,104.23095699999976,106.0258789999998,98.20507799999996,105.64111300000059,105.51269500000035,114.48730499999965,112.56396500000028
338,120.0,111.53857400000015,105.76904300000024,120.89746099999957,101.6665039999998,114.48730499999965,120.25634799999989,107.94873000000007,109.23095699999976,112.17968800000017,110.0,107.56396500000028,120.38476599999922,112.82031300000017
339,123.20507799999996,112.56396500000028,107.30761700000039,125.76904300000024,96.53857400000015,113.58984400000008,121.41015599999992,111.41015599999992,109.61523400000078,121.2822270000006,110.12841800000024,108.58984400000008,120.12841800000024,113.20507799999996
340,121.15380900000036,113.7177729999994,108.0771479999994,129.23095699999976,95.89746099999957,112.17968800000017,120.0,114.23095699999976,108.9741210000002,121.9228520000006,108.46142599999985,108.7177729999994,117.17968800000017,113.46142599999985
341,118.3334960000002,117.17968800000017,109.10253900000043,132.17968800000017,101.79492200000004,110.51269500000035,116.9228520000006,116.6665039999998,109.35888699999941,116.41015599999992,108.84619099999964,109.10253900000043,117.17968800000017,113.0771479999994
342,118.46142599999985,121.9228520000006,110.89746099999957,134.61523400000078,110.89746099999957,108.7177729999994,114.10253900000043,118.46142599999985,112.05126999999993,111.53857400000015,113.58984400000008,110.76904300000024,123.0771479999994,112.17968800000017
343,121.2822270000006,123.58984400000008,112.69238299999961,135.51269500000035,117.43603499999972,108.20507799999996,113.58984400000008,118.84619099999964,115.64111300000059,112.69238299999961,121.15380900000036,112.82031300000017,132.94873000000007,111.41015599999992
344,122.56396500000028,117.94873000000007,113.20507799999996,132.6923829999996,117.30761700000039,109.35888699999941,115.64111300000059,117.30761700000039,117.56396500000028,118.9741210000002,126.6665039999998,113.46142599999985,141.53857400000015,111.79492200000004
345,118.20507799999996,103.9741210000002,110.76904300000024,125.38476599999922,110.76904300000024,111.6665039999998,118.0771479999994,113.46142599999985,115.51269500000035,123.7177729999994,126.2822270000006,110.89746099999957,143.84619099999964,113.20507799999996
346,108.46142599999985,85.38476599999922,105.38476599999922,116.0258789999998,101.53857400000015,113.3334960000002,117.56396500000028,107.69238299999961,109.48730499999965,119.74365200000011,119.48730499999965,105.51269500000035,138.7177729999994,114.61523400000078
347,97.56396500000028,69.48730499999965,98.58984400000008,109.35888699999941,94.48730499999965,113.20507799999996,112.30761700000039,101.2822270000006,100.89746099999957,107.30761700000039,109.87158199999976,99.48730499999965,130.12841800000024,115.0
348,90.76904300000024,62.30761700000039,93.9741210000002,108.20507799999996,93.20507799999996,111.15380900000036,104.23095699999976,96.0258789999998,93.84619099999964,95.0,103.20507799999996,96.15380900000036,124.48730499999965,114.35888699999941
349,91.15380900000036,65.25634799999989,94.61523400000078,112.17968800000017,98.3334960000002,108.58984400000008,97.69238299999961,94.48730499999965,92.69238299999961,93.20507799999996,104.10253900000043,97.82031300000017,127.05126999999993,113.20507799999996
350,97.17968800000017,74.10253900000043,100.89746099999957,117.56396500000028,106.9228520000006,108.20507799999996,97.43603499999972,98.0771479999994,99.87158199999976,104.74365200000011,113.58984400000008,104.23095699999976,138.20507799999996,112.43603499999972
351,104.10253900000043,81.2822270000006,109.48730499999965,119.74365200000011,114.23095699999976,110.38476599999922,103.7177729999994,105.76904300000024,112.94873000000007,122.43603499999972,126.79492200000004,112.43603499999972,153.84619099999964,112.43603499999972
352,107.17968800000017,80.64111300000059,115.38476599999922,116.41015599999992,116.79492200000004,113.20507799999996,112.56396500000028,113.58984400000008,125.38476599999922,135.38476599999922,136.2822270000006,118.7177729999994,167.56396500000028,113.3334960000002
353,105.0,70.89746099999957,115.51269500000035,108.3334960000002,115.25634799999989,113.9741210000002,118.3334960000002,117.94873000000007,131.41015599999992,138.84619099999964,139.10253900000043,120.76904300000024,174.87158199999976,114.23095699999976
354,100.0,56.79492200000004,111.0258789999998,99.61523400000078,112.94873000000007,112.69238299999961,118.3334960000002,118.46142599999985,130.89746099999957,137.05126999999993,137.94873000000007,119.48730499999965,176.2822270000006,114.48730499999965
355,95.89746099999957,44.61523400000078,106.15380900000036,94.10253900000043,112.94873000000007,111.6665039999998,114.48730499999965,117.05126999999993,128.0771479999994,137.17968800000017,137.94873000000007,117.69238299999961,175.0,114.23095699999976
356,93.3334960000002,36.2822270000006,103.58984400000008,91.6665039999998,114.74365200000011,112.69238299999961,111.15380900000036,116.53857400000015,126.53857400000015,142.17968800000017,139.87158199999976,116.53857400000015,173.9741210000002,114.10253900000043
357,89.61523400000078,28.846190999999635,102.30761700000039,88.46142599999985,115.0,115.51269500000035,111.2822270000006,118.0771479999994,126.6665039999998,147.05126999999993,139.10253900000043,114.74365200000011,172.3076170000004,114.61523400000078
358,81.9228520000006,18.077147999999397,99.23095699999976,81.41015599999992,111.79492200000004,118.20507799999996,114.10253900000043,120.38476599999922,125.89746099999957,144.61523400000078,131.6665039999998,110.12841800000024,167.82031300000017,115.12841800000024
359,71.2822270000006,3.9741210000001956,93.3334960000002,71.6665039999998,106.15380900000036,119.35888699999941,116.79492200000004,121.9228520000006,122.94873000000007,132.94873000000007,118.84619099999964,103.3334960000002,160.0,115.38476599999922
360,62.30761700000039,-8.974365000000034,86.53857400000015,64.61523400000078,102.05126999999993,118.7177729999994,117.17968800000017,121.53857400000015,119.35888699999941,117.82031300000017,106.9228520000006,97.43603499999972,151.53857400000015,115.25634799999989
361,60.38476599999922,-14.487060999999812,82.69238299999961,64.48730499999965,102.30761700000039,116.6665039999998,115.38476599999922,119.48730499999965,117.82031300000017,109.23095699999976,102.30761700000039,95.89746099999957,146.53857400000015,115.25634799999989
362,66.9228520000006,-10.512939000000188,83.7177729999994,71.2822270000006,108.20507799999996,114.48730499999965,113.84619099999964,117.43603499999972,120.25634799999989,112.82031300000017,106.9228520000006,99.10253900000043,147.43603499999972,115.38476599999922
363,78.58984400000008,-0.256347999999889,88.46142599999985,80.38476599999922,117.30761700000039,113.84619099999964,114.74365200000011,117.69238299999961,126.41015599999992,125.25634799999989,117.30761700000039,104.35888699999941,153.3334960000002,115.51269500000035
364,89.23095699999976,9.615234000000783,93.3334960000002,86.2822270000006,124.87158199999976,115.12841800000024,118.46142599999985,121.0258789999998,133.20507799999996,137.3076170000004,126.15380900000036,107.94873000000007,159.7436520000001,115.51269500000035
365,93.20507799999996,13.717772999999397,95.0,85.64111300000059,127.05126999999993,116.6665039999998,122.69238299999961,126.0258789999998,137.17968800000017,140.6411130000006,128.20507799999996,108.0771479999994,161.79492200000004,115.25634799999989
366,88.9741210000002,10.897460999999566,92.56396500000028,79.23095699999976,123.3334960000002,117.17968800000017,124.61523400000078,129.87158199999976,136.41015599999992,134.87158199999976,123.20507799999996,105.89746099999957,157.6923829999996,114.48730499999965
367,79.87158199999976,5.0,88.58984400000008,71.41015599999992,117.30761700000039,116.41015599999992,123.0771479999994,130.89746099999957,132.43603499999972,126.2822270000006,115.76904300000024,103.58984400000008,150.12841800000024,113.20507799999996
368,72.30761700000039,1.4101559999999154,86.79492200000004,67.30761700000039,113.46142599999985,115.64111300000059,119.87158199999976,129.87158199999976,129.48730499999965,122.82031300000017,112.56396500000028,104.10253900000043,144.23095699999976,111.9228520000006
369,71.6665039999998,2.4360349999997197,89.61523400000078,68.58984400000008,112.69238299999961,115.38476599999922,117.69238299999961,129.10253900000043,130.6411130000006,128.3334960000002,116.9228520000006,107.94873000000007,143.46142599999985,111.0258789999998
370,77.94873000000007,6.410155999999915,95.76904300000024,72.82031300000017,112.43603499999972,115.64111300000059,117.05126999999993,129.3588869999994,135.51269500000035,140.12841800000024,125.89746099999957,113.20507799999996,147.17968800000017,110.64111300000059
371,86.2822270000006,9.230956999999762,100.64111300000059,75.0,110.51269500000035,116.0258789999998,116.41015599999992,130.12841800000024,140.6411130000006,151.6665039999998,133.3334960000002,116.41015599999992,150.89746099999957,110.25634799999989
372,90.51269500000035,8.589844000000085,101.15380900000036,72.94873000000007,107.69238299999961,116.53857400000015,114.87158199999976,130.0,143.46142599999985,157.05126999999993,135.2563479999999,115.64111300000059,151.53857400000015,110.25634799999989
373,88.58984400000008,6.282227000000603,98.0771479999994,69.35888699999941,107.69238299999961,116.9228520000006,113.58984400000008,128.84619099999964,143.7177729999994,153.9741210000002,133.0771479999994,112.05126999999993,150.0,111.15380900000036
374,83.3334960000002,5.512695000000349,94.74365200000011,67.82031300000017,112.17968800000017,117.05126999999993,114.35888699999941,128.3334960000002,143.0771479999994,145.51269500000035,130.76904300000024,108.7177729999994,149.10253900000043,112.82031300000017
375,78.84619099999964,7.56396500000028,93.20507799999996,68.7177729999994,118.84619099999964,116.53857400000015,118.0771479999994,129.23095699999976,142.82031300000017,136.79492200000004,130.6411130000006,107.94873000000007,150.0,113.9741210000002
376,76.53857400000015,9.230956999999762,93.46142599999985,69.48730499999965,121.9228520000006,115.64111300000059,123.0771479999994,131.0258789999998,142.56396500000028,132.43603499999972,131.41015599999992,109.48730499999965,150.12841800000024,113.58984400000008
377,74.87158199999976,6.538574000000153,93.20507799999996,67.30761700000039,117.69238299999961,115.12841800000024,126.2822270000006,131.2822270000006,140.89746099999957,132.6923829999996,130.2563479999999,110.89746099999957,145.76904300000024,112.05126999999993
378,71.0258789999998,-1.6665039999998044,90.76904300000024,61.666503999999804,107.43603499999972,115.38476599999922,125.64111300000059,128.46142599999985,137.17968800000017,134.10253900000043,125.76904300000024,110.0,136.2822270000006,110.89746099999957
379,64.48730499999965,-11.794922000000042,86.15380900000036,55.0,96.9228520000006,115.76904300000024,121.2822270000006,123.3334960000002,132.3076170000004,132.6923829999996,119.23095699999976,106.6665039999998,125.0,110.89746099999957
380,57.05126999999993,-19.10253899999998,81.9228520000006,50.64111300000059,92.17968800000017,116.0258789999998,116.2822270000006,119.10253900000043,127.69238299999961,127.43603499999972,113.7177729999994,103.0771479999994,116.53857400000015,111.9228520000006
381,51.53857400000015,-20.512939000000188,80.0,50.51269500000035,95.89746099999957,115.89746099999957,114.35888699999941,118.20507799999996,124.87158199999976,121.0258789999998,111.2822270000006,100.76904300000024,112.82031300000017,113.3334960000002
382,49.35888699999941,-16.666747999999643,80.51269500000035,53.974121000000196,105.51269500000035,115.76904300000024,116.6665039999998,121.0258789999998,124.35888699999941,117.69238299999961,112.05126999999993,100.0,112.82031300000017,113.9741210000002
383,50.0,-11.28198199999997,81.79492200000004,58.333496000000196,114.87158199999976,115.89746099999957,121.6665039999998,125.25634799999989,125.51269500000035,119.61523400000078,113.9741210000002,99.87158199999976,113.9741210000002,113.3334960000002
