,EEG.AF3,EEG.F7,EEG.F3,EEG.FC5,EEG.T7,EEG.P7,EEG.O1,EEG.O2,EEG.P8,EEG.T8,EEG.FC6,EEG.F4,EEG.F8,EEG.AF4
0,117.17968800000017,98.84619099999964,149.3588869999994,29.871581999999762,119.61523400000078,110.0,130.51269500000035,130.76904300000024,129.48730499999965,136.2822270000006,150.38476599999922,122.43603499999972,167.3076170000004,117.82031300000017
1,115.38476599999922,100.25634799999989,146.41015599999992,26.153809000000365,117.94873000000007,111.0258789999998,131.6665039999998,130.2563479999999,125.76904300000024,129.61523400000078,146.41015599999992,120.0,161.2822270000006,117.30761700000039
2,113.7177729999994,96.9228520000006,140.76904300000024,22.05126999999993,114.23095699999976,112.82031300000017,127.17968800000017,127.17968800000017,119.74365200000011,120.64111300000059,138.9741210000002,114.61523400000078,153.20507799999996,116.0258789999998
3,111.9228520000006,91.41015599999992,135.38476599999922,18.846190999999635,111.9228520000006,114.23095699999976,119.87158199999976,123.20507799999996,114.74365200000011,114.10253900000043,132.3076170000004,110.0,146.79492200000004,114.35888699999941
4,109.35888699999941,86.53857400000015,132.17968800000017,16.666503999999804,112.69238299999961,114.61523400000078,114.10253900000043,119.74365200000011,113.0771479999994,112.43603499999972,128.84619099999964,108.0771479999994,143.84619099999964,113.0771479999994
5,105.76904300000024,83.46142599999985,131.2822270000006,14.102539000000434,115.0,114.23095699999976,112.17968800000017,117.17968800000017,113.9741210000002,114.23095699999976,128.84619099999964,108.0771479999994,143.46142599999985,113.0771479999994
6,101.9228520000006,81.6665039999998,131.15380900000036,10.769043000000238,115.76904300000024,113.84619099999964,113.58984400000008,115.51269500000035,114.74365200000011,116.53857400000015,129.87158199999976,108.0771479999994,143.7177729999994,114.61523400000078
7,99.87158199999976,81.6665039999998,130.76904300000024,7.820313000000169,113.0771479999994,113.7177729999994,116.15380900000036,115.38476599999922,114.23095699999976,117.56396500000028,130.12841800000024,107.56396500000028,143.84619099999964,116.53857400000015
8,101.53857400000015,85.12841800000024,130.6411130000006,7.051269999999931,108.84619099999964,113.9741210000002,117.82031300000017,117.56396500000028,113.46142599999985,117.30761700000039,129.61523400000078,107.17968800000017,144.61523400000078,117.43603499999972
9,106.79492200000004,91.6665039999998,131.79492200000004,9.102539000000434,106.6665039999998,114.35888699999941,117.69238299999961,122.05126999999993,114.23095699999976,116.79492200000004,129.87158199999976,108.84619099999964,146.79492200000004,116.79492200000004
10,112.56396500000028,98.20507799999996,134.23095699999976,11.410155999999915,108.58984400000008,114.48730499999965,116.6665039999998,126.53857400000015,116.6665039999998,116.6665039999998,130.89746099999957,112.43603499999972,149.3588869999994,115.38476599999922
11,116.0258789999998,100.89746099999957,136.41015599999992,11.538574000000153,113.20507799999996,113.9741210000002,116.41015599999992,128.3334960000002,119.23095699999976,117.30761700000039,131.9228520000006,116.15380900000036,150.51269500000035,114.35888699999941
12,116.79492200000004,98.46142599999985,136.6665039999998,8.846190999999635,117.17968800000017,112.94873000000007,117.69238299999961,127.05126999999993,120.64111300000059,118.84619099999964,132.05126999999993,117.69238299999961,150.0,114.23095699999976
13,116.0258789999998,92.94873000000007,135.38476599999922,5.897460999999566,118.3334960000002,112.17968800000017,119.35888699999941,124.74365200000011,120.38476599999922,121.41015599999992,131.9228520000006,116.9228520000006,149.10253900000043,114.74365200000011
14,115.38476599999922,88.20507799999996,134.10253900000043,6.282227000000603,117.56396500000028,112.30761700000039,119.74365200000011,123.58984400000008,119.35888699999941,124.10253900000043,132.82031300000017,114.87158199999976,148.84619099999964,115.76904300000024
15,114.87158199999976,87.30761700000039,134.23095699999976,11.025878999999804,116.6665039999998,112.56396500000028,118.58984400000008,124.48730499999965,119.48730499999965,126.41015599999992,135.51269500000035,113.3334960000002,150.0,117.05126999999993
16,113.9741210000002,90.76904300000024,135.38476599999922,17.94873000000007,116.9228520000006,112.05126999999993,116.9228520000006,127.05126999999993,122.17968800000017,128.20507799999996,139.61523400000078,113.3334960000002,152.6923829999996,117.56396500000028
17,112.56396500000028,96.79492200000004,136.53857400000015,23.717772999999397,118.46142599999985,110.76904300000024,116.53857400000015,130.51269500000035,127.05126999999993,130.0,143.46142599999985,114.61523400000078,156.41015599999992,116.9228520000006
18,111.6665039999998,102.30761700000039,136.6665039999998,26.282227000000603,120.0,110.38476599999922,117.94873000000007,133.20507799999996,132.17968800000017,131.53857400000015,145.51269500000035,116.2822270000006,159.7436520000001,115.12841800000024
19,112.17968800000017,104.35888699999941,136.41015599999992,25.641113000000587,120.12841800000024,112.17968800000017,121.15380900000036,133.9741210000002,135.2563479999999,132.3076170000004,144.7436520000001,117.17968800000017,161.15380900000036,113.20507799999996
20,113.20507799999996,102.17968800000017,135.89746099999957,23.077147999999397,118.46142599999985,115.0,124.35888699999941,132.56396500000028,134.3588869999994,131.15380900000036,141.6665039999998,116.6665039999998,158.9741210000002,111.79492200000004
21,112.82031300000017,97.05126999999993,134.87158199999976,19.615234000000783,115.76904300000024,116.6665039999998,125.51269500000035,129.61523400000078,129.61523400000078,127.94873000000007,136.79492200000004,115.0,153.46142599999985,111.79492200000004
22,109.10253900000043,90.89746099999957,132.3076170000004,15.512695000000349,112.94873000000007,115.76904300000024,122.17968800000017,125.38476599999922,122.69238299999961,123.7177729999994,131.0258789999998,112.69238299999961,146.0258789999998,112.82031300000017
23,101.9228520000006,85.38476599999922,128.0771479999994,10.769043000000238,109.35888699999941,112.94873000000007,114.87158199999976,120.25634799999989,116.0258789999998,119.61523400000078,125.0,109.61523400000078,138.3334960000002,113.9741210000002
24,93.7177729999994,81.0258789999998,123.20507799999996,6.282227000000603,104.35888699999941,110.12841800000024,107.05126999999993,115.64111300000059,111.79492200000004,116.9228520000006,120.25634799999989,105.89746099999957,132.05126999999993,114.35888699999941
25,88.3334960000002,78.9741210000002,119.74365200000011,4.487304999999651,99.48730499999965,108.84619099999964,102.56396500000028,113.9741210000002,111.0258789999998,115.25634799999989,117.94873000000007,103.0771479999994,128.7177729999994,113.46142599999985
26,88.0771479999994,80.12841800000024,119.10253900000043,6.538574000000153,97.43603499999972,109.74365200000011,103.46142599999985,116.41015599999992,113.0771479999994,113.7177729999994,118.58984400000008,103.3334960000002,128.7177729999994,112.30761700000039
27,92.17968800000017,83.7177729999994,121.6665039999998,11.410155999999915,99.35888699999941,111.9228520000006,108.0771479999994,121.79492200000004,115.76904300000024,111.2822270000006,121.15380900000036,106.79492200000004,131.0258789999998,112.43603499999972
28,97.56396500000028,88.0771479999994,126.15380900000036,16.410155999999915,104.23095699999976,113.46142599999985,113.20507799999996,127.17968800000017,117.82031300000017,108.3334960000002,124.23095699999976,111.6665039999998,133.7177729999994,114.61523400000078
29,102.17968800000017,91.53857400000015,130.89746099999957,20.0,110.76904300000024,113.46142599999985,117.17968800000017,130.6411130000006,119.74365200000011,107.82031300000017,127.82031300000017,115.38476599999922,136.0258789999998,117.56396500000028
30,106.0258789999998,94.87158199999976,134.87158199999976,23.333496000000196,117.94873000000007,112.43603499999972,120.76904300000024,132.82031300000017,123.58984400000008,112.82031300000017,132.56396500000028,116.9228520000006,138.7177729999994,119.74365200000011
31,110.64111300000059,99.10253900000043,137.82031300000017,29.102539000000434,124.35888699999941,112.56396500000028,125.0,135.89746099999957,130.2563479999999,124.23095699999976,138.58984400000008,117.05126999999993,143.7177729999994,119.48730499999965
32,115.89746099999957,103.7177729999994,140.0,37.56396500000028,128.3334960000002,114.74365200000011,129.61523400000078,140.2563479999999,137.82031300000017,137.82031300000017,144.23095699999976,116.9228520000006,150.51269500000035,116.9228520000006
33,119.48730499999965,106.0258789999998,140.89746099999957,45.64111300000059,128.7177729999994,117.30761700000039,132.3076170000004,143.58984400000008,142.94873000000007,146.9228520000006,146.41015599999992,117.17968800000017,155.6411130000006,113.3334960000002
34,118.9741210000002,104.23095699999976,140.0,49.23095699999976,125.76904300000024,117.17968800000017,130.6411130000006,143.46142599999985,143.46142599999985,146.41015599999992,143.3334960000002,117.69238299999961,155.12841800000024,110.64111300000059
35,113.9741210000002,98.46142599999985,137.17968800000017,45.76904300000024,120.25634799999989,113.58984400000008,124.87158199999976,139.61523400000078,139.48730499999965,136.9228520000006,136.41015599999992,117.56396500000028,148.9741210000002,110.51269500000035
36,106.9228520000006,91.0258789999998,133.58984400000008,37.05126999999993,114.10253900000043,108.20507799999996,117.56396500000028,133.84619099999964,133.20507799999996,124.48730499999965,129.61523400000078,116.9228520000006,140.2563479999999,112.94873000000007
37,101.0258789999998,85.25634799999989,130.89746099999957,28.205077999999958,109.48730499999965,104.48730499999965,112.05126999999993,129.3588869999994,127.82031300000017,116.0258789999998,126.15380900000036,115.89746099999957,133.58984400000008,116.2822270000006
38,98.20507799999996,83.46142599999985,130.38476599999922,24.102539000000434,108.0771479999994,104.23095699999976,110.76904300000024,127.82031300000017,125.64111300000059,115.51269500000035,127.30761700000039,115.38476599999922,131.41015599999992,117.94873000000007
39,98.58984400000008,85.89746099999957,131.6665039999998,26.538574000000153,109.23095699999976,106.79492200000004,113.7177729999994,129.61523400000078,126.6665039999998,120.76904300000024,131.0258789999998,115.76904300000024,133.58984400000008,116.79492200000004
40,100.25634799999989,90.51269500000035,133.20507799999996,31.794922000000042,110.12841800000024,109.35888699999941,117.82031300000017,132.6923829999996,128.9741210000002,125.89746099999957,133.84619099999964,116.41015599999992,137.05126999999993,114.23095699999976
41,100.76904300000024,94.10253900000043,132.94873000000007,34.35888699999941,109.23095699999976,110.0,118.9741210000002,133.9741210000002,129.3588869999994,125.89746099999957,132.94873000000007,116.2822270000006,137.56396500000028,111.9228520000006
42,99.10253900000043,94.48730499999965,130.76904300000024,32.05126999999993,106.53857400000015,108.3334960000002,115.25634799999989,131.6665039999998,126.41015599999992,120.38476599999922,129.10253900000043,114.35888699999941,133.84619099999964,110.89746099999957
43,96.79492200000004,91.79492200000004,128.3334960000002,28.717772999999397,104.61523400000078,106.6665039999998,109.48730499999965,127.56396500000028,121.79492200000004,113.9741210000002,125.89746099999957,111.9228520000006,128.7177729999994,111.15380900000036
44,96.41015599999992,89.35888699999941,127.94873000000007,29.615234000000783,105.76904300000024,107.43603499999972,106.15380900000036,125.12841800000024,119.23095699999976,113.0771479999994,127.30761700000039,111.0258789999998,127.17968800000017,112.43603499999972
45,99.35888699999941,90.25634799999989,130.76904300000024,36.666503999999804,110.51269500000035,111.15380900000036,107.94873000000007,126.53857400000015,121.41015599999992,120.25634799999989,133.46142599999985,112.82031300000017,132.43603499999972,114.10253900000043
46,104.10253900000043,95.25634799999989,135.0,46.025878999999804,117.17968800000017,116.2822270000006,112.94873000000007,130.38476599999922,127.69238299999961,131.53857400000015,141.41015599999992,116.6665039999998,142.17968800000017,115.51269500000035
47,107.17968800000017,101.9228520000006,137.6923829999996,51.410155999999915,122.94873000000007,119.48730499999965,117.56396500000028,133.20507799999996,133.7177729999994,139.23095699999976,146.6665039999998,120.0,150.12841800000024,116.53857400000015
48,105.38476599999922,106.0258789999998,136.2822270000006,48.846190999999635,124.74365200000011,118.46142599999985,118.7177729999994,132.56396500000028,135.2563479999999,137.6923829999996,146.2822270000006,120.12841800000024,150.12841800000024,117.56396500000028
49,98.58984400000008,103.9741210000002,131.0258789999998,39.61523400000078,120.89746099999957,113.7177729999994,115.89746099999957,127.94873000000007,130.76904300000024,127.17968800000017,140.38476599999922,115.89746099999957,140.76904300000024,118.3334960000002
50,90.89746099999957,95.76904300000024,124.61523400000078,29.871581999999762,111.6665039999998,108.3334960000002,111.15380900000036,121.2822270000006,122.94873000000007,114.61523400000078,131.6665039999998,108.7177729999994,127.05126999999993,118.0771479999994
51,87.17968800000017,85.25634799999989,120.25634799999989,26.410155999999915,100.64111300000059,106.15380900000036,107.94873000000007,115.64111300000059,115.89746099999957,108.0771479999994,125.12841800000024,102.05126999999993,117.05126999999993,116.53857400000015
52,89.87158199999976,78.7177729999994,120.25634799999989,31.794922000000042,93.3334960000002,108.3334960000002,108.46142599999985,113.3334960000002,113.46142599999985,111.9228520000006,124.61523400000078,99.35888699999941,116.41015599999992,114.48730499999965
53,97.43603499999972,80.89746099999957,124.10253900000043,43.46142599999985,94.48730499999965,113.3334960000002,112.69238299999961,115.25634799999989,116.41015599999992,123.3334960000002,130.12841800000024,101.6665039999998,124.48730499999965,113.84619099999964
54,104.74365200000011,90.76904300000024,128.7177729999994,55.0,103.46142599999985,117.56396500000028,117.43603499999972,119.61523400000078,122.05126999999993,134.87158199999976,137.05126999999993,106.41015599999992,134.7436520000001,115.51269500000035
55,105.38476599999922,100.76904300000024,129.48730499999965,59.61523400000078,113.46142599999985,119.10253900000043,118.46142599999985,122.69238299999961,125.25634799999989,138.7177729999994,138.58984400000008,109.10253900000043,139.10253900000043,118.58984400000008
56,97.05126999999993,102.82031300000017,124.61523400000078,54.87158199999976,117.05126999999993,117.43603499999972,114.35888699999941,121.41015599999992,122.82031300000017,132.17968800000017,131.53857400000015,107.05126999999993,133.7177729999994,120.76904300000024
57,84.10253900000043,95.64111300000059,117.05126999999993,44.102539000000434,112.05126999999993,114.23095699999976,108.20507799999996,116.41015599999992,116.0258789999998,119.61523400000078,120.38476599999922,101.79492200000004,122.56396500000028,120.38476599999922
58,75.38476599999922,85.38476599999922,112.17968800000017,35.0,103.0771479999994,111.53857400000015,105.25634799999989,111.79492200000004,110.25634799999989,109.35888699999941,113.20507799999996,97.82031300000017,113.9741210000002,117.69238299999961
59,77.56396500000028,80.25634799999989,113.58984400000008,33.333496000000196,97.56396500000028,111.15380900000036,109.10253900000043,112.05126999999993,111.15380900000036,108.58984400000008,116.41015599999992,98.9741210000002,114.74365200000011,114.10253900000043
60,90.0,84.35888699999941,120.25634799999989,39.87158199999976,100.89746099999957,113.3334960000002,118.0771479999994,118.46142599999985,119.61523400000078,117.69238299999961,128.20507799999996,104.74365200000011,124.10253900000043,112.05126999999993
61,104.74365200000011,94.48730499999965,127.69238299999961,50.51269500000035,111.6665039999998,116.41015599999992,126.79492200000004,127.56396500000028,131.15380900000036,130.51269500000035,141.2822270000006,111.53857400000015,134.61523400000078,111.9228520000006
62,112.17968800000017,103.58984400000008,131.0258789999998,59.61523400000078,122.43603499999972,118.0771479999994,129.7436520000001,133.9741210000002,138.7177729999994,138.7177729999994,147.6923829999996,114.74365200000011,138.0771479999994,112.69238299999961
63,108.3334960000002,105.89746099999957,127.69238299999961,62.82031300000017,124.74365200000011,117.17968800000017,124.74365200000011,133.7177729999994,137.56396500000028,137.56396500000028,143.84619099999964,112.05126999999993,131.41015599999992,113.58984400000008
64,96.9228520000006,101.15380900000036,119.74365200000011,59.102539000000434,116.2822270000006,115.12841800000024,114.10253900000043,127.43603499999972,128.7177729999994,128.46142599999985,133.3334960000002,104.74365200000011,118.46142599999985,114.48730499999965
65,86.2822270000006,94.35888699999941,112.56396500000028,51.79492200000004,103.7177729999994,113.46142599999985,103.9741210000002,119.48730499999965,118.3334960000002,118.20507799999996,123.84619099999964,97.94873000000007,107.69238299999961,115.51269500000035
66,83.9741210000002,91.41015599999992,111.2822270000006,46.666503999999804,96.41015599999992,112.56396500000028,100.12841800000024,115.38476599999922,114.10253900000043,113.7177729999994,122.69238299999961,96.2822270000006,106.41015599999992,116.41015599999992
67,91.0258789999998,94.74365200000011,117.05126999999993,47.69238299999961,98.9741210000002,112.94873000000007,103.84619099999964,117.82031300000017,118.7177729999994,117.69238299999961,131.79492200000004,100.76904300000024,115.76904300000024,116.79492200000004
68,102.05126999999993,100.89746099999957,125.64111300000059,53.974121000000196,108.20507799999996,114.35888699999941,111.6665039999998,124.74365200000011,128.46142599999985,127.05126999999993,145.38476599999922,107.56396500000028,129.7436520000001,116.41015599999992
69,108.9741210000002,104.61523400000078,131.0258789999998,60.64111300000059,117.17968800000017,116.41015599999992,117.69238299999961,130.89746099999957,136.15380900000036,136.0258789999998,154.48730499999965,111.79492200000004,139.23095699999976,115.76904300000024
70,107.43603499999972,103.7177729999994,130.12841800000024,64.10253900000043,121.9228520000006,118.0771479999994,119.35888699999941,132.56396500000028,137.17968800000017,140.38476599999922,154.3588869999994,111.41015599999992,139.23095699999976,115.76904300000024
71,101.0258789999998,102.05126999999993,125.25634799999989,65.25634799999989,123.58984400000008,118.3334960000002,118.84619099999964,130.38476599999922,133.46142599999985,140.0,148.0771479999994,108.46142599999985,132.43603499999972,116.6665039999998
72,97.43603499999972,105.0,121.79492200000004,66.6665039999998,125.25634799999989,117.17968800000017,120.0,128.9741210000002,130.89746099999957,137.17968800000017,143.46142599999985,106.6665039999998,127.30761700000039,117.30761700000039
73,101.53857400000015,113.84619099999964,123.46142599999985,69.35888699999941,127.94873000000007,115.89746099999957,124.10253900000043,131.53857400000015,133.58984400000008,134.7436520000001,145.51269500000035,108.20507799999996,129.61523400000078,116.79492200000004
74,110.38476599999922,123.58984400000008,128.7177729999994,71.2822270000006,129.10253900000043,115.76904300000024,128.3334960000002,136.79492200000004,139.7436520000001,133.58984400000008,152.56396500000028,111.9228520000006,138.58984400000008,115.25634799999989
75,116.53857400000015,127.94873000000007,132.94873000000007,70.25634799999989,126.15380900000036,117.05126999999993,128.20507799999996,139.61523400000078,144.23095699999976,132.94873000000007,158.84619099999964,114.61523400000078,147.56396500000028,113.0771479999994
76,115.25634799999989,125.0,132.82031300000017,66.2822270000006,120.38476599999922,118.3334960000002,122.69238299999961,136.2822270000006,142.94873000000007,132.3076170000004,159.48730499999965,114.48730499999965,150.76904300000024,111.2822270000006
77,108.46142599999985,118.0771479999994,129.48730499999965,61.9228520000006,116.0258789999998,118.0771479999994,115.0,127.82031300000017,136.79492200000004,131.79492200000004,154.61523400000078,112.56396500000028,147.05126999999993,110.76904300000024
78,102.43603499999972,112.17968800000017,126.15380900000036,60.25634799999989,116.79492200000004,115.51269500000035,110.38476599999922,119.61523400000078,130.2563479999999,131.53857400000015,147.94873000000007,111.0258789999998,140.12841800000024,112.17968800000017
79,101.41015599999992,110.12841800000024,124.87158199999976,61.9228520000006,122.05126999999993,111.41015599999992,110.89746099999957,116.0258789999998,126.6665039999998,131.2822270000006,142.94873000000007,111.41015599999992,135.12841800000024,114.48730499999965
80,105.51269500000035,111.6665039999998,125.89746099999957,65.76904300000024,128.3334960000002,108.20507799999996,114.48730499999965,117.43603499999972,127.17968800000017,130.6411130000006,141.6665039999998,113.7177729999994,135.6411130000006,115.51269500000035
81,111.79492200000004,115.76904300000024,128.0771479999994,70.38476599999922,131.79492200000004,108.20507799999996,117.82031300000017,121.15380900000036,130.2563479999999,129.48730499999965,144.48730499999965,116.6665039999998,141.15380900000036,114.35888699999941
82,117.56396500000028,121.2822270000006,130.38476599999922,74.48730499999965,131.6665039999998,111.41015599999992,118.58984400000008,123.9741210000002,134.10253900000043,128.84619099999964,149.7436520000001,118.84619099999964,148.20507799999996,112.30761700000039
83,121.15380900000036,126.2822270000006,131.79492200000004,76.6665039999998,129.7436520000001,116.0258789999998,117.05126999999993,123.9741210000002,136.2822270000006,128.9741210000002,154.23095699999976,119.35888699999941,152.3076170000004,111.0258789999998
84,121.53857400000015,128.0771479999994,132.3076170000004,75.51269500000035,128.3334960000002,119.10253900000043,114.87158199999976,120.89746099999957,134.48730499999965,127.43603499999972,154.7436520000001,117.94873000000007,150.12841800000024,111.6665039999998
85,118.46142599999985,125.25634799999989,131.6665039999998,71.41015599999992,127.69238299999961,119.23095699999976,113.3334960000002,115.89746099999957,127.43603499999972,121.6665039999998,149.87158199999976,115.64111300000059,141.53857400000015,113.20507799999996
86,114.23095699999976,119.10253900000043,130.12841800000024,66.6665039999998,125.76904300000024,117.17968800000017,112.94873000000007,111.6665039999998,118.0771479999994,112.43603499999972,141.9228520000006,113.7177729999994,130.89746099999957,114.35888699999941
87,112.30761700000039,114.10253900000043,128.46142599999985,64.87158199999976,121.6665039999998,115.51269500000035,113.46142599999985,111.0258789999998,111.9228520000006,104.74365200000011,135.6411130000006,112.69238299999961,124.61523400000078,114.23095699999976
88,115.38476599999922,114.48730499999965,127.82031300000017,68.0771479999994,116.6665039999998,115.51269500000035,114.48730499999965,115.51269500000035,113.7177729999994,104.35888699999941,134.61523400000078,112.94873000000007,126.6665039999998,113.0771479999994
89,122.69238299999961,120.64111300000059,129.3588869999994,75.38476599999922,114.61523400000078,117.05126999999993,116.15380900000036,123.0771479999994,122.69238299999961,112.94873000000007,139.61523400000078,114.35888699999941,135.2563479999999,111.79492200000004
90,130.12841800000024,128.84619099999964,133.0771479999994,83.20507799999996,117.94873000000007,118.46142599999985,118.0771479999994,129.7436520000001,132.94873000000007,126.15380900000036,147.6923829999996,116.79492200000004,144.7436520000001,112.05126999999993
91,133.7177729999994,134.10253900000043,137.05126999999993,88.3334960000002,125.64111300000059,118.58984400000008,119.10253900000043,131.6665039999998,137.3076170000004,135.89746099999957,154.7436520000001,118.7177729999994,149.23095699999976,113.9741210000002
92,131.0258789999998,132.6923829999996,138.3334960000002,88.84619099999964,132.82031300000017,117.17968800000017,118.20507799999996,127.69238299999961,132.94873000000007,136.0258789999998,156.6665039999998,118.84619099999964,146.53857400000015,116.79492200000004
93,124.10253900000043,125.12841800000024,135.2563479999999,85.64111300000059,134.3588869999994,115.38476599999922,115.25634799999989,120.0,123.20507799999996,126.41015599999992,153.0771479999994,117.17968800000017,138.9741210000002,118.58984400000008
94,117.17968800000017,115.64111300000059,129.87158199999976,82.30761700000039,128.9741210000002,114.35888699999941,112.17968800000017,113.46142599999985,115.38476599999922,113.3334960000002,146.79492200000004,115.38476599999922,130.76904300000024,118.20507799999996
95,115.64111300000059,110.12841800000024,126.41015599999992,82.30761700000039,120.25634799999989,114.61523400000078,111.0258789999998,112.43603499999972,115.0,105.38476599999922,142.6923829999996,114.87158199999976,126.79492200000004,115.51269500000035
96,120.89746099999957,111.9228520000006,127.82031300000017,86.53857400000015,114.10253900000043,115.51269500000035,112.43603499999972,118.20507799999996,122.30761700000039,108.46142599999985,143.3334960000002,115.89746099999957,128.3334960000002,111.53857400000015
97,129.3588869999994,118.84619099999964,132.43603499999972,92.17968800000017,113.7177729999994,116.41015599999992,115.25634799999989,127.94873000000007,132.43603499999972,121.2822270000006,147.3076170000004,117.43603499999972,133.7177729999994,108.46142599999985
98,134.7436520000001,125.0,135.2563479999999,94.61523400000078,117.17968800000017,116.6665039999998,117.43603499999972,135.76904300000024,139.10253900000043,136.53857400000015,151.0258789999998,118.46142599999985,137.94873000000007,107.94873000000007
99,132.82031300000017,124.87158199999976,132.6923829999996,91.53857400000015,120.12841800000024,116.53857400000015,117.17968800000017,137.3076170000004,138.84619099999964,144.7436520000001,151.41015599999992,118.20507799999996,137.43603499999972,110.25634799999989
100,124.74365200000011,118.58984400000008,125.76904300000024,84.87158199999976,119.10253900000043,116.15380900000036,114.35888699999941,132.56396500000028,133.0771479999994,140.89746099999957,148.7177729999994,116.79492200000004,132.17968800000017,113.9741210000002
101,115.89746099999957,111.2822270000006,118.58984400000008,80.12841800000024,115.38476599999922,115.76904300000024,110.64111300000059,125.51269500000035,126.41015599999992,128.58984400000008,145.76904300000024,115.0,126.53857400000015,116.79492200000004
102,111.9228520000006,109.87158199999976,116.2822270000006,81.53857400000015,113.46142599999985,115.76904300000024,109.10253900000043,121.9228520000006,124.48730499999965,117.56396500000028,145.2563479999999,113.9741210000002,125.51269500000035,117.69238299999961
103,115.12841800000024,117.30761700000039,121.15380900000036,88.7177729999994,117.05126999999993,116.2822270000006,111.53857400000015,124.61523400000078,128.84619099999964,117.05126999999993,147.82031300000017,115.0,130.6411130000006,116.6665039999998
104,123.0771479999994,129.61523400000078,130.38476599999922,97.17968800000017,126.15380900000036,117.43603499999972,116.9228520000006,131.41015599999992,137.17968800000017,128.0771479999994,151.79492200000004,117.69238299999961,139.10253900000043,114.61523400000078
105,130.2563479999999,138.20507799999996,137.6923829999996,101.53857400000015,135.2563479999999,118.3334960000002,121.79492200000004,137.17968800000017,143.9741210000002,142.6923829999996,154.10253900000043,120.51269500000035,145.6411130000006,112.56396500000028
106,132.3076170000004,136.15380900000036,138.0771479999994,98.9741210000002,138.3334960000002,118.3334960000002,122.82031300000017,137.56396500000028,145.2563479999999,150.12841800000024,152.56396500000028,121.2822270000006,146.15380900000036,111.2822270000006
107,128.0771479999994,123.20507799999996,131.53857400000015,90.64111300000059,132.94873000000007,117.43603499999972,118.9741210000002,132.17968800000017,140.0,145.12841800000024,147.56396500000028,119.74365200000011,140.6411130000006,111.15380900000036
108,121.2822270000006,106.53857400000015,123.3334960000002,81.41015599999992,122.69238299999961,116.0258789999998,112.30761700000039,123.58984400000008,131.41015599999992,131.2822270000006,142.43603499999972,116.79492200000004,133.46142599999985,112.30761700000039
109,116.53857400000015,96.2822270000006,118.84619099999964,76.41015599999992,114.10253900000043,114.61523400000078,107.17968800000017,116.15380900000036,124.48730499999965,118.7177729999994,140.6411130000006,114.74365200000011,129.3588869999994,113.84619099999964
110,116.6665039999998,97.94873000000007,119.61523400000078,78.3334960000002,111.6665039999998,113.9741210000002,106.0258789999998,113.20507799999996,122.69238299999961,115.12841800000024,142.94873000000007,114.87158199999976,130.0,115.12841800000024
111,119.35888699999941,107.69238299999961,122.94873000000007,84.87158199999976,113.9741210000002,114.23095699999976,108.46142599999985,114.74365200000011,125.38476599999922,119.61523400000078,145.89746099999957,116.6665039999998,132.17968800000017,115.51269500000035
112,121.0258789999998,116.6665039999998,124.61523400000078,91.15380900000036,117.05126999999993,115.25634799999989,111.6665039999998,117.94873000000007,128.58984400000008,124.87158199999976,145.38476599999922,118.46142599999985,131.79492200000004,115.38476599999922
113,119.87158199999976,118.9741210000002,123.20507799999996,94.35888699999941,118.0771479999994,116.0258789999998,113.0771479999994,120.25634799999989,129.87158199999976,124.74365200000011,141.41015599999992,118.3334960000002,128.58984400000008,114.48730499999965
114,118.9741210000002,116.6665039999998,121.41015599999992,95.38476599999922,118.9741210000002,116.53857400000015,113.46142599999985,122.30761700000039,130.2563479999999,120.89746099999957,138.0771479999994,116.41015599999992,126.15380900000036,113.20507799999996
115,121.79492200000004,115.64111300000059,122.56396500000028,97.69238299999961,123.20507799999996,117.17968800000017,115.25634799999989,126.15380900000036,132.6923829999996,120.38476599999922,139.48730499999965,114.87158199999976,127.56396500000028,111.9228520000006
116,127.43603499999972,118.7177729999994,127.43603499999972,102.17968800000017,131.2822270000006,118.20507799999996,119.74365200000011,132.3076170000004,138.0771479999994,127.56396500000028,144.87158199999976,115.51269500000035,131.15380900000036,111.53857400000015
117,130.51269500000035,122.94873000000007,132.3076170000004,105.76904300000024,138.84619099999964,119.48730499999965,124.48730499999965,137.56396500000028,143.20507799999996,138.3334960000002,148.84619099999964,117.94873000000007,131.0258789999998,112.43603499999972
118,125.64111300000059,122.94873000000007,131.9228520000006,104.74365200000011,140.2563479999999,120.0,125.12841800000024,137.6923829999996,142.6923829999996,142.94873000000007,145.51269500000035,119.23095699999976,123.20507799999996,113.84619099999964
119,112.82031300000017,117.30761700000039,124.87158199999976,98.0771479999994,133.3334960000002,119.10253900000043,120.0,131.2822270000006,134.3588869999994,135.76904300000024,134.87158199999976,116.79492200000004,110.0,114.87158199999976
120,99.35888699999941,110.12841800000024,115.51269500000035,89.61523400000078,121.6665039999998,117.17968800000017,111.9228520000006,121.2822270000006,122.05126999999993,120.25634799999989,122.82031300000017,111.9228520000006,100.64111300000059,115.12841800000024
121,94.61523400000078,107.43603499999972,110.51269500000035,84.35888699999941,111.79492200000004,115.25634799999989,106.15380900000036,113.84619099999964,112.82031300000017,107.05126999999993,117.30761700000039,107.69238299999961,103.20507799999996,114.74365200000011
122,102.43603499999972,110.25634799999989,113.0771479999994,83.84619099999964,108.9741210000002,114.23095699999976,105.76904300000024,112.30761700000039,111.0258789999998,104.10253900000043,121.9228520000006,106.79492200000004,117.94873000000007,114.48730499999965
123,117.43603499999972,113.7177729999994,120.38476599999922,85.51269500000035,112.69238299999961,113.84619099999964,109.23095699999976,115.76904300000024,115.12841800000024,111.0258789999998,133.84619099999964,109.35888699999941,136.6665039999998,114.74365200000011
124,129.7436520000001,112.56396500000028,126.9228520000006,86.15380900000036,118.20507799999996,113.84619099999964,112.56396500000028,119.74365200000011,119.48730499999965,120.76904300000024,145.51269500000035,113.3334960000002,149.48730499999965,115.51269500000035
125,133.58984400000008,107.05126999999993,128.9741210000002,85.76904300000024,121.15380900000036,113.7177729999994,113.20507799999996,121.2822270000006,121.15380900000036,126.41015599999992,151.53857400000015,116.79492200000004,152.94873000000007,115.89746099999957
126,131.0258789999998,103.20507799999996,127.69238299999961,87.17968800000017,120.25634799999989,113.7177729999994,112.43603499999972,121.15380900000036,120.89746099999957,126.6665039999998,151.79492200000004,118.84619099999964,150.51269500000035,115.38476599999922
127,127.82031300000017,105.51269500000035,126.0258789999998,91.41015599999992,116.79492200000004,113.9741210000002,112.17968800000017,121.15380900000036,121.15380900000036,123.58984400000008,149.23095699999976,119.23095699999976,148.0771479999994,113.9741210000002
128,126.9228520000006,111.53857400000015,125.12841800000024,95.89746099999957,111.0258789999998,114.35888699999941,112.30761700000039,121.41015599999992,120.76904300000024,119.10253900000043,145.51269500000035,117.56396500000028,147.05126999999993,112.94873000000007
129,125.64111300000059,114.23095699999976,123.46142599999985,96.2822270000006,103.58984400000008,114.74365200000011,110.64111300000059,119.87158199999976,117.43603499999972,112.82031300000017,139.7436520000001,113.84619099999964,144.48730499999965,113.20507799999996
130,121.9228520000006,109.87158199999976,119.74365200000011,91.53857400000015,96.9228520000006,115.0,105.89746099999957,115.25634799999989,110.51269500000035,105.76904300000024,132.17968800000017,109.35888699999941,138.0771479999994,114.87158199999976
131,118.20507799999996,102.69238299999961,115.89746099999957,86.53857400000015,95.89746099999957,115.25634799999989,100.0,110.0,104.10253900000043,101.79492200000004,126.41015599999992,106.41015599999992,130.12841800000024,117.30761700000039
132,119.74365200000011,101.2822270000006,116.0258789999998,87.69238299999961,103.20507799999996,116.0258789999998,97.69238299999961,108.0771479999994,103.84619099999964,105.25634799999989,127.05126999999993,107.17968800000017,127.56396500000028,119.87158199999976
133,128.7177729999994,110.0,122.43603499999972,97.69238299999961,117.05126999999993,117.17968800000017,102.56396500000028,112.30761700000039,111.6665039999998,116.53857400000015,134.7436520000001,111.6665039999998,133.9741210000002,121.53857400000015
134,141.0258789999998,124.61523400000078,132.82031300000017,111.9228520000006,130.38476599999922,118.20507799999996,113.3334960000002,121.15380900000036,123.7177729999994,130.2563479999999,145.0,118.0771479999994,145.51269500000035,121.41015599999992
135,149.61523400000078,136.0258789999998,141.0258789999998,121.6665039999998,136.9228520000006,118.46142599999985,123.3334960000002,129.3588869999994,132.82031300000017,138.58984400000008,151.41015599999992,122.94873000000007,154.23095699999976,119.35888699999941
136,150.0,137.82031300000017,142.17968800000017,121.0258789999998,134.10253900000043,117.43603499999972,125.89746099999957,131.2822270000006,133.7177729999994,137.05126999999993,150.89746099999957,124.23095699999976,154.3588869999994,116.2822270000006
137,142.82031300000017,130.2563479999999,135.76904300000024,111.2822270000006,124.74365200000011,116.0258789999998,119.10253900000043,124.74365200000011,126.6665039999998,127.30761700000039,144.48730499999965,121.41015599999992,146.79492200000004,113.9741210000002
138,132.94873000000007,119.10253900000043,125.51269500000035,98.84619099999964,114.48730499999965,114.87158199999976,107.94873000000007,113.0771479999994,116.2822270000006,116.0258789999998,135.6411130000006,116.79492200000004,136.9228520000006,113.84619099999964
139,125.0,110.12841800000024,117.30761700000039,91.15380900000036,107.69238299999961,114.87158199999976,99.74365200000011,102.56396500000028,107.82031300000017,108.84619099999964,127.69238299999961,113.0771479999994,130.0,116.0258789999998
140,121.53857400000015,106.0258789999998,113.84619099999964,91.0258789999998,105.25634799999989,115.64111300000059,98.9741210000002,97.82031300000017,103.7177729999994,106.79492200000004,122.30761700000039,112.05126999999993,127.82031300000017,119.10253900000043
141,121.79492200000004,105.64111300000059,114.48730499999965,96.53857400000015,105.0,116.15380900000036,104.61523400000078,99.87158199999976,102.82031300000017,106.15380900000036,119.48730499999965,113.20507799999996,128.58984400000008,121.0258789999998
142,123.0771479999994,105.76904300000024,116.15380900000036,103.20507799999996,105.12841800000024,115.76904300000024,111.41015599999992,105.76904300000024,103.20507799999996,104.10253900000043,119.48730499999965,114.35888699999941,129.61523400000078,120.38476599999922
143,123.7177729999994,105.38476599999922,117.69238299999961,107.82031300000017,106.15380900000036,114.74365200000011,115.12841800000024,111.6665039999998,104.23095699999976,101.53857400000015,121.9228520000006,114.48730499999965,129.3588869999994,117.30761700000039
144,124.74365200000011,106.41015599999992,120.12841800000024,110.64111300000059,110.38476599999922,113.84619099999964,115.89746099999957,115.89746099999957,107.17968800000017,102.56396500000028,126.79492200000004,114.10253900000043,128.9741210000002,113.7177729999994
145,128.20507799999996,111.15380900000036,124.35888699999941,113.3334960000002,118.3334960000002,113.9741210000002,116.79492200000004,118.7177729999994,113.0771479999994,110.25634799999989,133.0771479999994,115.0,130.51269500000035,112.43603499999972
146,132.82031300000017,118.3334960000002,129.10253900000043,116.41015599999992,126.6665039999998,114.87158199999976,120.0,120.89746099999957,120.64111300000059,121.6665039999998,138.84619099999964,117.56396500000028,134.48730499999965,113.9741210000002
147,134.61523400000078,122.94873000000007,130.76904300000024,117.82031300000017,130.0,115.51269500000035,123.20507799999996,122.05126999999993,125.51269500000035,130.2563479999999,141.0258789999998,120.0,138.0771479999994,116.9228520000006
148,130.38476599999922,120.12841800000024,126.53857400000015,115.51269500000035,125.51269500000035,115.38476599999922,122.43603499999972,120.76904300000024,123.9741210000002,130.76904300000024,137.6923829999996,119.87158199999976,137.94873000000007,118.58984400000008
149,122.43603499999972,111.15380900000036,118.20507799999996,111.0258789999998,116.2822270000006,114.74365200000011,116.6665039999998,116.79492200000004,117.05126999999993,123.9741210000002,130.51269500000035,116.53857400000015,133.0771479999994,118.20507799999996
150,117.17968800000017,102.17968800000017,111.2822270000006,108.7177729999994,108.9741210000002,114.48730499999965,109.48730499999965,112.43603499999972,110.64111300000059,116.0258789999998,124.48730499999965,112.43603499999972,127.05126999999993,116.53857400000015
151,118.9741210000002,100.0,111.2822270000006,111.41015599999992,109.35888699999941,115.12841800000024,106.9228520000006,111.2822270000006,111.0258789999998,113.84619099999964,124.35888699999941,111.41015599999992,125.25634799999989,114.87158199999976
152,127.56396500000028,106.79492200000004,119.10253900000043,118.0771479999994,117.30761700000039,116.2822270000006,111.53857400000015,115.76904300000024,119.61523400000078,119.87158199999976,131.41015599999992,115.76904300000024,130.89746099999957,113.84619099999964
153,137.82031300000017,118.7177729999994,130.2563479999999,124.74365200000011,127.56396500000028,117.17968800000017,120.89746099999957,124.35888699999941,132.05126999999993,130.89746099999957,142.17968800000017,123.58984400000008,141.15380900000036,113.3334960000002
154,144.61523400000078,129.23095699999976,138.46142599999985,128.84619099999964,133.46142599999985,117.30761700000039,128.9741210000002,132.82031300000017,141.6665039999998,140.76904300000024,151.53857400000015,130.76904300000024,150.2563479999999,113.20507799999996
155,145.12841800000024,132.05126999999993,139.3588869999994,128.84619099999964,130.89746099999957,116.9228520000006,131.0258789999998,136.2822270000006,142.94873000000007,143.7177729999994,155.2563479999999,132.56396500000028,152.56396500000028,113.46142599999985
156,139.10253900000043,125.25634799999989,133.3334960000002,124.61523400000078,120.12841800000024,116.2822270000006,126.2822270000006,132.6923829999996,135.12841800000024,137.56396500000028,151.79492200000004,127.94873000000007,146.9228520000006,113.9741210000002
157,129.23095699999976,112.30761700000039,124.35888699999941,116.6665039999998,105.64111300000059,115.64111300000059,117.82031300000017,123.84619099999964,121.79492200000004,124.10253900000043,142.3076170000004,119.74365200000011,136.41015599999992,114.61523400000078
158,120.25634799999989,101.2822270000006,117.82031300000017,107.94873000000007,94.87158199999976,115.12841800000024,110.51269500000035,114.48730499999965,109.23095699999976,109.10253900000043,131.15380900000036,113.20507799999996,126.6665039999998,115.38476599999922
159,117.17968800000017,99.87158199999976,117.17968800000017,104.10253900000043,94.61523400000078,114.74365200000011,108.3334960000002,110.12841800000024,103.7177729999994,100.0,124.48730499999965,111.9228520000006,123.0771479999994,115.51269500000035
160,121.79492200000004,109.61523400000078,122.43603499999972,108.9741210000002,106.15380900000036,114.87158199999976,112.17968800000017,112.30761700000039,107.69238299999961,101.53857400000015,126.0258789999998,115.76904300000024,127.30761700000039,114.48730499999965
161,130.2563479999999,123.58984400000008,129.87158199999976,120.89746099999957,122.17968800000017,115.76904300000024,118.3334960000002,118.58984400000008,117.30761700000039,112.94873000000007,134.23095699999976,120.76904300000024,135.76904300000024,112.82031300000017
162,136.0258789999998,131.6665039999998,135.12841800000024,132.43603499999972,132.17968800000017,117.69238299999961,121.53857400000015,124.23095699999976,125.12841800000024,127.05126999999993,143.0771479999994,123.3334960000002,142.05126999999993,112.43603499999972
163,134.3588869999994,128.0771479999994,135.6411130000006,135.6411130000006,129.10253900000043,119.61523400000078,118.7177729999994,124.87158199999976,125.38476599999922,135.51269500000035,146.2822270000006,122.05126999999993,141.2822270000006,113.9741210000002
164,125.38476599999922,115.51269500000035,131.41015599999992,128.84619099999964,115.25634799999989,120.0,111.2822270000006,119.74365200000011,118.0771479999994,133.46142599999985,141.79492200000004,118.46142599999985,134.23095699999976,116.53857400000015
165,114.10253900000043,103.46142599999985,125.64111300000059,117.43603499999972,100.51269500000035,118.3334960000002,103.3334960000002,112.17968800000017,108.20507799999996,122.94873000000007,132.56396500000028,115.25634799999989,126.53857400000015,118.0771479999994
166,106.9228520000006,101.0258789999998,122.43603499999972,110.0,95.64111300000059,115.89746099999957,99.61523400000078,107.05126999999993,102.82031300000017,111.2822270000006,125.25634799999989,114.23095699999976,124.10253900000043,117.69238299999961
167,108.46142599999985,111.53857400000015,124.48730499999965,112.94873000000007,105.25634799999989,115.25634799999989,102.05126999999993,108.58984400000008,106.41015599999992,107.43603499999972,125.25634799999989,115.51269500000035,129.61523400000078,116.2822270000006
168,119.10253900000043,130.6411130000006,131.15380900000036,126.15380900000036,124.23095699999976,117.17968800000017,110.38476599999922,117.30761700000039,118.58984400000008,115.51269500000035,133.9741210000002,117.82031300000017,140.6411130000006,115.25634799999989
169,133.7177729999994,148.58984400000008,138.58984400000008,143.0771479999994,140.76904300000024,119.10253900000043,120.76904300000024,129.10253900000043,134.10253900000043,131.53857400000015,146.2822270000006,120.0,151.41015599999992,115.0
170,142.6923829999996,154.23095699999976,141.15380900000036,152.94873000000007,143.0771479999994,118.46142599999985,127.30761700000039,136.79492200000004,144.3588869999994,144.61523400000078,153.0771479999994,120.64111300000059,154.61523400000078,115.0
171,138.84619099999964,142.43603499999972,135.6411130000006,147.56396500000028,127.56396500000028,114.74365200000011,125.12841800000024,135.0,142.56396500000028,144.48730499999965,147.3076170000004,119.10253900000043,146.0258789999998,114.61523400000078
172,123.9741210000002,118.84619099999964,123.7177729999994,129.3588869999994,103.7177729999994,110.25634799999989,115.12841800000024,124.61523400000078,129.3588869999994,129.87158199999976,130.12841800000024,115.25634799999989,128.20507799999996,114.10253900000043
173,107.82031300000017,97.69238299999961,112.82031300000017,110.38476599999922,87.56396500000028,107.56396500000028,105.0,113.46142599999985,113.9741210000002,111.2822270000006,112.30761700000039,111.6665039999998,111.6665039999998,113.46142599999985
174,101.9228520000006,91.9228520000006,110.89746099999957,104.35888699999941,90.12841800000024,107.94873000000007,103.0771479999994,110.51269500000035,108.3334960000002,102.56396500000028,106.53857400000015,111.15380900000036,107.69238299999961,113.3334960000002
175,109.74365200000011,103.46142599999985,119.74365200000011,115.64111300000059,108.7177729999994,110.76904300000024,111.9228520000006,118.7177729999994,117.17968800000017,110.89746099999957,117.17968800000017,114.74365200000011,120.0,113.7177729999994
176,125.0,122.94873000000007,133.0771479999994,135.12841800000024,128.9741210000002,113.9741210000002,125.38476599999922,132.17968800000017,134.7436520000001,130.89746099999957,136.6665039999998,120.0,140.12841800000024,114.10253900000043
177,137.3076170000004,137.17968800000017,141.0258789999998,149.10253900000043,136.0258789999998,115.12841800000024,133.58984400000008,140.89746099999957,149.48730499999965,149.7436520000001,151.41015599999992,122.94873000000007,154.87158199999976,113.7177729999994
178,138.9741210000002,138.3334960000002,138.3334960000002,148.84619099999964,126.15380900000036,113.3334960000002,131.0258789999998,138.58984400000008,152.6923829999996,155.6411130000006,152.05126999999993,121.9228520000006,155.12841800000024,112.43603499999972
179,130.0,128.0771479999994,127.30761700000039,136.6665039999998,107.82031300000017,109.61523400000078,120.12841800000024,127.30761700000039,143.0771479999994,145.51269500000035,138.84619099999964,117.94873000000007,142.3076170000004,111.2822270000006
180,116.53857400000015,114.10253900000043,115.64111300000059,121.9228520000006,94.48730499999965,106.41015599999992,107.69238299999961,114.74365200000011,126.6665039999998,125.76904300000024,120.25634799999989,113.84619099999964,125.76904300000024,111.0258789999998
181,106.41015599999992,104.61523400000078,110.51269500000035,114.48730499999965,93.7177729999994,105.51269500000035,100.51269500000035,108.3334960000002,112.56396500000028,107.82031300000017,106.9228520000006,111.79492200000004,115.12841800000024,111.79492200000004
182,105.0,104.48730499999965,114.35888699999941,118.0771479999994,104.48730499999965,107.17968800000017,101.6665039999998,110.0,107.43603499999972,101.15380900000036,105.0,112.17968800000017,115.25634799999989,113.46142599999985
183,111.9228520000006,112.94873000000007,123.84619099999964,129.10253900000043,119.10253900000043,110.38476599999922,109.10253900000043,116.53857400000015,112.56396500000028,108.0771479999994,113.3334960000002,114.10253900000043,124.10253900000043,115.51269500000035
184,122.43603499999972,125.12841800000024,132.82031300000017,139.61523400000078,129.10253900000043,113.84619099999964,117.94873000000007,122.69238299999961,123.20507799999996,122.82031300000017,125.0,116.2822270000006,135.12841800000024,116.79492200000004
185,130.76904300000024,134.61523400000078,136.41015599999992,143.20507799999996,129.23095699999976,116.2822270000006,122.56396500000028,124.87158199999976,132.43603499999972,135.2563479999999,132.3076170000004,117.82031300000017,141.2822270000006,117.05126999999993
186,132.56396500000028,136.2822270000006,132.6923829999996,138.84619099999964,120.0,117.56396500000028,120.38476599999922,122.17968800000017,134.3588869999994,137.17968800000017,130.76904300000024,117.82031300000017,138.7177729999994,116.15380900000036
187,126.6665039999998,128.84619099999964,124.23095699999976,130.6411130000006,107.17968800000017,117.30761700000039,113.20507799999996,116.41015599999992,127.69238299999961,127.82031300000017,122.05126999999993,115.89746099999957,129.48730499999965,115.12841800000024
188,116.41015599999992,116.41015599999992,116.2822270000006,124.61523400000078,98.58984400000008,116.2822270000006,105.64111300000059,111.2822270000006,116.79492200000004,113.58984400000008,111.9228520000006,112.69238299999961,119.35888699999941,114.87158199999976
189,108.46142599999985,107.05126999999993,113.46142599999985,124.10253900000043,100.51269500000035,115.38476599999922,102.56396500000028,110.0,108.58984400000008,104.61523400000078,107.69238299999961,110.12841800000024,114.10253900000043,115.89746099999957
190,108.3334960000002,108.20507799999996,117.82031300000017,128.7177729999994,112.69238299999961,115.89746099999957,106.41015599999992,114.23095699999976,108.58984400000008,106.53857400000015,113.0771479999994,110.25634799999989,116.53857400000015,117.05126999999993
191,116.79492200000004,120.38476599999922,126.9228520000006,134.87158199999976,128.0771479999994,117.56396500000028,115.12841800000024,122.05126999999993,116.79492200000004,117.69238299999961,125.89746099999957,113.7177729999994,125.0,117.17968800000017
192,128.3334960000002,136.15380900000036,135.38476599999922,138.58984400000008,137.56396500000028,119.10253900000043,124.48730499999965,129.23095699999976,128.20507799999996,130.2563479999999,138.46142599999985,118.3334960000002,134.87158199999976,115.89746099999957
193,134.87158199999976,143.20507799999996,138.3334960000002,137.17968800000017,135.51269500000035,118.58984400000008,129.3588869999994,131.9228520000006,135.6411130000006,136.53857400000015,143.58984400000008,120.89746099999957,140.2563479999999,113.7177729999994
194,131.53857400000015,133.9741210000002,133.58984400000008,130.12841800000024,123.58984400000008,116.6665039999998,127.05126999999993,128.7177729999994,135.0,132.94873000000007,137.82031300000017,118.20507799999996,137.3076170000004,112.30761700000039
195,119.74365200000011,111.9228520000006,123.84619099999964,119.74365200000011,108.9741210000002,115.25634799999989,118.7177729999994,121.6665039999998,126.9228520000006,122.30761700000039,124.74365200000011,110.89746099999957,126.53857400000015,112.69238299999961
196,106.6665039999998,89.74365200000011,114.48730499999965,110.89746099999957,100.76904300000024,115.64111300000059,108.58984400000008,115.25634799999989,116.9228520000006,111.2822270000006,111.41015599999992,102.56396500000028,113.0771479999994,114.87158199999976
197,100.0,81.53857400000015,110.12841800000024,107.94873000000007,103.3334960000002,117.05126999999993,101.41015599999992,112.56396500000028,110.89746099999957,106.2822270000006,104.48730499999965,98.3334960000002,103.3334960000002,117.05126999999993
198,102.17968800000017,92.17968800000017,111.6665039999998,112.43603499999972,113.58984400000008,117.82031300000017,99.87158199999976,113.9741210000002,111.53857400000015,108.84619099999964,105.12841800000024,100.12841800000024,100.76904300000024,117.69238299999961
199,110.25634799999989,115.51269500000035,116.9228520000006,122.05126999999993,124.10253900000043,117.17968800000017,103.20507799999996,116.9228520000006,116.6665039999998,115.12841800000024,109.74365200000011,106.53857400000015,103.0771479999994,116.15380900000036
200,119.35888699999941,139.7436520000001,122.56396500000028,132.6923829999996,128.0771479999994,116.15380900000036,108.58984400000008,118.58984400000008,121.41015599999992,119.48730499999965,112.94873000000007,113.20507799999996,104.10253900000043,114.23095699999976
201,126.53857400000015,156.6665039999998,126.6665039999998,142.17968800000017,124.23095699999976,115.89746099999957,113.3334960000002,118.3334960000002,122.17968800000017,117.94873000000007,112.05126999999993,117.17968800000017,98.9741210000002,114.10253900000043
202,131.2822270000006,166.41015599999992,128.9741210000002,150.12841800000024,117.05126999999993,116.79492200000004,115.89746099999957,116.79492200000004,118.7177729999994,111.0258789999998,107.43603499999972,117.69238299999961,87.05126999999993,116.2822270000006
203,133.84619099999964,174.10253900000043,129.61523400000078,156.9228520000006,112.17968800000017,117.17968800000017,115.76904300000024,115.38476599999922,113.7177729999994,102.69238299999961,101.15380900000036,116.0258789999998,71.6665039999998,118.9741210000002
204,133.46142599999985,184.3588869999994,128.3334960000002,161.9228520000006,112.82031300000017,115.89746099999957,112.82031300000017,113.58984400000008,109.61523400000078,96.2822270000006,93.9741210000002,113.3334960000002,56.025878999999804,120.0
205,129.48730499999965,196.79492200000004,124.61523400000078,163.84619099999964,117.43603499999972,113.3334960000002,107.43603499999972,110.12841800000024,106.2822270000006,92.69238299999961,84.87158199999976,109.74365200000011,40.897460999999566,118.3334960000002
206,121.9228520000006,207.56396500000028,118.58984400000008,162.82031300000017,122.56396500000028,111.15380900000036,101.0258789999998,104.61523400000078,101.9228520000006,89.61523400000078,73.20507799999996,105.12841800000024,25.769043000000238,115.12841800000024
207,113.58984400000008,214.10253900000043,112.43603499999972,160.6411130000006,125.76904300000024,109.87158199999976,95.76904300000024,98.46142599999985,95.89746099999957,85.38476599999922,60.897460999999566,100.38476599999922,11.282227000000603,112.17968800000017
208,108.84619099999964,218.46142599999985,109.61523400000078,160.2563479999999,126.6665039999998,109.35888699999941,93.46142599999985,94.35888699999941,89.74365200000011,80.64111300000059,52.56396500000028,97.30761700000039,-0.769043000000238,111.41015599999992
209,110.12841800000024,224.87158199999976,111.79492200000004,164.23095699999976,125.38476599999922,109.48730499999965,94.74365200000011,94.23095699999976,86.2822270000006,77.56396500000028,51.025878999999804,97.69238299999961,-8.333252000000357,112.69238299999961
210,115.38476599999922,235.6411130000006,116.79492200000004,172.56396500000028,122.17968800000017,109.74365200000011,98.3334960000002,97.17968800000017,86.53857400000015,77.56396500000028,54.87158199999976,101.0258789999998,-11.153809000000365,114.48730499999965
211,120.0,248.9741210000002,120.76904300000024,182.43603499999972,118.46142599999985,108.9741210000002,101.79492200000004,100.51269500000035,89.23095699999976,79.74365200000011,58.974121000000196,104.48730499999965,-12.051270000000386,115.12841800000024
212,120.51269500000035,261.0258789999998,121.41015599999992,190.51269500000035,116.53857400000015,107.05126999999993,102.94873000000007,101.53857400000015,91.0258789999998,81.53857400000015,57.94873000000007,105.64111300000059,-14.743652000000111,114.61523400000078
213,117.94873000000007,268.5898440000001,119.35888699999941,194.3588869999994,117.43603499999972,104.74365200000011,101.41015599999992,99.87158199999976,89.61523400000078,79.87158199999976,50.897460999999566,103.84619099999964,-21.666747999999643,114.35888699999941
214,116.2822270000006,271.6665039999998,116.9228520000006,193.9741210000002,119.87158199999976,103.84619099999964,98.7177729999994,97.17968800000017,85.25634799999989,74.48730499999965,41.153809000000365,101.0258789999998,-31.28198199999997,115.51269500000035
215,118.7177729999994,273.5898440000001,116.79492200000004,191.53857400000015,121.6665039999998,104.87158199999976,97.30761700000039,96.15380900000036,81.2822270000006,67.69238299999961,34.48730499999965,99.87158199999976,-37.69238299999961,117.69238299999961
216,126.2822270000006,277.6923829999996,120.38476599999922,191.0258789999998,122.82031300000017,106.9228520000006,98.9741210000002,98.84619099999964,81.41015599999992,64.10253900000043,35.12841800000024,101.79492200000004,-34.8718259999996,118.9741210000002
217,137.3076170000004,286.0258789999998,127.56396500000028,195.2563479999999,125.51269500000035,109.10253900000043,103.9741210000002,104.87158199999976,86.9228520000006,66.0258789999998,43.333496000000196,105.76904300000024,-21.666747999999643,118.46142599999985
218,148.58984400000008,296.6665039999998,135.76904300000024,205.0,130.51269500000035,111.0258789999998,110.89746099999957,111.41015599999992,95.38476599999922,72.05126999999993,55.0,109.48730499999965,-3.2050779999999577,116.2822270000006
219,156.15380900000036,305.3847659999992,141.15380900000036,216.41015599999992,136.15380900000036,112.05126999999993,116.53857400000015,114.48730499999965,101.15380900000036,77.05126999999993,63.846190999999635,110.64111300000059,11.922852000000603,113.84619099999964
220,156.6665039999998,307.6923829999996,140.51269500000035,223.7177729999994,137.3076170000004,110.64111300000059,117.30761700000039,110.89746099999957,98.84619099999964,75.76904300000024,65.12841800000024,108.20507799999996,16.410155999999915,112.30761700000039
221,150.0,302.4360349999997,133.46142599999985,222.05126999999993,130.76904300000024,106.9228520000006,111.2822270000006,101.0258789999998,87.56396500000028,66.9228520000006,58.0771479999994,102.94873000000007,9.230956999999762,112.17968800000017
222,139.48730499999965,292.94873000000007,123.7177729999994,211.9228520000006,118.20507799999996,102.94873000000007,100.38476599999922,89.35888699999941,72.69238299999961,54.35888699999941,46.9228520000006,97.17968800000017,-4.102538999999979,113.20507799999996
223,131.0258789999998,285.51269500000035,116.9228520000006,199.23095699999976,106.79492200000004,101.79492200000004,90.51269500000035,81.6665039999998,62.17968800000017,45.38476599999922,38.333496000000196,94.10253900000043,-14.358886999999868,113.9741210000002
224,129.87158199999976,284.87158199999976,116.9228520000006,192.3076170000004,103.9741210000002,104.23095699999976,87.56396500000028,82.05126999999993,61.9228520000006,45.12841800000024,37.43603499999972,95.76904300000024,-14.61547900000005,113.58984400000008
225,136.41015599999992,291.53857400000015,123.58984400000008,195.6411130000006,112.94873000000007,108.58984400000008,93.0771479999994,89.74365200000011,71.41015599999992,54.102539000000434,45.38476599999922,101.6665039999998,-4.230713000000378,112.17968800000017
226,146.2822270000006,300.51269500000035,132.56396500000028,206.9228520000006,129.3588869999994,111.79492200000004,103.20507799999996,99.87158199999976,85.38476599999922,67.82031300000017,58.0771479999994,108.3334960000002,10.897460999999566,110.64111300000059
227,153.58984400000008,305.12841800000024,138.20507799999996,218.3334960000002,143.84619099999964,111.9228520000006,111.79492200000004,106.9228520000006,96.41015599999992,80.0,69.35888699999941,112.30761700000039,22.69238299999961,109.61523400000078
228,155.0,301.9228520000006,137.43603499999972,222.43603499999972,148.58984400000008,109.87158199999976,114.48730499999965,108.20507799999996,99.48730499999965,85.51269500000035,74.35888699999941,111.6665039999998,26.410155999999915,109.35888699999941
229,151.2822270000006,293.20507799999996,132.43603499999972,217.17968800000017,141.2822270000006,108.3334960000002,111.15380900000036,105.38476599999922,94.61523400000078,83.20507799999996,71.79492200000004,107.43603499999972,22.43603499999972,110.25634799999989
230,146.15380900000036,284.48730499999965,127.82031300000017,206.53857400000015,127.30761700000039,109.23095699999976,105.64111300000059,101.2822270000006,86.41015599999992,75.76904300000024,64.35888699999941,102.94873000000007,15.0,112.43603499999972
231,142.43603499999972,280.2563479999999,126.9228520000006,196.6665039999998,114.48730499999965,112.30761700000039,101.41015599999992,98.20507799999996,80.64111300000059,67.69238299999961,56.9228520000006,101.0258789999998,8.461425999999847,115.38476599999922
232,140.51269500000035,279.6152340000008,128.7177729999994,191.15380900000036,108.84619099999964,114.87158199999976,99.74365200000011,96.41015599999992,79.61523400000078,63.0771479999994,53.0771479999994,101.6665039999998,4.6152340000007825,117.69238299999961
233,138.84619099999964,278.7177729999994,130.0,190.89746099999957,111.53857400000015,115.25634799999989,99.74365200000011,95.25634799999989,82.17968800000017,63.46142599999985,53.846190999999635,103.58984400000008,3.717772999999397,117.94873000000007
234,136.41015599999992,275.0,128.58984400000008,194.10253900000043,119.23095699999976,113.46142599999985,100.12841800000024,94.74365200000011,85.64111300000059,67.82031300000017,56.79492200000004,105.25634799999989,4.358886999999413,115.76904300000024
235,133.58984400000008,268.3334960000002,124.87158199999976,197.82031300000017,125.76904300000024,111.53857400000015,100.12841800000024,95.25634799999989,87.05126999999993,72.56396500000028,58.589844000000085,105.38476599999922,4.871581999999762,112.69238299999961
236,131.2822270000006,260.3847659999992,120.25634799999989,198.84619099999964,125.38476599999922,110.76904300000024,99.61523400000078,96.2822270000006,85.51269500000035,73.9741210000002,56.53857400000015,103.58984400000008,3.4614259999998467,110.64111300000059
237,129.7436520000001,253.20507799999996,116.53857400000015,195.89746099999957,116.79492200000004,111.2822270000006,98.9741210000002,97.17968800000017,81.9228520000006,70.25634799999989,50.76904300000024,100.38476599999922,-0.256347999999889,111.0258789999998
238,129.23095699999976,247.94873000000007,115.25634799999989,190.6411130000006,105.38476599999922,112.30761700000039,99.35888699999941,97.69238299999961,79.48730499999965,64.74365200000011,44.61523400000078,97.94873000000007,-4.487060999999812,113.46142599999985
239,129.7436520000001,245.38476599999922,117.43603499999972,187.17968800000017,99.10253900000043,112.82031300000017,101.15380900000036,98.20507799999996,80.64111300000059,62.94873000000007,42.56396500000028,98.46142599999985,-5.38452099999995,115.64111300000059
240,130.76904300000024,244.87158199999976,122.69238299999961,187.94873000000007,103.0771479999994,112.30761700000039,103.3334960000002,98.58984400000008,85.64111300000059,68.20507799999996,46.410155999999915,102.56396500000028,-1.2822270000006029,115.89746099999957
241,131.79492200000004,245.12841800000024,128.20507799999996,191.79492200000004,115.0,110.89746099999957,104.48730499999965,98.7177729999994,91.6665039999998,77.43603499999972,53.7177729999994,107.82031300000017,5.769043000000238,114.23095699999976
242,132.6923829999996,244.48730499999965,131.15380900000036,194.7436520000001,126.6665039999998,109.74365200000011,104.10253900000043,98.3334960000002,95.12841800000024,83.58984400000008,59.35888699999941,111.53857400000015,11.410155999999915,113.0771479999994
243,133.0771479999994,242.43603499999972,130.51269500000035,193.0771479999994,130.38476599999922,109.48730499999965,103.46142599999985,97.43603499999972,93.7177729999994,81.41015599999992,60.0,111.79492200000004,12.17968800000017,114.23095699999976
244,132.3076170000004,240.0,127.30761700000039,186.53857400000015,124.61523400000078,110.12841800000024,103.3334960000002,96.79492200000004,88.58984400000008,71.41015599999992,56.2822270000006,108.58984400000008,8.461425999999847,117.17968800000017
245,129.7436520000001,237.82031300000017,123.9741210000002,178.9741210000002,115.25634799999989,111.15380900000036,103.3334960000002,96.6665039999998,83.3334960000002,60.25634799999989,51.53857400000015,103.7177729999994,3.5898440000000846,119.23095699999976
246,126.15380900000036,236.79492200000004,122.30761700000039,175.2563479999999,110.89746099999957,111.79492200000004,103.3334960000002,96.79492200000004,81.2822270000006,55.64111300000059,49.35888699999941,100.0,1.0258789999998044,118.7177729999994
247,122.82031300000017,237.3076170000004,122.94873000000007,177.43603499999972,115.89746099999957,111.79492200000004,103.20507799999996,96.9228520000006,83.20507799999996,60.25634799999989,50.25634799999989,99.23095699999976,2.1796880000001693,116.15380900000036
248,120.89746099999957,238.7177729999994,124.61523400000078,183.0771479999994,126.53857400000015,111.2822270000006,103.0771479999994,96.15380900000036,86.15380900000036,69.61523400000078,51.79492200000004,101.0258789999998,5.0,113.58984400000008
249,119.35888699999941,238.58984400000008,125.25634799999989,187.17968800000017,133.58984400000008,110.0,102.56396500000028,93.9741210000002,86.15380900000036,75.38476599999922,50.897460999999566,102.69238299999961,5.256347999999889,112.69238299999961
250,117.30761700000039,234.61523400000078,123.58984400000008,186.2822270000006,130.6411130000006,108.3334960000002,101.2822270000006,90.64111300000059,81.6665039999998,72.56396500000028,46.53857400000015,102.30761700000039,0.38476599999921746,113.3334960000002
251,114.87158199999976,226.6665039999998,120.38476599999922,180.6411130000006,119.10253900000043,106.79492200000004,98.9741210000002,87.43603499999972,74.74365200000011,63.46142599999985,40.76904300000024,100.0,-7.692382999999609,114.35888699999941
252,112.94873000000007,217.56396500000028,117.94873000000007,174.3588869999994,106.6665039999998,105.89746099999957,96.15380900000036,86.15380900000036,69.10253900000043,54.35888699999941,36.666503999999804,97.94873000000007,-13.846190999999635,114.61523400000078
253,112.17968800000017,211.2822270000006,117.43603499999972,170.76904300000024,99.61523400000078,105.64111300000059,93.0771479999994,86.79492200000004,66.53857400000015,50.12841800000024,35.38476599999922,97.82031300000017,-15.0,113.84619099999964
254,111.9228520000006,209.3588869999994,117.69238299999961,170.51269500000035,98.0771479999994,106.41015599999992,90.12841800000024,87.56396500000028,66.2822270000006,50.64111300000059,35.76904300000024,99.10253900000043,-12.564209000000574,112.69238299999961
255,111.9228520000006,210.12841800000024,117.17968800000017,171.2822270000006,98.58984400000008,108.58984400000008,88.20507799999996,86.79492200000004,66.9228520000006,52.56396500000028,36.2822270000006,100.51269500000035,-10.1281740000004,112.05126999999993
256,112.94873000000007,211.6665039999998,116.41015599999992,171.41015599999992,99.48730499999965,112.05126999999993,88.84619099999964,85.25634799999989,68.46142599999985,53.7177729999994,37.30761700000039,101.0258789999998,-9.358886999999868,112.43603499999972
257,116.15380900000036,213.84619099999964,117.94873000000007,171.2822270000006,102.94873000000007,115.0,93.20507799999996,84.61523400000078,71.53857400000015,54.87158199999976,40.51269500000035,101.0258789999998,-8.974365000000034,113.46142599999985
258,121.41015599999992,216.79492200000004,122.82031300000017,173.3334960000002,110.12841800000024,115.76904300000024,99.74365200000011,85.76904300000024,76.0258789999998,58.0771479999994,46.153809000000365,101.9228520000006,-6.794922000000042,113.9741210000002
259,126.41015599999992,219.23095699999976,129.10253900000043,177.82031300000017,117.82031300000017,113.84619099999964,104.74365200000011,87.30761700000039,79.48730499999965,62.94873000000007,51.79492200000004,103.20507799999996,-3.4614259999998467,113.7177729999994
260,127.82031300000017,217.94873000000007,131.9228520000006,182.05126999999993,120.89746099999957,110.12841800000024,104.74365200000011,87.69238299999961,79.35888699999941,65.76904300000024,53.46142599999985,103.9741210000002,-2.1796869999998307,113.84619099999964
261,124.48730499999965,211.41015599999992,128.58984400000008,182.43603499999972,117.30761700000039,106.79492200000004,100.0,86.6665039999998,75.51269500000035,63.333496000000196,49.23095699999976,102.82031300000017,-5.0,115.0
262,118.3334960000002,202.3076170000004,121.15380900000036,178.3334960000002,109.87158199999976,105.64111300000059,93.58984400000008,86.15380900000036,71.2822270000006,57.17968800000017,41.9228520000006,100.51269500000035,-10.1281740000004,115.89746099999957
263,112.43603499999972,195.76904300000024,114.74365200000011,171.53857400000015,104.61523400000078,107.17968800000017,89.87158199999976,87.94873000000007,70.51269500000035,52.56396500000028,36.79492200000004,98.9741210000002,-12.948729999999614,115.38476599999922
264,109.35888699999941,195.76904300000024,113.46142599999985,165.6411130000006,105.89746099999957,110.51269500000035,91.41015599999992,91.9228520000006,75.0,53.846190999999635,37.82031300000017,99.74365200000011,-10.0,113.3334960000002
265,109.61523400000078,201.9228520000006,117.17968800000017,162.82031300000017,112.56396500000028,113.3334960000002,96.79492200000004,95.51269500000035,83.0771479999994,61.2822270000006,44.48730499999965,102.94873000000007,-1.7949220000000423,111.53857400000015
266,112.17968800000017,209.87158199999976,121.41015599999992,163.0771479999994,119.61523400000078,113.7177729999994,102.30761700000039,96.15380900000036,89.48730499999965,69.87158199999976,52.30761700000039,105.64111300000059,6.538574000000153,111.15380900000036
267,114.61523400000078,213.7177729999994,122.17968800000017,164.61523400000078,121.9228520000006,111.53857400000015,103.9741210000002,93.0771479999994,90.12841800000024,74.10253900000043,56.410155999999915,105.51269500000035,10.128418000000238,112.82031300000017
268,115.38476599999922,211.0258789999998,118.84619099999964,165.12841800000024,118.7177729999994,108.58984400000008,101.53857400000015,88.46142599999985,85.0,71.79492200000004,55.25634799999989,102.30761700000039,8.333496000000196,115.38476599999922
269,115.0,204.61523400000078,114.87158199999976,164.3588869999994,114.35888699999941,106.9228520000006,98.3334960000002,85.76904300000024,79.35888699999941,66.9228520000006,52.30761700000039,99.48730499999965,5.256347999999889,117.05126999999993
270,115.64111300000059,200.76904300000024,114.87158199999976,163.3334960000002,113.58984400000008,107.43603499999972,98.84619099999964,87.56396500000028,79.23095699999976,65.51269500000035,52.94873000000007,100.38476599999922,6.410155999999915,116.79492200000004
271,118.3334960000002,202.94873000000007,120.25634799999989,163.46142599999985,117.56396500000028,109.74365200000011,104.74365200000011,93.58984400000008,86.53857400000015,71.15380900000036,58.846190999999635,105.76904300000024,13.205077999999958,115.0
272,121.2822270000006,208.46142599999985,127.43603499999972,164.3588869999994,121.53857400000015,112.43603499999972,112.94873000000007,100.12841800000024,96.41015599999992,80.76904300000024,66.6665039999998,111.79492200000004,21.666503999999804,113.3334960000002
273,121.53857400000015,211.0258789999998,130.6411130000006,164.23095699999976,120.64111300000059,113.46142599999985,117.43603499999972,103.3334960000002,101.41015599999992,87.56396500000028,70.12841800000024,113.84619099999964,25.51269500000035,113.0771479999994
274,117.94873000000007,206.9228520000006,126.6665039999998,162.6923829999996,115.12841800000024,112.17968800000017,114.10253900000043,101.41015599999992,98.0771479999994,86.2822270000006,66.0258789999998,110.12841800000024,21.922852000000603,113.7177729999994
275,112.82031300000017,198.84619099999964,118.3334960000002,160.89746099999957,111.41015599999992,110.12841800000024,105.25634799999989,96.79492200000004,89.61523400000078,77.82031300000017,57.17968800000017,103.7177729999994,14.487304999999651,114.23095699999976
276,110.12841800000024,193.58984400000008,111.9228520000006,161.2822270000006,116.0258789999998,108.9741210000002,97.82031300000017,93.7177729999994,83.0771479999994,68.20507799999996,50.38476599999922,99.74365200000011,10.256347999999889,113.84619099999964
277,111.79492200000004,195.76904300000024,111.6665039999998,164.61523400000078,127.56396500000028,109.87158199999976,97.82031300000017,95.12841800000024,83.46142599999985,63.7177729999994,51.410155999999915,101.2822270000006,13.333496000000196,113.20507799999996
278,116.79492200000004,203.58984400000008,117.05126999999993,169.48730499999965,136.79492200000004,112.05126999999993,104.48730499999965,100.0,89.74365200000011,67.17968800000017,60.12841800000024,106.9228520000006,22.17968800000017,113.3334960000002
279,121.2822270000006,210.12841800000024,123.20507799999996,173.20507799999996,135.38476599999922,114.48730499999965,112.30761700000039,105.12841800000024,97.30761700000039,76.41015599999992,70.12841800000024,111.9228520000006,30.51269500000035,113.84619099999964
280,121.9228520000006,209.7436520000001,125.38476599999922,173.46142599999985,123.46142599999985,116.2822270000006,115.51269500000035,107.30761700000039,101.0258789999998,85.76904300000024,73.9741210000002,112.30761700000039,32.69238299999961,114.61523400000078
281,117.56396500000028,201.41015599999992,122.05126999999993,169.7436520000001,108.58984400000008,116.53857400000015,112.05126999999993,104.87158199999976,98.20507799999996,90.25634799999989,67.94873000000007,107.30761700000039,27.30761700000039,114.74365200000011
282,110.0,189.3588869999994,115.38476599999922,163.58984400000008,100.76904300000024,115.25634799999989,105.25634799999989,99.23095699999976,91.0258789999998,88.20507799999996,55.64111300000059,100.25634799999989,18.205077999999958,113.84619099999964
283,104.23095699999976,180.51269500000035,110.25634799999989,158.3334960000002,106.15380900000036,113.9741210000002,100.38476599999922,94.61523400000078,85.25634799999989,82.69238299999961,45.38476599999922,95.64111300000059,11.922852000000603,112.30761700000039
284,105.12841800000024,180.38476599999922,111.15380900000036,157.43603499999972,122.30761700000039,114.35888699999941,101.79492200000004,95.51269500000035,86.53857400000015,79.48730499999965,44.48730499999965,96.79492200000004,13.333496000000196,111.15380900000036
285,113.7177729999994,190.0,118.46142599999985,162.6923829999996,139.61523400000078,115.89746099999957,109.61523400000078,103.0771479999994,96.53857400000015,82.82031300000017,53.974121000000196,103.58984400000008,22.69238299999961,111.41015599999992
286,125.51269500000035,204.10253900000043,128.46142599999985,171.53857400000015,147.3076170000004,117.30761700000039,119.10253900000043,113.84619099999964,110.0,91.6665039999998,67.94873000000007,112.30761700000039,35.12841800000024,113.20507799999996
287,134.10253900000043,214.3588869999994,135.51269500000035,178.3334960000002,141.15380900000036,117.56396500000028,124.23095699999976,122.17968800000017,119.61523400000078,101.41015599999992,77.82031300000017,118.3334960000002,43.7177729999994,115.12841800000024
288,135.2563479999999,214.48730499999965,135.89746099999957,178.58984400000008,126.9228520000006,117.30761700000039,122.56396500000028,123.84619099999964,120.89746099999957,106.6665039999998,78.58984400000008,118.7177729999994,44.35888699999941,115.51269500000035
289,129.48730499999965,203.84619099999964,129.7436520000001,171.41015599999992,115.0,117.69238299999961,115.89746099999957,118.0771479999994,114.35888699999941,104.74365200000011,71.0258789999998,114.23095699999976,37.43603499999972,114.23095699999976
290,120.38476599999922,187.94873000000007,120.51269500000035,160.6411130000006,112.30761700000039,118.3334960000002,108.20507799999996,108.0771479999994,104.10253900000043,96.2822270000006,60.0,107.30761700000039,26.922852000000603,112.30761700000039
291,112.69238299999961,175.12841800000024,112.94873000000007,152.6923829999996,118.9741210000002,118.84619099999964,103.0771479999994,98.9741210000002,94.61523400000078,85.89746099999957,51.153809000000365,101.2822270000006,18.205077999999958,111.2822270000006
292,110.0,172.43603499999972,111.15380900000036,152.3076170000004,130.0,118.7177729999994,102.30761700000039,95.51269500000035,90.12841800000024,79.35888699999941,48.974121000000196,98.84619099999964,16.538574000000153,111.9228520000006
293,113.7177729999994,181.15380900000036,115.89746099999957,159.61523400000078,139.61523400000078,117.94873000000007,105.89746099999957,99.23095699999976,92.69238299999961,80.12841800000024,54.61523400000078,101.15380900000036,23.717772999999397,114.35888699999941
294,120.76904300000024,194.7436520000001,123.9741210000002,169.10253900000043,143.46142599999985,116.53857400000015,111.79492200000004,107.05126999999993,100.38476599999922,86.2822270000006,65.0,106.15380900000036,35.76904300000024,117.05126999999993
295,125.12841800000024,203.0771479999994,129.87158199999976,172.94873000000007,140.0,114.48730499999965,117.05126999999993,113.3334960000002,107.82031300000017,91.79492200000004,73.58984400000008,109.35888699999941,45.0,118.46142599999985
296,122.94873000000007,199.87158199999976,128.84619099999964,166.9228520000006,130.2563479999999,112.94873000000007,118.58984400000008,113.84619099999964,109.35888699999941,91.2822270000006,75.12841800000024,107.94873000000007,45.25634799999989,117.82031300000017
297,115.12841800000024,187.17968800000017,121.0258789999998,153.9741210000002,118.46142599999985,113.20507799999996,115.38476599999922,108.58984400000008,103.46142599999985,84.74365200000011,68.9741210000002,102.82031300000017,36.53857400000015,115.64111300000059
298,106.79492200000004,172.82031300000017,111.0258789999998,142.3076170000004,111.41015599999992,115.25634799999989,109.23095699999976,101.41015599999992,93.9741210000002,77.05126999999993,59.61523400000078,97.69238299999961,25.128418000000238,113.46142599999985
299,103.20507799999996,165.51269500000035,104.74365200000011,139.87158199999976,114.35888699999941,117.82031300000017,103.3334960000002,96.9228520000006,87.17968800000017,73.9741210000002,52.69238299999961,96.0258789999998,18.974121000000196,112.17968800000017
300,105.25634799999989,168.0771479999994,104.87158199999976,148.0771479999994,126.2822270000006,119.48730499999965,100.51269500000035,97.17968800000017,86.53857400000015,78.0771479999994,51.410155999999915,97.94873000000007,22.05126999999993,111.6665039999998
301,109.10253900000043,176.0258789999998,109.61523400000078,160.12841800000024,138.84619099999964,119.48730499999965,101.2822270000006,100.38476599999922,90.38476599999922,85.76904300000024,54.35888699999941,101.53857400000015,31.153809000000365,111.6665039999998
302,109.87158199999976,182.05126999999993,114.87158199999976,166.9228520000006,142.05126999999993,118.3334960000002,103.58984400000008,102.56396500000028,94.35888699999941,90.76904300000024,57.82031300000017,103.7177729999994,39.23095699999976,112.05126999999993
303,106.79492200000004,182.3076170000004,117.30761700000039,164.23095699999976,133.9741210000002,116.9228520000006,105.51269500000035,101.0258789999998,95.51269500000035,88.9741210000002,59.23095699999976,103.3334960000002,41.025878999999804,112.82031300000017
304,103.58984400000008,178.7177729999994,116.53857400000015,155.76904300000024,122.17968800000017,115.76904300000024,107.05126999999993,97.05126999999993,94.87158199999976,82.30761700000039,59.61523400000078,101.53857400000015,37.82031300000017,113.7177729999994
305,104.48730499999965,176.79492200000004,114.74365200000011,149.10253900000043,116.41015599999992,115.25634799999989,109.23095699999976,94.61523400000078,95.38476599999922,77.30761700000039,61.79492200000004,100.51269500000035,35.64111300000059,113.9741210000002
306,110.0,179.48730499999965,114.23095699999976,148.9741210000002,120.76904300000024,115.76904300000024,112.56396500000028,97.05126999999993,98.58984400000008,79.10253900000043,66.9228520000006,101.53857400000015,39.35888699999941,113.7177729999994
307,116.41015599999992,184.10253900000043,116.2822270000006,153.3334960000002,130.38476599999922,117.17968800000017,115.51269500000035,103.0771479999994,103.20507799999996,87.30761700000039,72.69238299999961,103.9741210000002,47.82031300000017,112.56396500000028
308,118.58984400000008,185.2563479999999,118.84619099999964,156.15380900000036,135.89746099999957,118.58984400000008,115.64111300000059,107.94873000000007,106.15380900000036,95.64111300000059,74.87158199999976,106.0258789999998,55.0,111.0258789999998
309,113.58984400000008,180.2563479999999,118.7177729999994,152.56396500000028,131.41015599999992,118.46142599999985,111.9228520000006,106.53857400000015,103.9741210000002,96.79492200000004,70.51269500000035,106.0258789999998,54.87158199999976,110.0
310,103.9741210000002,171.2822270000006,115.38476599999922,143.9741210000002,119.35888699999941,116.41015599999992,105.25634799999989,98.9741210000002,96.41015599999992,88.0771479999994,61.025878999999804,103.84619099999964,46.666503999999804,110.51269500000035
311,96.0258789999998,164.48730499999965,111.15380900000036,136.53857400000015,108.7177729999994,113.3334960000002,98.9741210000002,90.38476599999922,86.9228520000006,74.48730499999965,51.53857400000015,100.64111300000059,36.025878999999804,112.43603499999972
312,95.12841800000024,164.3588869999994,109.35888699999941,136.0258789999998,106.6665039999998,110.89746099999957,96.0258789999998,86.53857400000015,81.41015599999992,64.61523400000078,48.0771479999994,98.3334960000002,30.641113000000587,114.23095699999976
313,100.51269500000035,169.23095699999976,111.2822270000006,141.9228520000006,112.30761700000039,110.25634799999989,97.30761700000039,88.58984400000008,82.82031300000017,63.589844000000085,51.9228520000006,98.20507799999996,33.46142599999985,114.87158199999976
314,106.2822270000006,172.3076170000004,114.61523400000078,148.0771479999994,117.82031300000017,111.2822270000006,99.87158199999976,93.20507799999996,87.94873000000007,68.7177729999994,57.82031300000017,99.48730499999965,40.25634799999989,114.10253900000043
315,107.05126999999993,168.20507799999996,115.51269500000035,148.20507799999996,116.9228520000006,113.46142599999985,100.0,95.51269500000035,90.64111300000059,72.43603499999972,59.23095699999976,100.51269500000035,44.35888699999941,112.82031300000017
316,102.82031300000017,158.7177729999994,112.43603499999972,142.43603499999972,110.0,115.25634799999989,96.6665039999998,93.58984400000008,87.94873000000007,70.12841800000024,54.48730499999965,100.12841800000024,42.82031300000017,111.6665039999998
317,99.35888699999941,151.53857400000015,108.3334960000002,136.79492200000004,103.46142599999985,115.38476599999922,92.82031300000017,89.74365200000011,82.69238299999961,64.61523400000078,47.82031300000017,98.84619099999964,39.35888699999941,111.41015599999992
318,102.05126999999993,153.7177729999994,107.30761700000039,138.3334960000002,103.7177729999994,114.23095699999976,92.43603499999972,88.58984400000008,80.76904300000024,63.20507799999996,46.025878999999804,98.0771479999994,39.48730499999965,112.30761700000039
319,110.89746099999957,165.38476599999922,111.53857400000015,147.82031300000017,111.53857400000015,113.84619099999964,97.43603499999972,92.82031300000017,85.64111300000059,70.25634799999989,52.05126999999993,99.61523400000078,45.76904300000024,114.23095699999976
320,120.51269500000035,178.3334960000002,118.3334960000002,158.46142599999985,121.2822270000006,115.51269500000035,105.25634799999989,100.51269500000035,95.0,83.3334960000002,62.94873000000007,102.69238299999961,54.61523400000078,116.2822270000006
321,124.48730499999965,182.56396500000028,121.9228520000006,161.41015599999992,125.89746099999957,117.43603499999972,111.0258789999998,106.79492200000004,102.43603499999972,94.48730499999965,71.6665039999998,104.87158199999976,59.87158199999976,117.43603499999972
322,119.87158199999976,173.58984400000008,118.46142599999985,152.43603499999972,122.69238299999961,117.17968800000017,111.15380900000036,107.30761700000039,102.30761700000039,96.15380900000036,71.2822270000006,104.23095699999976,56.9228520000006,117.43603499999972
323,109.48730499999965,156.6665039999998,109.23095699999976,136.41015599999992,114.74365200000011,113.9741210000002,105.38476599999922,101.15380900000036,93.9741210000002,86.79492200000004,61.2822270000006,100.51269500000035,47.43603499999972,116.2822270000006
324,99.35888699999941,142.17968800000017,100.12841800000024,122.94873000000007,108.58984400000008,109.61523400000078,97.94873000000007,91.79492200000004,81.53857400000015,72.30761700000039,47.30761700000039,96.0258789999998,37.56396500000028,114.10253900000043
325,95.0,137.6923829999996,96.9228520000006,119.35888699999941,108.0771479999994,106.2822270000006,93.46142599999985,84.74365200000011,71.53857400000015,61.2822270000006,37.82031300000017,93.7177729999994,32.94873000000007,111.9228520000006
326,97.05126999999993,142.3076170000004,101.41015599999992,124.87158199999976,112.05126999999993,105.0,93.3334960000002,83.20507799999996,67.82031300000017,57.56396500000028,37.30761700000039,94.74365200000011,34.48730499999965,110.76904300000024
327,102.05126999999993,148.7177729999994,109.74365200000011,132.6923829999996,116.2822270000006,105.38476599999922,96.2822270000006,86.15380900000036,69.87158199999976,59.61523400000078,43.7177729999994,98.0771479999994,38.589844000000085,111.6665039999998
328,106.0258789999998,150.76904300000024,116.15380900000036,136.6665039999998,117.43603499999972,107.05126999999993,99.35888699999941,90.25634799999989,74.87158199999976,63.20507799999996,51.79492200000004,101.41015599999992,41.53857400000015,113.9741210000002
329,106.9228520000006,148.46142599999985,117.82031300000017,135.2563479999999,115.38476599999922,108.58984400000008,101.0258789999998,92.56396500000028,79.87158199999976,66.15380900000036,56.53857400000015,102.82031300000017,42.56396500000028,116.15380900000036
330,105.51269500000035,145.2563479999999,115.76904300000024,131.79492200000004,111.79492200000004,109.10253900000043,101.41015599999992,92.69238299999961,83.0771479999994,68.0771479999994,56.9228520000006,101.79492200000004,42.30761700000039,116.79492200000004
331,103.0771479999994,143.9741210000002,112.69238299999961,129.23095699999976,107.69238299999961,108.46142599999985,101.2822270000006,90.64111300000059,84.23095699999976,69.23095699999976,53.974121000000196,99.48730499999965,41.2822270000006,115.89746099999957
332,100.25634799999989,144.3588869999994,110.25634799999989,128.3334960000002,103.20507799999996,107.56396500000028,101.0258789999998,87.43603499999972,83.46142599999985,69.10253900000043,50.0,97.69238299999961,39.23095699999976,113.9741210000002
333,98.0771479999994,144.87158199999976,108.84619099999964,128.84619099999964,99.10253900000043,107.30761700000039,100.51269500000035,84.48730499999965,81.6665039999998,67.30761700000039,46.53857400000015,96.9228520000006,36.153809000000365,112.30761700000039
334,98.0771479999994,145.38476599999922,109.10253900000043,130.76904300000024,97.82031300000017,107.94873000000007,100.64111300000059,83.58984400000008,80.25634799999989,65.51269500000035,45.38476599999922,97.56396500000028,33.7177729999994,111.41015599999992
335,101.53857400000015,147.3076170000004,111.15380900000036,134.48730499999965,100.51269500000035,108.58984400000008,101.41015599999992,85.76904300000024,80.89746099999957,65.89746099999957,47.94873000000007,99.35888699999941,34.74365200000011,111.6665039999998
336,107.30761700000039,150.12841800000024,114.48730499999965,139.10253900000043,106.15380900000036,108.84619099999964,102.17968800000017,90.0,83.20507799999996,68.9741210000002,53.7177729999994,101.9228520000006,39.61523400000078,112.82031300000017
337,112.82031300000017,152.3076170000004,116.9228520000006,142.82031300000017,111.15380900000036,108.7177729999994,101.53857400000015,93.58984400000008,85.12841800000024,72.43603499999972,59.87158199999976,103.7177729999994,46.153809000000365,114.23095699999976
338,115.64111300000059,152.94873000000007,117.05126999999993,144.87158199999976,113.7177729999994,108.58984400000008,99.74365200000011,95.0,84.87158199999976,73.20507799999996,63.974121000000196,103.0771479999994,51.410155999999915,114.74365200000011
339,116.9228520000006,154.87158199999976,116.0258789999998,147.43603499999972,115.12841800000024,109.10253900000043,99.10253900000043,95.25634799999989,83.7177729999994,71.41015599999992,66.15380900000036,101.0258789999998,55.76904300000024,114.35888699999941
340,120.38476599999922,162.82031300000017,116.79492200000004,152.94873000000007,118.46142599999985,111.0258789999998,102.17968800000017,96.6665039999998,85.38476599999922,70.89746099999957,68.7177729999994,100.51269500000035,61.9228520000006,113.7177729999994
341,128.46142599999985,176.79492200000004,120.76904300000024,160.76904300000024,124.87158199999976,113.84619099999964,108.84619099999964,100.38476599999922,91.6665039999998,75.38476599999922,74.10253900000043,103.0771479999994,72.05126999999993,113.20507799999996
342,139.3588869999994,190.12841800000024,126.0258789999998,166.41015599999992,131.41015599999992,116.2822270000006,115.89746099999957,104.74365200000011,100.38476599999922,84.35888699999941,81.41015599999992,107.94873000000007,83.7177729999994,112.94873000000007
343,147.82031300000017,195.12841800000024,128.9741210000002,165.2563479999999,133.9741210000002,116.6665039999998,118.58984400000008,106.41015599999992,105.64111300000059,92.69238299999961,87.82031300000017,112.05126999999993,92.56396500000028,112.94873000000007
344,150.6411130000006,189.3588869999994,127.43603499999972,157.56396500000028,130.51269500000035,115.0,115.25634799999989,103.58984400000008,103.9741210000002,95.12841800000024,90.12841800000024,112.69238299999961,95.51269500000035,113.0771479999994
345,148.58984400000008,178.20507799999996,122.94873000000007,149.48730499999965,122.82031300000017,112.05126999999993,107.30761700000039,97.82031300000017,96.6665039999998,90.38476599999922,88.20507799999996,110.25634799999989,93.3334960000002,113.58984400000008
346,146.2822270000006,170.6411130000006,119.23095699999976,147.56396500000028,115.0,109.35888699999941,99.48730499999965,92.56396500000028,88.0771479999994,81.53857400000015,84.35888699999941,107.30761700000039,90.25634799999989,113.9741210000002
347,148.20507799999996,172.56396500000028,120.0,154.3588869999994,111.0258789999998,108.3334960000002,95.64111300000059,91.15380900000036,83.20507799999996,74.48730499999965,82.69238299999961,107.30761700000039,90.12841800000024,114.23095699999976
348,154.48730499999965,182.17968800000017,125.76904300000024,165.76904300000024,112.82031300000017,109.10253900000043,97.05126999999993,94.10253900000043,83.9741210000002,73.20507799999996,85.76904300000024,111.15380900000036,94.23095699999976,114.87158199999976
349,161.79492200000004,192.17968800000017,133.46142599999985,174.48730499999965,118.0771479999994,110.25634799999989,101.6665039999998,99.74365200000011,89.10253900000043,77.69238299999961,92.82031300000017,117.05126999999993,100.64111300000059,116.2822270000006
350,165.51269500000035,195.51269500000035,138.3334960000002,175.2563479999999,121.41015599999992,110.38476599999922,105.76904300000024,104.23095699999976,94.74365200000011,84.23095699999976,99.87158199999976,121.53857400000015,106.6665039999998,117.69238299999961
351,164.23095699999976,191.2822270000006,137.05126999999993,168.0771479999994,118.9741210000002,109.48730499999965,106.79492200000004,104.48730499999965,97.82031300000017,88.0771479999994,103.46142599999985,121.9228520000006,111.2822270000006,118.0771479999994
352,161.41015599999992,186.2822270000006,131.53857400000015,159.10253900000043,112.82031300000017,109.23095699999976,105.0,101.0258789999998,97.56396500000028,88.0771479999994,103.3334960000002,118.9741210000002,116.53857400000015,116.79492200000004
353,162.17968800000017,188.7177729999994,127.94873000000007,156.53857400000015,110.0,110.12841800000024,103.0771479999994,97.43603499999972,96.0258789999998,86.79492200000004,102.82031300000017,116.15380900000036,124.10253900000043,114.35888699999941
354,167.56396500000028,200.2563479999999,129.87158199999976,162.82031300000017,115.25634799999989,111.6665039999998,103.46142599999985,97.17968800000017,95.25634799999989,87.69238299999961,104.61523400000078,116.0258789999998,132.56396500000028,111.79492200000004
355,173.58984400000008,213.0771479999994,135.51269500000035,172.05126999999993,125.38476599999922,112.94873000000007,104.87158199999976,99.87158199999976,94.74365200000011,90.25634799999989,107.82031300000017,118.20507799999996,136.6665039999998,110.38476599999922
356,174.48730499999965,216.2822270000006,138.7177729999994,175.2563479999999,132.17968800000017,113.58984400000008,104.61523400000078,102.30761700000039,92.43603499999972,91.2822270000006,108.58984400000008,119.74365200000011,131.9228520000006,110.76904300000024
357,168.7177729999994,206.0258789999998,135.76904300000024,168.58984400000008,130.51269500000035,113.58984400000008,101.53857400000015,101.2822270000006,88.0771479999994,87.94873000000007,105.0,118.84619099999964,120.38476599999922,112.56396500000028
358,160.89746099999957,189.23095699999976,128.46142599999985,156.6665039999998,122.30761700000039,113.0771479999994,98.20507799999996,97.43603499999972,84.87158199999976,82.56396500000028,99.61523400000078,116.53857400000015,110.12841800000024,114.87158199999976
359,157.05126999999993,177.05126999999993,122.43603499999972,148.84619099999964,114.74365200000011,113.0771479999994,97.94873000000007,94.74365200000011,87.05126999999993,80.76904300000024,97.43603499999972,115.64111300000059,108.84619099999964,116.15380900000036
360,159.10253900000043,175.12841800000024,121.15380900000036,149.7436520000001,113.3334960000002,114.48730499999965,101.79492200000004,96.2822270000006,95.76904300000024,86.0258789999998,100.51269500000035,116.9228520000006,117.05126999999993,116.15380900000036
361,163.58984400000008,179.10253900000043,123.0771479999994,156.2822270000006,118.7177729999994,117.05126999999993,107.43603499999972,101.2822270000006,106.79492200000004,96.15380900000036,105.89746099999957,118.3334960000002,127.43603499999972,114.87158199999976
362,164.3588869999994,180.6411130000006,124.23095699999976,161.41015599999992,126.6665039999998,119.10253900000043,111.2822270000006,105.89746099999957,113.9741210000002,105.12841800000024,108.7177729999994,116.9228520000006,131.2822270000006,113.46142599999985
363,157.6923829999996,175.2563479999999,121.9228520000006,160.2563479999999,131.41015599999992,119.35888699999941,111.41015599999992,107.05126999999993,113.46142599999985,108.0771479999994,106.0258789999998,112.43603499999972,125.38476599999922,112.56396500000028
364,144.23095699999976,163.58984400000008,116.53857400000015,152.56396500000028,128.7177729999994,118.0771479999994,107.69238299999961,103.9741210000002,106.0258789999998,103.46142599999985,98.7177729999994,106.2822270000006,113.20507799999996,112.56396500000028
365,127.94873000000007,149.23095699999976,110.25634799999989,141.6665039999998,118.3334960000002,116.41015599999992,102.30761700000039,98.0771479999994,95.25634799999989,93.84619099999964,89.61523400000078,100.38476599999922,101.0258789999998,113.7177729999994
366,114.23095699999976,136.41015599999992,106.15380900000036,132.17968800000017,105.64111300000059,114.87158199999976,97.94873000000007,91.9228520000006,86.6665039999998,84.61523400000078,82.05126999999993,96.6665039999998,93.3334960000002,115.51269500000035
367,108.46142599999985,129.3588869999994,106.2822270000006,128.84619099999964,98.9741210000002,114.61523400000078,97.56396500000028,89.23095699999976,84.87158199999976,81.2822270000006,78.9741210000002,96.53857400000015,91.9228520000006,117.05126999999993
368,112.56396500000028,129.7436520000001,110.51269500000035,133.3334960000002,103.84619099999964,115.89746099999957,102.30761700000039,92.05126999999993,90.64111300000059,86.2822270000006,81.53857400000015,100.25634799999989,95.64111300000059,117.30761700000039
369,123.58984400000008,135.6411130000006,116.2822270000006,142.82031300000017,118.0771479999994,118.20507799999996,110.64111300000059,99.48730499999965,100.12841800000024,97.05126999999993,87.69238299999961,106.53857400000015,101.53857400000015,116.2822270000006
370,133.84619099999964,141.6665039999998,120.0,151.53857400000015,132.94873000000007,119.87158199999976,118.20507799999996,107.30761700000039,107.30761700000039,106.9228520000006,93.7177729999994,112.43603499999972,106.0258789999998,115.0
371,136.2822270000006,143.20507799999996,119.74365200000011,154.3588869999994,140.12841800000024,119.74365200000011,121.15380900000036,111.41015599999992,108.3334960000002,110.76904300000024,96.15380900000036,114.87158199999976,106.6665039999998,114.10253900000043
372,129.10253900000043,139.10253900000043,116.53857400000015,150.38476599999922,137.82031300000017,118.7177729999994,118.3334960000002,110.76904300000024,104.61523400000078,107.82031300000017,94.23095699999976,112.56396500000028,103.0771479999994,113.7177729999994
373,116.53857400000015,131.79492200000004,113.46142599999985,142.17968800000017,129.48730499999965,117.82031300000017,112.43603499999972,107.30761700000039,99.74365200000011,101.0258789999998,89.74365200000011,107.30761700000039,96.79492200000004,113.46142599999985
374,106.0258789999998,124.74365200000011,112.30761700000039,133.58984400000008,120.76904300000024,117.82031300000017,107.56396500000028,103.7177729999994,96.79492200000004,94.35888699999941,85.76904300000024,102.82031300000017,90.12841800000024,113.0771479999994
375,102.94873000000007,121.15380900000036,112.94873000000007,127.82031300000017,114.74365200000011,118.58984400000008,106.0258789999998,101.2822270000006,96.0258789999998,90.38476599999922,84.87158199999976,102.05126999999993,85.25634799999989,112.82031300000017
376,107.43603499999972,121.6665039999998,114.35888699999941,126.6665039999998,111.9228520000006,119.10253900000043,106.6665039999998,99.87158199999976,96.53857400000015,89.48730499999965,87.56396500000028,105.12841800000024,84.10253900000043,112.69238299999961
377,115.12841800000024,124.74365200000011,115.89746099999957,129.48730499999965,111.15380900000036,119.23095699999976,107.30761700000039,99.10253900000043,97.56396500000028,91.2822270000006,92.43603499999972,109.74365200000011,86.9228520000006,112.56396500000028
378,121.0258789999998,128.46142599999985,117.17968800000017,134.23095699999976,111.9228520000006,118.7177729999994,106.53857400000015,99.48730499999965,99.74365200000011,95.38476599999922,97.69238299999961,113.3334960000002,92.82031300000017,112.94873000000007
379,123.0771479999994,132.05126999999993,118.58984400000008,138.46142599999985,114.74365200000011,117.94873000000007,105.89746099999957,102.05126999999993,104.48730499999965,102.43603499999972,102.05126999999993,115.25634799999989,98.7177729999994,113.7177729999994
380,122.56396500000028,135.51269500000035,119.87158199999976,141.0258789999998,120.51269500000035,117.17968800000017,106.9228520000006,107.05126999999993,111.9228520000006,112.05126999999993,104.74365200000011,115.76904300000024,102.43603499999972,114.48730499999965
381,120.76904300000024,137.94873000000007,120.51269500000035,141.15380900000036,127.30761700000039,116.2822270000006,110.0,112.17968800000017,119.10253900000043,121.41015599999992,105.38476599999922,115.64111300000059,102.17968800000017,114.35888699999941
382,117.30761700000039,136.9228520000006,119.35888699999941,138.0771479999994,130.2563479999999,115.12841800000024,112.82031300000017,114.10253900000043,121.6665039999998,125.38476599999922,103.46142599999985,114.74365200000011,97.82031300000017,113.46142599999985
383,111.2822270000006,130.2563479999999,115.76904300000024,132.17968800000017,125.25634799999989,113.9741210000002,112.56396500000028,111.15380900000036,117.56396500000028,120.64111300000059,99.23095699999976,112.43603499999972,90.25634799999989,112.43603499999972
