,EEG.AF3,EEG.F7,EEG.F3,EEG.FC5,EEG.T7,EEG.P7,EEG.O1,EEG.O2,EEG.P8,EEG.T8,EEG.FC6,EEG.F4,EEG.F8,EEG.AF4
0,104.10253900000043,81.2822270000006,109.48730499999965,119.74365200000011,114.23095699999976,110.38476599999922,103.7177729999994,105.76904300000024,112.94873000000007,122.43603499999972,126.79492200000004,112.43603499999972,153.84619099999964,112.43603499999972
1,107.17968800000017,80.64111300000059,115.38476599999922,116.41015599999992,116.79492200000004,113.20507799999996,112.56396500000028,113.58984400000008,125.38476599999922,135.38476599999922,136.2822270000006,118.7177729999994,167.56396500000028,113.3334960000002
2,105.0,70.89746099999957,115.51269500000035,108.3334960000002,115.25634799999989,113.9741210000002,118.3334960000002,117.94873000000007,131.41015599999992,138.84619099999964,139.10253900000043,120.76904300000024,174.87158199999976,114.23095699999976
3,100.0,56.79492200000004,111.0258789999998,99.61523400000078,112.94873000000007,112.69238299999961,118.3334960000002,118.46142599999985,130.89746099999957,137.05126999999993,137.94873000000007,119.48730499999965,176.2822270000006,114.48730499999965
4,95.89746099999957,44.61523400000078,106.15380900000036,94.10253900000043,112.94873000000007,111.6665039999998,114.48730499999965,117.05126999999993,128.0771479999994,137.17968800000017,137.94873000000007,117.69238299999961,175.0,114.23095699999976
5,93.3334960000002,36.2822270000006,103.58984400000008,91.6665039999998,114.74365200000011,112.69238299999961,111.15380900000036,116.53857400000015,126.53857400000015,142.17968800000017,139.87158199999976,116.53857400000015,173.9741210000002,114.10253900000043
6,89.61523400000078,28.846190999999635,102.30761700000039,88.46142599999985,115.0,115.51269500000035,111.2822270000006,118.0771479999994,126.6665039999998,147.05126999999993,139.10253900000043,114.74365200000011,172.3076170000004,114.61523400000078
7,81.9228520000006,18.077147999999397,99.23095699999976,81.41015599999992,111.79492200000004,118.20507799999996,114.10253900000043,120.38476599999922,125.89746099999957,144.61523400000078,131.6665039999998,110.12841800000024,167.82031300000017,115.12841800000024
8,71.2822270000006,3.9741210000001956,93.3334960000002,71.6665039999998,106.15380900000036,119.35888699999941,116.79492200000004,121.9228520000006,122.94873000000007,132.94873000000007,118.84619099999964,103.3334960000002,160.0,115.38476599999922
9,62.30761700000039,-8.974365000000034,86.53857400000015,64.61523400000078,102.05126999999993,118.7177729999994,117.17968800000017,121.53857400000015,119.35888699999941,117.82031300000017,106.9228520000006,97.43603499999972,151.53857400000015,115.25634799999989
10,60.38476599999922,-14.487060999999812,82.69238299999961,64.48730499999965,102.30761700000039,116.6665039999998,115.38476599999922,119.48730499999965,117.82031300000017,109.23095699999976,102.30761700000039,95.89746099999957,146.53857400000015,115.25634799999989
11,66.9228520000006,-10.512939000000188,83.7177729999994,71.2822270000006,108.20507799999996,114.48730499999965,113.84619099999964,117.43603499999972,120.25634799999989,112.82031300000017,106.9228520000006,99.10253900000043,147.43603499999972,115.38476599999922
12,78.58984400000008,-0.256347999999889,88.46142599999985,80.38476599999922,117.30761700000039,113.84619099999964,114.74365200000011,117.69238299999961,126.41015599999992,125.25634799999989,117.30761700000039,104.35888699999941,153.3334960000002,115.51269500000035
13,89.23095699999976,9.615234000000783,93.3334960000002,86.2822270000006,124.87158199999976,115.12841800000024,118.46142599999985,121.0258789999998,133.20507799999996,137.3076170000004,126.15380900000036,107.94873000000007,159.7436520000001,115.51269500000035
14,93.20507799999996,13.717772999999397,95.0,85.64111300000059,127.05126999999993,116.6665039999998,122.69238299999961,126.0258789999998,137.17968800000017,140.6411130000006,128.20507799999996,108.0771479999994,161.79492200000004,115.25634799999989
15,88.9741210000002,10.897460999999566,92.56396500000028,79.23095699999976,123.3334960000002,117.17968800000017,124.61523400000078,129.87158199999976,136.41015599999992,134.87158199999976,123.20507799999996,105.89746099999957,157.6923829999996,114.48730499999965
16,79.87158199999976,5.0,88.58984400000008,71.41015599999992,117.30761700000039,116.41015599999992,123.0771479999994,130.89746099999957,132.43603499999972,126.2822270000006,115.76904300000024,103.58984400000008,150.12841800000024,113.20507799999996
17,72.30761700000039,1.4101559999999154,86.79492200000004,67.30761700000039,113.46142599999985,115.64111300000059,119.87158199999976,129.87158199999976,129.48730499999965,122.82031300000017,112.56396500000028,104.10253900000043,144.23095699999976,111.9228520000006
18,71.6665039999998,2.4360349999997197,89.61523400000078,68.58984400000008,112.69238299999961,115.38476599999922,117.69238299999961,129.10253900000043,130.6411130000006,128.3334960000002,116.9228520000006,107.94873000000007,143.46142599999985,111.0258789999998
19,77.94873000000007,6.410155999999915,95.76904300000024,72.82031300000017,112.43603499999972,115.64111300000059,117.05126999999993,129.3588869999994,135.51269500000035,140.12841800000024,125.89746099999957,113.20507799999996,147.17968800000017,110.64111300000059
20,86.2822270000006,9.230956999999762,100.64111300000059,75.0,110.51269500000035,116.0258789999998,116.41015599999992,130.12841800000024,140.6411130000006,151.6665039999998,133.3334960000002,116.41015599999992,150.89746099999957,110.25634799999989
21,90.51269500000035,8.589844000000085,101.15380900000036,72.94873000000007,107.69238299999961,116.53857400000015,114.87158199999976,130.0,143.46142599999985,157.05126999999993,135.2563479999999,115.64111300000059,151.53857400000015,110.25634799999989
22,88.58984400000008,6.282227000000603,98.0771479999994,69.35888699999941,107.69238299999961,116.9228520000006,113.58984400000008,128.84619099999964,143.7177729999994,153.9741210000002,133.0771479999994,112.05126999999993,150.0,111.15380900000036
23,83.3334960000002,5.512695000000349,94.74365200000011,67.82031300000017,112.17968800000017,117.05126999999993,114.35888699999941,128.3334960000002,143.0771479999994,145.51269500000035,130.76904300000024,108.7177729999994,149.10253900000043,112.82031300000017
24,78.84619099999964,7.56396500000028,93.20507799999996,68.7177729999994,118.84619099999964,116.53857400000015,118.0771479999994,129.23095699999976,142.82031300000017,136.79492200000004,130.6411130000006,107.94873000000007,150.0,113.9741210000002
25,76.53857400000015,9.230956999999762,93.46142599999985,69.48730499999965,121.9228520000006,115.64111300000059,123.0771479999994,131.0258789999998,142.56396500000028,132.43603499999972,131.41015599999992,109.48730499999965,150.12841800000024,113.58984400000008
26,74.87158199999976,6.538574000000153,93.20507799999996,67.30761700000039,117.69238299999961,115.12841800000024,126.2822270000006,131.2822270000006,140.89746099999957,132.6923829999996,130.2563479999999,110.89746099999957,145.76904300000024,112.05126999999993
27,71.0258789999998,-1.6665039999998044,90.76904300000024,61.666503999999804,107.43603499999972,115.38476599999922,125.64111300000059,128.46142599999985,137.17968800000017,134.10253900000043,125.76904300000024,110.0,136.2822270000006,110.89746099999957
28,64.48730499999965,-11.794922000000042,86.15380900000036,55.0,96.9228520000006,115.76904300000024,121.2822270000006,123.3334960000002,132.3076170000004,132.6923829999996,119.23095699999976,106.6665039999998,125.0,110.89746099999957
29,57.05126999999993,-19.10253899999998,81.9228520000006,50.64111300000059,92.17968800000017,116.0258789999998,116.2822270000006,119.10253900000043,127.69238299999961,127.43603499999972,113.7177729999994,103.0771479999994,116.53857400000015,111.9228520000006
30,51.53857400000015,-20.512939000000188,80.0,50.51269500000035,95.89746099999957,115.89746099999957,114.35888699999941,118.20507799999996,124.87158199999976,121.0258789999998,111.2822270000006,100.76904300000024,112.82031300000017,113.3334960000002
31,49.35888699999941,-16.666747999999643,80.51269500000035,53.974121000000196,105.51269500000035,115.76904300000024,116.6665039999998,121.0258789999998,124.35888699999941,117.69238299999961,112.05126999999993,100.0,112.82031300000017,113.9741210000002
32,50.0,-11.28198199999997,81.79492200000004,58.333496000000196,114.87158199999976,115.89746099999957,121.6665039999998,125.25634799999989,125.51269500000035,119.61523400000078,113.9741210000002,99.87158199999976,113.9741210000002,113.3334960000002
33,51.79492200000004,-7.692382999999609,82.94873000000007,61.025878999999804,118.7177729999994,116.41015599999992,126.0258789999998,128.3334960000002,128.0771479999994,126.0258789999998,115.25634799999989,99.61523400000078,114.48730499999965,111.6665039999998
34,54.61523400000078,-6.281981999999971,84.35888699999941,62.30761700000039,116.9228520000006,116.79492200000004,128.20507799999996,129.10253900000043,131.6665039999998,134.23095699999976,116.2822270000006,100.76904300000024,115.25634799999989,110.38476599999922
35,59.35888699999941,-4.487060999999812,87.56396500000028,64.74365200000011,113.84619099999964,116.79492200000004,128.46142599999985,129.3588869999994,136.53857400000015,142.05126999999993,119.61523400000078,104.61523400000078,117.82031300000017,110.76904300000024
36,65.89746099999957,0.38476599999921746,93.20507799999996,70.38476599999922,113.7177729999994,116.15380900000036,128.3334960000002,131.15380900000036,142.82031300000017,148.0771479999994,126.53857400000015,110.76904300000024,123.20507799999996,112.56396500000028
37,72.17968800000017,8.205077999999958,100.0,78.84619099999964,117.43603499999972,115.0,128.58984400000008,135.2563479999999,149.23095699999976,151.0258789999998,134.23095699999976,116.9228520000006,129.23095699999976,114.48730499999965
38,75.12841800000024,14.358886999999413,104.74365200000011,85.89746099999957,121.15380900000036,113.84619099999964,128.58984400000008,139.23095699999976,152.56396500000028,149.3588869999994,137.05126999999993,120.25634799999989,131.41015599999992,115.51269500000035
39,72.43603499999972,13.846190999999635,104.23095699999976,86.15380900000036,120.51269500000035,113.20507799999996,126.2822270000006,139.7436520000001,149.3588869999994,142.3076170000004,130.89746099999957,118.3334960000002,125.76904300000024,115.25634799999989
40,64.35888699999941,5.0,97.94873000000007,77.69238299999961,113.46142599999985,113.46142599999985,121.41015599999992,135.2563479999999,139.10253900000043,130.89746099999957,117.05126999999993,111.41015599999992,112.17968800000017,114.23095699999976
41,54.48730499999965,-8.205077999999958,89.61523400000078,64.10253900000043,102.82031300000017,114.10253900000043,115.89746099999957,128.0771479999994,125.89746099999957,119.23095699999976,101.9228520000006,102.69238299999961,95.89746099999957,113.3334960000002
42,47.56396500000028,-19.10253899999998,84.10253900000043,53.20507799999996,94.23095699999976,114.87158199999976,112.56396500000028,122.69238299999961,116.15380900000036,112.17968800000017,93.20507799999996,97.05126999999993,84.23095699999976,113.20507799999996
43,45.51269500000035,-23.333252000000357,82.82031300000017,50.897460999999566,92.56396500000028,115.51269500000035,113.3334960000002,122.05126999999993,114.48730499999965,112.56396500000028,94.10253900000043,96.53857400000015,80.89746099999957,114.23095699999976
44,45.76904300000024,-21.923095999999987,82.82031300000017,56.9228520000006,97.43603499999972,116.0258789999998,117.17968800000017,125.25634799999989,120.12841800000024,117.82031300000017,100.76904300000024,99.48730499999965,84.48730499999965,115.64111300000059
45,43.846190999999635,-19.358886999999868,80.25634799999989,65.0,103.58984400000008,116.15380900000036,121.2822270000006,128.7177729999994,128.3334960000002,122.43603499999972,106.2822270000006,101.9228520000006,89.48730499999965,116.53857400000015
46,38.333496000000196,-19.358886999999868,74.10253900000043,67.94873000000007,105.12841800000024,115.64111300000059,122.82031300000017,129.3588869999994,133.0771479999994,121.53857400000015,105.89746099999957,101.41015599999992,91.2822270000006,115.89746099999957
47,32.56396500000028,-21.666747999999643,67.82031300000017,62.56396500000028,100.51269500000035,114.87158199999976,120.76904300000024,127.43603499999972,132.56396500000028,116.15380900000036,100.25634799999989,98.46142599999985,89.23095699999976,113.84619099999964
48,31.538574000000153,-23.076904000000013,65.89746099999957,53.20507799999996,94.35888699999941,114.35888699999941,116.9228520000006,125.64111300000059,129.23095699999976,111.41015599999992,94.23095699999976,95.64111300000059,85.64111300000059,111.2822270000006
49,37.56396500000028,-20.89746100000002,70.25634799999989,47.43603499999972,92.82031300000017,114.35888699999941,114.35888699999941,126.53857400000015,127.43603499999972,112.30761700000039,92.30761700000039,95.25634799999989,82.94873000000007,109.35888699999941
50,48.0771479999994,-15.512939000000188,78.20507799999996,50.12841800000024,98.20507799999996,115.12841800000024,115.89746099999957,130.12841800000024,130.0,119.61523400000078,95.25634799999989,97.69238299999961,82.94873000000007,109.10253900000043
51,57.82031300000017,-9.61547900000005,85.25634799999989,59.61523400000078,107.05126999999993,116.0258789999998,121.2822270000006,134.7436520000001,136.15380900000036,129.87158199999976,100.25634799999989,101.41015599999992,85.51269500000035,110.76904300000024
52,62.43603499999972,-6.281981999999971,88.3334960000002,69.48730499999965,114.10253900000043,116.79492200000004,127.82031300000017,137.82031300000017,142.6923829999996,137.6923829999996,104.35888699999941,104.23095699999976,89.74365200000011,113.46142599999985
53,61.666503999999804,-6.41015600000037,87.56396500000028,74.23095699999976,115.38476599999922,116.9228520000006,132.43603499999972,138.20507799999996,146.53857400000015,140.0,105.76904300000024,104.61523400000078,93.84619099999964,115.64111300000059
54,58.20507799999996,-8.58984399999963,85.64111300000059,73.0771479999994,111.6665039999998,116.2822270000006,132.82031300000017,136.41015599999992,146.0258789999998,137.3076170000004,105.12841800000024,103.20507799999996,96.6665039999998,116.53857400000015
55,55.25634799999989,-10.1281740000004,84.35888699999941,68.9741210000002,106.2822270000006,115.38476599999922,128.7177729999994,133.7177729999994,142.3076170000004,133.0771479999994,103.46142599999985,101.0258789999998,97.43603499999972,116.15380900000036
56,54.35888699999941,-9.230713000000378,83.58984400000008,65.76904300000024,102.43603499999972,114.23095699999976,122.17968800000017,132.17968800000017,137.6923829999996,130.6411130000006,101.9228520000006,100.0,95.76904300000024,115.12841800000024
57,55.0,-7.051270000000386,82.17968800000017,65.38476599999922,101.79492200000004,113.58984400000008,116.2822270000006,131.9228520000006,134.3588869999994,131.41015599999992,100.89746099999957,100.64111300000059,92.30761700000039,113.7177729999994
58,56.153809000000365,-6.41015600000037,78.84619099999964,66.6665039999998,103.20507799999996,113.58984400000008,113.58984400000008,132.05126999999993,132.43603499999972,133.7177729999994,100.38476599999922,101.79492200000004,87.82031300000017,112.17968800000017
59,56.53857400000015,-9.358886999999868,74.35888699999941,67.94873000000007,104.23095699999976,114.10253900000043,114.23095699999976,131.41015599999992,131.15380900000036,134.23095699999976,100.38476599999922,101.9228520000006,83.0771479999994,111.2822270000006
60,55.64111300000059,-15.38452099999995,71.15380900000036,68.3334960000002,103.3334960000002,115.0,116.2822270000006,129.87158199999976,129.61523400000078,130.76904300000024,100.25634799999989,100.25634799999989,78.58984400000008,112.17968800000017
61,53.589844000000085,-21.28198199999997,70.38476599999922,69.23095699999976,101.53857400000015,115.64111300000059,117.56396500000028,128.9741210000002,128.46142599999985,124.10253900000043,100.12841800000024,97.43603499999972,74.74365200000011,114.87158199999976
62,50.897460999999566,-23.333252000000357,71.9228520000006,71.15380900000036,100.76904300000024,115.12841800000024,117.30761700000039,129.61523400000078,128.7177729999994,117.82031300000017,99.87158199999976,94.87158199999976,71.9228520000006,117.69238299999961
63,47.43603499999972,-20.89746100000002,72.94873000000007,72.56396500000028,101.41015599999992,113.58984400000008,116.41015599999992,131.15380900000036,130.51269500000035,115.38476599999922,98.7177729999994,93.20507799999996,70.25634799999989,118.9741210000002
64,42.82031300000017,-17.30761700000039,71.6665039999998,70.64111300000059,102.05126999999993,112.43603499999972,116.0258789999998,131.79492200000004,132.3076170000004,117.30761700000039,95.51269500000035,92.30761700000039,70.12841800000024,117.17968800000017
65,38.46142599999985,-17.051270000000386,68.3334960000002,65.0,101.79492200000004,113.0771479999994,116.6665039999998,130.12841800000024,132.05126999999993,120.51269500000035,90.51269500000035,91.53857400000015,71.15380900000036,113.46142599999985
66,36.53857400000015,-21.666747999999643,65.25634799999989,58.0771479999994,101.2822270000006,115.25634799999989,117.43603499999972,126.53857400000015,129.10253900000043,120.89746099999957,85.38476599999922,90.38476599999922,72.30761700000039,109.87158199999976
67,37.05126999999993,-29.10253899999998,63.974121000000196,53.333496000000196,100.89746099999957,116.9228520000006,116.6665039999998,121.6665039999998,123.58984400000008,116.6665039999998,81.41015599999992,88.20507799999996,71.53857400000015,109.23095699999976
68,38.0771479999994,-35.51293900000019,64.35888699999941,52.17968800000017,99.48730499999965,116.41015599999992,113.9741210000002,116.6665039999998,116.53857400000015,108.7177729999994,78.3334960000002,85.25634799999989,67.30761700000039,112.30761700000039
69,37.43603499999972,-38.20507799999996,65.25634799999989,53.333496000000196,95.64111300000059,113.7177729999994,110.64111300000059,112.69238299999961,110.38476599999922,100.64111300000059,75.38476599999922,83.0771479999994,60.64111300000059,117.43603499999972
70,35.897460999999566,-35.89746100000002,66.41015599999992,55.38476599999922,90.51269500000035,110.51269500000035,108.9741210000002,111.41015599999992,107.94873000000007,96.2822270000006,73.9741210000002,83.46142599999985,55.64111300000059,121.41015599999992
71,36.2822270000006,-29.487060999999812,68.3334960000002,57.69238299999961,88.46142599999985,109.10253900000043,110.64111300000059,113.7177729999994,111.0258789999998,98.3334960000002,76.2822270000006,87.17968800000017,56.410155999999915,121.6665039999998
72,40.25634799999989,-21.666747999999643,72.30761700000039,60.76904300000024,92.30761700000039,110.0,114.23095699999976,119.10253900000043,118.20507799999996,106.15380900000036,82.43603499999972,92.82031300000017,62.56396500000028,118.58984400000008
73,46.025878999999804,-16.153809000000365,77.43603499999972,63.846190999999635,100.64111300000059,112.56396500000028,116.6665039999998,125.12841800000024,125.76904300000024,116.0258789999998,89.74365200000011,98.20507799999996,69.87158199999976,115.0
74,51.153809000000365,-14.230713000000378,82.17968800000017,65.89746099999957,109.87158199999976,114.74365200000011,116.2822270000006,129.10253900000043,130.89746099999957,123.7177729999994,95.12841800000024,101.15380900000036,74.74365200000011,112.82031300000017
75,54.61523400000078,-13.846190999999635,84.74365200000011,66.6665039999998,116.15380900000036,115.25634799999989,114.87158199999976,130.76904300000024,133.7177729999994,128.20507799999996,98.0771479999994,101.2822270000006,76.41015599999992,112.43603499999972
76,57.30761700000039,-11.923095999999987,85.64111300000059,67.69238299999961,118.3334960000002,114.48730499999965,115.89746099999957,131.79492200000004,136.41015599999992,131.0258789999998,101.0258789999998,100.51269500000035,77.56396500000028,112.30761700000039
77,60.64111300000059,-6.538574000000153,86.41015599999992,70.25634799999989,117.43603499999972,113.9741210000002,121.41015599999992,134.10253900000043,140.76904300000024,133.9741210000002,105.89746099999957,101.0258789999998,80.38476599999922,112.17968800000017
78,65.12841800000024,1.6665039999998044,88.0771479999994,74.48730499999965,116.15380900000036,115.0,129.7436520000001,137.94873000000007,145.76904300000024,136.9228520000006,112.05126999999993,103.58984400000008,84.48730499999965,111.9228520000006
79,68.84619099999964,9.487304999999651,89.74365200000011,78.9741210000002,115.76904300000024,116.79492200000004,136.15380900000036,140.76904300000024,148.20507799999996,138.20507799999996,116.2822270000006,106.53857400000015,87.69238299999961,112.05126999999993
80,68.9741210000002,12.692382999999609,89.10253900000043,80.25634799999989,115.38476599999922,117.82031300000017,136.2822270000006,139.61523400000078,145.2563479999999,135.6411130000006,115.0,106.9228520000006,87.30761700000039,112.05126999999993
81,62.82031300000017,7.179688000000169,84.61523400000078,75.12841800000024,111.2822270000006,117.17968800000017,129.10253900000043,133.20507799999996,136.41015599999992,128.0771479999994,106.2822270000006,103.0771479999994,81.2822270000006,111.41015599999992
82,51.153809000000365,-6.666747999999643,76.6665039999998,63.46142599999985,101.6665039999998,115.25634799999989,118.0771479999994,123.3334960000002,124.74365200000011,117.69238299999961,92.43603499999972,95.25634799999989,70.64111300000059,110.38476599999922
83,39.23095699999976,-22.435790999999426,68.3334960000002,50.897460999999566,90.0,113.46142599999985,108.58984400000008,114.61523400000078,115.12841800000024,109.74365200000011,80.25634799999989,87.05126999999993,60.12841800000024,109.48730499999965
84,33.7177729999994,-30.38452099999995,64.35888699999941,45.51269500000035,83.46142599999985,113.3334960000002,104.61523400000078,111.79492200000004,112.05126999999993,108.84619099999964,77.05126999999993,82.56396500000028,56.025878999999804,108.9741210000002
85,37.56396500000028,-25.769286999999622,65.89746099999957,49.87158199999976,86.15380900000036,114.74365200000011,106.41015599999992,115.0,115.12841800000024,113.9741210000002,83.46142599999985,83.20507799999996,60.12841800000024,109.61523400000078
86,45.897460999999566,-13.71801800000003,69.87158199999976,58.589844000000085,94.61523400000078,116.41015599999992,110.51269500000035,119.48730499999965,119.23095699999976,118.58984400000008,92.43603499999972,86.0258789999998,65.89746099999957,111.2822270000006
87,50.51269500000035,-5.256347999999889,71.41015599999992,63.46142599999985,101.53857400000015,116.6665039999998,113.20507799999996,120.64111300000059,118.9741210000002,116.15380900000036,94.35888699999941,87.30761700000039,64.61523400000078,113.0771479999994
88,47.43603499999972,-6.794922000000042,68.46142599999985,61.025878999999804,103.20507799999996,115.64111300000059,113.58984400000008,117.94873000000007,114.23095699999976,106.6665039999998,86.2822270000006,85.89746099999957,52.94873000000007,114.23095699999976
89,40.897460999999566,-15.0,64.61523400000078,55.76904300000024,101.41015599999992,114.61523400000078,113.3334960000002,115.51269500000035,110.25634799999989,97.43603499999972,74.23095699999976,84.10253900000043,36.79492200000004,114.48730499999965
90,38.7177729999994,-20.641113000000132,64.48730499999965,54.35888699999941,101.15380900000036,115.12841800000024,114.61523400000078,117.69238299999961,112.94873000000007,96.41015599999992,67.94873000000007,85.38476599999922,27.17968800000017,114.35888699999941
91,45.12841800000024,-16.794922000000042,70.12841800000024,60.0,104.61523400000078,117.05126999999993,117.43603499999972,124.35888699999941,121.79492200000004,106.0258789999998,72.56396500000028,90.51269500000035,31.538574000000153,114.10253900000043
92,57.43603499999972,-4.743652000000111,78.84619099999964,69.87158199999976,110.25634799999989,118.58984400000008,119.87158199999976,131.2822270000006,131.0258789999998,121.0258789999998,85.76904300000024,97.05126999999993,49.48730499999965,113.46142599999985
93,69.10253900000043,7.692382999999609,85.38476599999922,77.69238299999961,114.48730499999965,117.94873000000007,120.38476599999922,133.9741210000002,134.23095699999976,132.94873000000007,100.76904300000024,102.17968800000017,73.20507799999996,112.82031300000017
94,74.61523400000078,12.43603499999972,86.9228520000006,78.9741210000002,114.48730499999965,114.74365200000011,119.10253900000043,130.51269500000035,129.48730499999965,135.6411130000006,111.2822270000006,104.23095699999976,93.0771479999994,112.17968800000017
95,73.3334960000002,7.56396500000028,84.35888699999941,73.9741210000002,109.23095699999976,110.51269500000035,117.30761700000039,123.46142599999985,120.64111300000059,129.3588869999994,114.87158199999976,103.7177729999994,103.7177729999994,111.79492200000004
96,69.48730499999965,-2.4360349999997197,81.53857400000015,66.9228520000006,100.0,107.69238299999961,115.76904300000024,117.56396500000028,114.23095699999976,119.61523400000078,113.84619099999964,101.79492200000004,106.79492200000004,111.6665039999998
97,68.9741210000002,-9.61547900000005,81.9228520000006,62.69238299999961,90.89746099999957,108.20507799999996,115.25634799999989,116.0258789999998,114.74365200000011,112.94873000000007,112.56396500000028,100.38476599999922,108.7177729999994,111.79492200000004
98,75.38476599999922,-9.487060999999812,85.89746099999957,63.0771479999994,86.53857400000015,111.9228520000006,116.53857400000015,119.23095699999976,121.6665039999998,113.46142599999985,115.12841800000024,100.89746099999957,115.64111300000059,112.17968800000017
99,86.15380900000036,-3.5898440000000846,91.6665039999998,66.41015599999992,89.48730499999965,116.6665039999998,119.35888699999941,124.23095699999976,130.38476599999922,120.89746099999957,121.6665039999998,103.46142599999985,128.3334960000002,112.69238299999961
100,94.87158199999976,2.4360349999997197,96.41015599999992,68.84619099999964,97.69238299999961,119.74365200000011,122.56396500000028,127.94873000000007,135.6411130000006,131.2822270000006,128.58984400000008,106.9228520000006,142.17968800000017,112.82031300000017
101,96.9228520000006,4.230956999999762,98.20507799999996,68.46142599999985,106.6665039999998,120.0,125.0,129.87158199999976,135.38476599999922,139.87158199999976,132.6923829999996,109.48730499999965,151.79492200000004,113.0771479999994
102,93.58984400000008,2.9487300000000687,98.20507799999996,66.9228520000006,112.82031300000017,118.0771479999994,126.41015599999992,131.0258789999998,132.43603499999972,144.23095699999976,134.10253900000043,111.0258789999998,155.0,113.46142599999985
103,89.74365200000011,2.6923829999996087,98.20507799999996,67.56396500000028,115.25634799999989,116.2822270000006,127.56396500000028,133.20507799999996,131.53857400000015,145.0,135.6411130000006,111.9228520000006,154.3588869999994,113.9741210000002
104,88.46142599999985,5.0,97.94873000000007,70.12841800000024,114.10253900000043,115.76904300000024,128.0771479999994,135.2563479999999,134.3588869999994,143.0771479999994,137.3076170000004,111.15380900000036,152.3076170000004,113.9741210000002
105,86.79492200000004,6.538574000000153,95.38476599999922,70.12841800000024,109.74365200000011,116.53857400000015,126.53857400000015,134.23095699999976,137.82031300000017,138.20507799999996,136.2822270000006,107.56396500000028,148.0771479999994,113.20507799999996
106,81.15380900000036,3.5898440000000846,89.23095699999976,63.974121000000196,103.58984400000008,117.17968800000017,122.17968800000017,128.46142599999985,137.05126999999993,131.6665039999998,130.2563479999999,101.6665039999998,140.12841800000024,112.82031300000017
107,73.20507799999996,-2.4360349999997197,82.17968800000017,54.102539000000434,98.20507799999996,116.79492200000004,117.17968800000017,120.12841800000024,132.05126999999993,126.9228520000006,122.56396500000028,96.79492200000004,130.76904300000024,113.58984400000008
108,68.7177729999994,-6.025634999999966,79.35888699999941,47.56396500000028,96.6665039999998,115.38476599999922,114.87158199999976,114.74365200000011,127.69238299999961,127.69238299999961,119.35888699999941,96.9228520000006,126.0258789999998,114.87158199999976
109,71.9228520000006,-3.846190999999635,83.3334960000002,49.102539000000434,99.23095699999976,114.35888699999941,117.05126999999993,117.17968800000017,129.10253900000043,134.23095699999976,123.46142599999985,102.43603499999972,128.58984400000008,115.51269500000035
110,81.15380900000036,2.3076170000003913,91.6665039999998,56.79492200000004,103.20507799999996,114.61523400000078,122.82031300000017,126.9228520000006,137.05126999999993,142.82031300000017,131.6665039999998,110.12841800000024,135.2563479999999,114.87158199999976
111,89.10253900000043,7.692382999999609,99.10253900000043,64.23095699999976,105.0,115.76904300000024,128.9741210000002,138.3334960000002,147.17968800000017,148.84619099999964,136.9228520000006,115.51269500000035,139.3588869999994,113.84619099999964
112,89.10253900000043,7.820313000000169,100.89746099999957,66.15380900000036,102.82031300000017,116.6665039999998,131.6665039999998,143.9741210000002,153.0771479999994,149.3588869999994,134.23095699999976,115.12841800000024,135.76904300000024,112.69238299999961
113,80.38476599999922,1.5385740000001533,95.89746099999957,61.2822270000006,97.43603499999972,116.6665039999998,128.46142599999985,139.61523400000078,150.6411130000006,143.58984400000008,124.23095699999976,108.9741210000002,123.9741210000002,111.79492200000004
114,68.20507799999996,-8.205077999999958,87.05126999999993,53.846190999999635,91.0258789999998,116.0258789999998,120.64111300000059,127.56396500000028,140.89746099999957,133.58984400000008,112.43603499999972,100.38476599999922,108.9741210000002,111.15380900000036
115,61.025878999999804,-15.897461000000021,79.87158199999976,50.38476599999922,88.0771479999994,115.25634799999989,112.69238299999961,115.51269500000035,129.10253900000043,124.87158199999976,106.41015599999992,94.61523400000078,98.3334960000002,111.15380900000036
116,64.10253900000043,-15.641113000000132,78.84619099999964,55.12841800000024,92.30761700000039,114.61523400000078,110.38476599999922,111.79492200000004,122.56396500000028,123.7177729999994,109.87158199999976,95.51269500000035,97.30761700000039,111.6665039999998
117,75.51269500000035,-6.923095999999987,84.10253900000043,66.53857400000015,103.46142599999985,114.48730499999965,115.64111300000059,118.7177729999994,125.51269500000035,132.6923829999996,120.76904300000024,102.82031300000017,105.38476599999922,112.56396500000028
118,87.05126999999993,4.871581999999762,91.41015599999992,77.43603499999972,115.38476599999922,114.61523400000078,124.74365200000011,131.0258789999998,134.87158199999976,146.9228520000006,130.89746099999957,111.79492200000004,116.2822270000006,113.58984400000008
119,90.25634799999989,11.025878999999804,95.76904300000024,80.76904300000024,119.61523400000078,114.74365200000011,131.0258789999998,140.12841800000024,142.56396500000028,156.2822270000006,132.6923829999996,116.41015599999992,121.41015599999992,114.10253900000043
120,83.3334960000002,7.307617000000391,94.23095699999976,75.51269500000035,112.43603499999972,114.48730499999965,129.87158199999976,140.38476599999922,141.53857400000015,153.46142599999985,125.12841800000024,113.84619099999964,117.17968800000017,113.9741210000002
121,71.53857400000015,-3.077147999999397,88.58984400000008,66.79492200000004,98.9741210000002,114.23095699999976,122.69238299999961,132.3076170000004,131.9228520000006,139.61523400000078,114.87158199999976,106.6665039999998,106.79492200000004,112.94873000000007
122,62.94873000000007,-11.666747999999643,83.20507799999996,61.9228520000006,88.58984400000008,114.23095699999976,115.12841800000024,121.79492200000004,120.51269500000035,124.10253900000043,109.61523400000078,100.25634799999989,96.9228520000006,111.79492200000004
123,61.9228520000006,-12.435790999999426,81.41015599999992,64.10253900000043,88.46142599999985,114.61523400000078,112.43603499999972,115.0,114.87158199999976,116.41015599999992,111.53857400000015,98.58984400000008,93.3334960000002,111.6665039999998
124,66.9228520000006,-5.769286999999622,82.94873000000007,70.38476599999922,97.69238299999961,115.38476599999922,115.25634799999989,114.61523400000078,117.17968800000017,119.61523400000078,115.89746099999957,101.0258789999998,96.2822270000006,113.46142599999985
125,72.94873000000007,2.0512699999999313,84.48730499999965,75.0,108.58984400000008,116.0258789999998,120.25634799999989,118.20507799999996,123.58984400000008,128.84619099999964,116.79492200000004,103.84619099999964,101.6665039999998,116.15380900000036
126,75.0,4.743652000000111,83.84619099999964,74.10253900000043,113.0771479999994,116.0258789999998,123.20507799999996,121.15380900000036,128.20507799999996,135.89746099999957,112.17968800000017,103.58984400000008,104.23095699999976,117.69238299999961
127,71.79492200000004,0.769043000000238,81.15380900000036,69.48730499999965,109.48730499999965,115.38476599999922,122.43603499999972,120.51269500000035,127.82031300000017,136.15380900000036,104.87158199999976,100.12841800000024,101.41015599999992,116.9228520000006
128,66.41015599999992,-5.769286999999622,78.20507799999996,65.64111300000059,102.17968800000017,114.74365200000011,118.84619099999964,117.30761700000039,124.48730499999965,131.53857400000015,99.87158199999976,96.0258789999998,95.89746099999957,114.10253900000043
129,63.7177729999994,-7.948729999999614,77.30761700000039,66.2822270000006,97.56396500000028,114.61523400000078,115.38476599999922,115.38476599999922,122.30761700000039,128.0771479999994,100.12841800000024,94.48730499999965,92.69238299999961,111.15380900000036
130,66.9228520000006,-1.7949220000000423,79.48730499999965,70.64111300000059,98.0771479999994,115.51269500000035,114.74365200000011,117.56396500000028,124.61523400000078,130.12841800000024,105.89746099999957,97.17968800000017,95.12841800000024,109.61523400000078
131,74.87158199999976,10.641113000000587,83.9741210000002,75.25634799999989,101.79492200000004,116.6665039999998,117.05126999999993,123.3334960000002,130.51269500000035,136.79492200000004,114.61523400000078,103.0771479999994,102.05126999999993,110.12841800000024
132,82.56396500000028,22.56396500000028,88.3334960000002,75.51269500000035,105.12841800000024,117.69238299999961,120.12841800000024,129.61523400000078,136.2822270000006,142.3076170000004,122.17968800000017,108.46142599999985,109.48730499999965,112.05126999999993
133,84.74365200000011,27.43603499999972,89.87158199999976,69.87158199999976,105.89746099999957,118.0771479999994,121.0258789999998,133.46142599999985,138.0771479999994,141.79492200000004,125.51269500000035,110.0,113.0771479999994,114.23095699999976
134,80.12841800000024,23.846190999999635,88.3334960000002,60.64111300000059,104.35888699999941,117.94873000000007,119.61523400000078,134.10253900000043,135.76904300000024,135.51269500000035,123.84619099999964,107.17968800000017,111.15380900000036,115.12841800000024
135,71.9228520000006,15.769043000000238,85.64111300000059,52.56396500000028,102.82031300000017,117.94873000000007,118.0771479999994,133.20507799999996,132.56396500000028,128.58984400000008,118.58984400000008,102.43603499999972,105.64111300000059,114.48730499999965
136,65.51269500000035,8.461425999999847,83.9741210000002,49.35888699999941,102.43603499999972,118.0771479999994,118.20507799999996,131.6665039999998,131.9228520000006,126.53857400000015,112.17968800000017,99.10253900000043,99.74365200000011,113.20507799999996
137,63.46142599999985,5.0,83.84619099999964,50.51269500000035,102.05126999999993,118.0771479999994,118.9741210000002,129.48730499999965,134.10253900000043,130.0,107.30761700000039,98.20507799999996,95.12841800000024,112.30761700000039
138,65.38476599999922,5.256347999999889,84.23095699999976,52.69238299999961,101.0258789999998,117.43603499999972,118.7177729999994,125.76904300000024,136.2822270000006,135.2563479999999,105.51269500000035,99.23095699999976,92.43603499999972,112.17968800000017
139,68.84619099999964,8.205077999999958,84.48730499999965,53.333496000000196,100.76904300000024,116.15380900000036,116.2822270000006,121.2822270000006,135.89746099999957,138.0771479999994,107.30761700000039,100.76904300000024,91.6665039999998,112.56396500000028
140,72.05126999999993,13.333496000000196,85.0,52.69238299999961,102.94873000000007,114.61523400000078,112.94873000000007,118.3334960000002,133.7177729999994,137.56396500000028,112.43603499999972,102.05126999999993,93.20507799999996,112.94873000000007
141,73.7177729999994,19.871581999999762,86.9228520000006,52.56396500000028,106.53857400000015,113.84619099999964,111.15380900000036,118.9741210000002,131.79492200000004,135.38476599999922,118.7177729999994,103.0771479999994,96.9228520000006,113.58984400000008
142,73.7177729999994,25.0,89.87158199999976,53.589844000000085,107.05126999999993,114.23095699999976,112.05126999999993,122.56396500000028,131.41015599999992,133.58984400000008,122.82031300000017,104.10253900000043,100.89746099999957,113.9741210000002
143,72.17968800000017,25.51269500000035,92.94873000000007,54.48730499999965,101.53857400000015,115.25634799999989,114.87158199999976,126.53857400000015,131.9228520000006,132.56396500000028,122.43603499999972,105.0,102.82031300000017,113.84619099999964
144,70.38476599999922,21.538574000000153,95.51269500000035,54.74365200000011,92.56396500000028,116.2822270000006,118.3334960000002,127.43603499999972,132.43603499999972,132.05126999999993,118.58984400000008,105.76904300000024,101.15380900000036,112.69238299999961
145,69.74365200000011,16.538574000000153,97.69238299999961,55.25634799999989,86.9228520000006,116.53857400000015,120.89746099999957,124.74365200000011,133.0771479999994,131.6665039999998,115.0,105.89746099999957,97.43603499999972,111.15380900000036
146,70.51269500000035,15.0,99.61523400000078,57.94873000000007,90.12841800000024,115.89746099999957,121.9228520000006,119.87158199999976,133.3334960000002,131.6665039999998,114.35888699999941,105.51269500000035,93.9741210000002,109.87158199999976
147,71.6665039999998,18.333496000000196,100.0,63.46142599999985,100.76904300000024,115.0,121.41015599999992,115.76904300000024,131.6665039999998,131.53857400000015,115.76904300000024,104.61523400000078,92.17968800000017,109.74365200000011
148,70.76904300000024,23.974121000000196,98.3334960000002,69.61523400000078,112.05126999999993,114.48730499999965,119.61523400000078,114.23095699999976,126.9228520000006,130.6411130000006,116.0258789999998,103.58984400000008,91.15380900000036,111.0258789999998
149,66.9228520000006,28.717772999999397,95.64111300000059,73.58984400000008,117.17968800000017,114.61523400000078,117.94873000000007,115.25634799999989,120.12841800000024,129.3588869999994,113.3334960000002,102.56396500000028,89.61523400000078,113.20507799999996
150,60.897460999999566,31.153809000000365,94.23095699999976,73.20507799999996,114.48730499999965,115.0,116.6665039999998,117.17968800000017,114.61523400000078,128.3334960000002,108.84619099999964,101.9228520000006,87.30761700000039,115.12841800000024
151,55.64111300000059,31.794922000000042,94.87158199999976,69.35888699999941,106.9228520000006,115.12841800000024,115.64111300000059,117.94873000000007,113.7177729999994,128.3334960000002,105.25634799999989,101.41015599999992,86.15380900000036,115.51269500000035
152,53.846190999999635,32.30761700000039,96.6665039999998,65.0,99.74365200000011,115.12841800000024,115.0,117.30761700000039,117.82031300000017,129.10253900000043,104.61523400000078,101.0258789999998,87.82031300000017,114.10253900000043
153,56.666503999999804,34.102539000000434,98.46142599999985,63.46142599999985,97.30761700000039,115.51269500000035,115.12841800000024,116.9228520000006,124.87158199999976,129.48730499999965,107.17968800000017,101.15380900000036,92.17968800000017,111.9228520000006
154,62.56396500000028,37.43603499999972,99.87158199999976,65.64111300000059,100.51269500000035,116.2822270000006,117.30761700000039,118.58984400000008,131.6665039999998,129.7436520000001,111.2822270000006,102.17968800000017,97.17968800000017,110.64111300000059
155,68.0771479999994,40.76904300000024,101.53857400000015,70.0,107.05126999999993,117.05126999999993,121.6665039999998,122.30761700000039,136.0258789999998,131.0258789999998,115.12841800000024,104.10253900000043,99.87158199999976,110.89746099999957
156,69.74365200000011,42.30761700000039,102.56396500000028,73.20507799999996,112.17968800000017,117.17968800000017,126.6665039999998,126.2822270000006,136.9228520000006,133.84619099999964,117.05126999999993,106.15380900000036,99.35888699999941,112.17968800000017
157,66.2822270000006,41.153809000000365,101.79492200000004,72.56396500000028,112.43603499999972,116.41015599999992,129.23095699999976,128.0771479999994,134.48730499999965,136.6665039999998,115.76904300000024,107.17968800000017,96.0258789999998,113.84619099999964
158,59.87158199999976,38.0771479999994,98.58984400000008,68.3334960000002,108.3334960000002,115.51269500000035,127.05126999999993,126.6665039999998,129.7436520000001,136.53857400000015,111.0258789999998,106.41015599999992,90.89746099999957,115.12841800000024
159,54.23095699999976,35.12841800000024,94.35888699999941,63.974121000000196,103.58984400000008,114.61523400000078,120.76904300000024,122.56396500000028,125.38476599999922,132.56396500000028,104.74365200000011,103.7177729999994,86.0258789999998,115.38476599999922
160,52.94873000000007,34.35888699999941,91.2822270000006,63.333496000000196,102.30761700000039,113.9741210000002,113.58984400000008,117.82031300000017,123.58984400000008,127.05126999999993,99.74365200000011,100.38476599999922,83.0771479999994,114.74365200000011
161,56.153809000000365,35.897460999999566,90.64111300000059,67.30761700000039,105.12841800000024,114.10253900000043,110.12841800000024,115.25634799999989,125.12841800000024,123.7177729999994,98.58984400000008,98.3334960000002,82.82031300000017,113.84619099999964
162,61.410155999999915,38.589844000000085,91.9228520000006,72.69238299999961,110.12841800000024,115.38476599999922,112.56396500000028,116.2822270000006,128.58984400000008,124.48730499999965,101.2822270000006,98.9741210000002,84.10253900000043,112.69238299999961
163,64.87158199999976,40.12841800000024,93.46142599999985,75.25634799999989,113.58984400000008,117.30761700000039,118.84619099999964,119.87158199999976,130.76904300000024,127.94873000000007,106.15380900000036,101.53857400000015,85.12841800000024,111.53857400000015
164,63.7177729999994,39.48730499999965,93.46142599999985,72.69238299999961,112.69238299999961,118.20507799999996,123.46142599999985,122.43603499999972,129.10253900000043,130.6411130000006,110.25634799999989,103.58984400000008,84.23095699999976,110.38476599999922
165,57.17968800000017,36.9228520000006,91.15380900000036,66.2822270000006,107.05126999999993,116.79492200000004,121.79492200000004,120.38476599999922,122.94873000000007,129.3588869999994,111.15380900000036,102.05126999999993,81.2822270000006,110.25634799999989
166,47.30761700000039,34.35888699999941,87.17968800000017,58.7177729999994,99.74365200000011,114.10253900000043,113.46142599999985,113.84619099999964,114.35888699999941,123.58984400000008,107.69238299999961,96.9228520000006,77.43603499999972,111.41015599999992
167,37.82031300000017,33.20507799999996,83.3334960000002,53.0771479999994,95.64111300000059,111.9228520000006,103.0771479999994,105.76904300000024,107.30761700000039,115.38476599999922,101.6665039999998,90.12841800000024,73.58984400000008,113.46142599999985
168,32.82031300000017,34.23095699999976,81.0258789999998,51.410155999999915,96.6665039999998,111.41015599999992,97.30761700000039,101.15380900000036,105.38476599999922,109.23095699999976,96.6665039999998,85.64111300000059,70.64111300000059,115.12841800000024
169,34.23095699999976,36.666503999999804,81.0258789999998,53.333496000000196,100.89746099999957,111.6665039999998,100.38476599999922,102.69238299999961,108.84619099999964,108.7177729999994,95.76904300000024,86.41015599999992,69.35888699999941,115.64111300000059
170,40.38476599999922,38.974121000000196,82.43603499999972,56.79492200000004,103.84619099999964,111.6665039999998,109.87158199999976,108.84619099999964,114.74365200000011,113.20507799999996,98.84619099999964,92.05126999999993,70.51269500000035,115.0
171,47.30761700000039,40.12841800000024,84.35888699999941,59.35888699999941,102.43603499999972,110.76904300000024,119.10253900000043,114.74365200000011,118.0771479999994,118.3334960000002,102.56396500000028,99.35888699999941,72.94873000000007,113.7177729999994
172,52.17968800000017,40.76904300000024,86.15380900000036,60.12841800000024,97.94873000000007,109.35888699999941,121.6665039999998,116.2822270000006,116.41015599999992,119.35888699999941,104.10253900000043,103.46142599999985,75.0,112.17968800000017
173,55.38476599999922,42.94873000000007,88.58984400000008,61.410155999999915,95.25634799999989,108.46142599999985,117.30761700000039,113.58984400000008,111.53857400000015,115.89746099999957,103.7177729999994,102.43603499999972,76.2822270000006,110.89746099999957
174,59.87158199999976,49.35888699999941,92.17968800000017,66.53857400000015,99.35888699999941,109.35888699999941,111.41015599999992,110.76904300000024,109.10253900000043,112.56396500000028,104.35888699999941,98.84619099999964,78.20507799999996,110.38476599999922
175,67.94873000000007,60.64111300000059,97.43603499999972,76.15380900000036,111.2822270000006,112.43603499999972,110.51269500000035,112.30761700000039,113.20507799999996,114.35888699999941,108.58984400000008,97.82031300000017,83.0771479999994,110.89746099999957
176,78.84619099999964,74.23095699999976,102.56396500000028,87.43603499999972,125.76904300000024,116.41015599999992,117.17968800000017,119.74365200000011,123.0771479999994,122.30761700000039,116.79492200000004,102.30761700000039,90.64111300000059,112.17968800000017
177,88.7177729999994,85.76904300000024,105.64111300000059,95.64111300000059,134.61523400000078,118.84619099999964,127.30761700000039,128.9741210000002,133.20507799999996,132.3076170000004,125.25634799999989,110.38476599999922,97.94873000000007,113.58984400000008
178,93.3334960000002,90.38476599999922,105.51269500000035,97.05126999999993,131.53857400000015,118.20507799999996,134.23095699999976,133.7177729999994,137.17968800000017,138.84619099999964,129.23095699999976,116.79492200000004,101.0258789999998,114.35888699999941
179,90.89746099999957,86.53857400000015,102.69238299999961,92.30761700000039,116.6665039999998,115.25634799999989,133.46142599999985,130.6411130000006,132.82031300000017,138.84619099999964,126.79492200000004,117.43603499999972,98.58984400000008,113.7177729999994
180,83.46142599999985,76.79492200000004,98.9741210000002,85.25634799999989,97.30761700000039,112.30761700000039,125.89746099999957,122.05126999999993,123.46142599999985,133.58984400000008,120.38476599999922,112.30761700000039,92.69238299999961,111.53857400000015
181,75.51269500000035,67.56396500000028,96.0258789999998,80.38476599999922,84.48730499999965,110.89746099999957,117.17968800000017,115.0,115.89746099999957,127.94873000000007,114.61523400000078,105.76904300000024,86.79492200000004,109.23095699999976
182,70.89746099999957,63.846190999999635,94.87158199999976,80.12841800000024,85.38476599999922,111.41015599999992,112.43603499999972,114.35888699999941,115.12841800000024,126.0258789999998,112.69238299999961,102.17968800000017,83.46142599999985,108.9741210000002
183,69.74365200000011,66.53857400000015,94.87158199999976,83.3334960000002,99.10253900000043,112.69238299999961,113.3334960000002,119.48730499999965,120.25634799999989,128.84619099999964,114.23095699999976,102.43603499999972,83.0771479999994,111.79492200000004
184,70.0,71.6665039999998,94.48730499999965,86.53857400000015,116.53857400000015,113.7177729999994,117.05126999999993,124.87158199999976,126.0258789999998,132.6923829999996,115.51269500000035,103.9741210000002,84.74365200000011,116.79492200000004
185,69.23095699999976,74.61523400000078,92.56396500000028,87.17968800000017,127.05126999999993,114.35888699999941,119.48730499999965,125.51269500000035,127.56396500000028,132.3076170000004,113.3334960000002,103.7177729999994,87.05126999999993,120.76904300000024
186,67.69238299999961,73.9741210000002,89.87158199999976,85.38476599999922,126.15380900000036,115.0,118.20507799999996,120.89746099999957,124.35888699999941,126.53857400000015,107.82031300000017,101.53857400000015,89.10253900000043,121.2822270000006
187,67.82031300000017,71.79492200000004,89.35888699999941,84.61523400000078,117.43603499999972,115.38476599999922,114.35888699999941,115.38476599999922,120.38476599999922,119.87158199999976,102.94873000000007,100.38476599999922,91.53857400000015,118.0771479999994
188,72.17968800000017,72.17968800000017,93.58984400000008,88.0771479999994,109.35888699999941,115.12841800000024,111.9228520000006,114.35888699999941,120.89746099999957,119.48730499999965,104.10253900000043,103.7177729999994,95.12841800000024,113.3334960000002
189,80.12841800000024,76.2822270000006,101.79492200000004,95.12841800000024,108.20507799999996,114.23095699999976,113.7177729999994,119.48730499999965,126.41015599999992,128.58984400000008,112.43603499999972,110.51269500000035,99.74365200000011,110.0
190,87.17968800000017,81.9228520000006,109.23095699999976,101.53857400000015,113.3334960000002,113.7177729999994,119.48730499999965,127.56396500000028,132.94873000000007,142.56396500000028,123.84619099999964,116.41015599999992,103.0771479999994,109.48730499999965
191,88.84619099999964,85.51269500000035,111.2822270000006,103.20507799999996,119.61523400000078,113.84619099999964,126.15380900000036,133.46142599999985,135.38476599999922,151.9228520000006,131.79492200000004,116.9228520000006,102.94873000000007,111.79492200000004
192,84.87158199999976,86.15380900000036,107.82031300000017,100.38476599999922,121.9228520000006,114.48730499999965,131.0258789999998,134.10253900000043,132.94873000000007,150.76904300000024,132.94873000000007,111.6665039999998,99.87158199999976,114.74365200000011
193,79.61523400000078,86.15380900000036,102.82031300000017,97.17968800000017,120.51269500000035,115.12841800000024,132.94873000000007,131.2822270000006,129.3588869999994,142.05126999999993,130.38476599999922,105.0,97.82031300000017,116.53857400000015
194,78.20507799999996,87.43603499999972,100.76904300000024,96.41015599999992,118.0771479999994,115.89746099999957,132.82031300000017,128.20507799999996,128.7177729999994,133.58984400000008,129.23095699999976,101.9228520000006,99.74365200000011,116.41015599999992
195,81.41015599999992,88.46142599999985,102.05126999999993,97.17968800000017,115.89746099999957,116.53857400000015,130.38476599999922,126.6665039999998,130.89746099999957,130.0,131.41015599999992,103.84619099999964,103.84619099999964,115.25634799999989
196,84.74365200000011,85.64111300000059,103.3334960000002,96.2822270000006,111.79492200000004,116.9228520000006,125.89746099999957,125.25634799999989,131.0258789999998,130.38476599999922,133.7177729999994,107.56396500000028,104.74365200000011,114.23095699999976
197,83.0771479999994,77.94873000000007,101.0258789999998,91.9228520000006,104.74365200000011,117.05126999999993,120.25634799999989,122.43603499999972,125.76904300000024,130.76904300000024,131.9228520000006,108.9741210000002,99.10253900000043,113.7177729999994
198,75.64111300000059,69.23095699999976,95.64111300000059,85.89746099999957,97.56396500000028,117.30761700000039,115.51269500000035,117.94873000000007,117.05126999999993,128.84619099999964,125.25634799999989,106.2822270000006,89.74365200000011,113.0771479999994
199,66.53857400000015,64.87158199999976,90.89746099999957,81.2822270000006,95.12841800000024,118.3334960000002,112.94873000000007,113.9741210000002,110.64111300000059,125.0,117.43603499999972,101.2822270000006,82.82031300000017,112.30761700000039
200,61.2822270000006,67.94873000000007,89.87158199999976,79.48730499999965,98.9741210000002,119.48730499999965,112.43603499999972,112.69238299999961,110.89746099999957,121.41015599999992,113.46142599999985,97.43603499999972,82.43603499999972,112.17968800000017
201,63.20507799999996,76.79492200000004,92.94873000000007,79.48730499999965,106.41015599999992,119.48730499999965,112.94873000000007,115.38476599999922,117.05126999999993,121.2822270000006,115.76904300000024,97.43603499999972,88.20507799999996,113.3334960000002
202,71.15380900000036,86.53857400000015,97.94873000000007,80.25634799999989,112.94873000000007,118.0771479999994,114.23095699999976,121.0258789999998,125.38476599999922,125.64111300000059,122.94873000000007,101.2822270000006,96.53857400000015,115.0
203,80.76904300000024,92.56396500000028,102.30761700000039,82.05126999999993,116.0258789999998,116.15380900000036,116.6665039999998,127.05126999999993,132.3076170000004,132.6923829999996,131.41015599999992,106.9228520000006,103.20507799999996,116.0258789999998
204,87.17968800000017,92.69238299999961,104.35888699999941,85.38476599999922,115.51269500000035,115.0,120.25634799999989,130.89746099999957,135.76904300000024,138.9741210000002,136.79492200000004,111.53857400000015,105.64111300000059,115.64111300000059
205,87.94873000000007,88.84619099999964,103.58984400000008,89.35888699999941,112.69238299999961,115.12841800000024,123.58984400000008,130.89746099999957,135.0,141.0258789999998,136.79492200000004,113.20507799999996,103.46142599999985,114.23095699999976
206,84.35888699999941,84.48730499999965,101.2822270000006,91.9228520000006,109.48730499999965,116.53857400000015,125.25634799999989,127.56396500000028,130.89746099999957,138.7177729999994,132.3076170000004,111.41015599999992,98.84619099999964,112.69238299999961
207,79.61523400000078,82.17968800000017,99.10253900000043,90.12841800000024,107.05126999999993,118.20507799999996,124.48730499999965,122.94873000000007,125.25634799999989,134.61523400000078,127.30761700000039,108.0771479999994,94.48730499999965,111.9228520000006
208,77.05126999999993,81.53857400000015,98.46142599999985,83.46142599999985,105.38476599999922,119.23095699999976,121.6665039999998,119.35888699999941,120.12841800000024,131.53857400000015,123.84619099999964,105.25634799999989,91.15380900000036,112.43603499999972
209,77.82031300000017,80.89746099999957,98.58984400000008,74.74365200000011,103.58984400000008,119.10253900000043,117.30761700000039,117.05126999999993,117.30761700000039,130.12841800000024,121.2822270000006,103.3334960000002,87.69238299999961,113.46142599999985
210,80.25634799999989,79.87158199999976,98.0771479999994,68.9741210000002,101.79492200000004,117.94873000000007,112.69238299999961,115.25634799999989,116.9228520000006,128.84619099999964,117.43603499999972,101.9228520000006,83.20507799999996,114.10253900000043
211,82.82031300000017,80.64111300000059,96.6665039999998,70.89746099999957,103.20507799999996,116.41015599999992,109.87158199999976,113.7177729999994,119.10253900000043,126.6665039999998,113.20507799999996,101.0258789999998,80.0,114.10253900000043
212,85.38476599999922,85.51269500000035,96.9228520000006,80.51269500000035,111.2822270000006,115.76904300000024,111.41015599999992,113.9741210000002,123.7177729999994,126.15380900000036,112.56396500000028,101.79492200000004,81.79492200000004,114.23095699999976
213,88.46142599999985,94.10253900000043,100.64111300000059,93.46142599999985,125.12841800000024,116.15380900000036,117.94873000000007,117.56396500000028,130.38476599999922,130.12841800000024,118.3334960000002,104.74365200000011,90.25634799999989,115.0
214,91.15380900000036,102.17968800000017,105.89746099999957,102.69238299999961,137.05126999999993,116.9228520000006,126.41015599999992,123.58984400000008,136.53857400000015,137.94873000000007,127.94873000000007,108.58984400000008,100.89746099999957,115.76904300000024
215,90.64111300000059,104.48730499999965,108.0771479999994,103.7177729999994,138.3334960000002,116.9228520000006,131.9228520000006,128.46142599999985,137.82031300000017,144.10253900000043,133.9741210000002,110.76904300000024,105.89746099999957,115.76904300000024
216,85.38476599999922,98.20507799999996,104.48730499999965,97.05126999999993,126.2822270000006,116.0258789999998,131.0258789999998,128.3334960000002,132.05126999999993,142.82031300000017,130.51269500000035,109.74365200000011,100.0,114.87158199999976
217,77.05126999999993,86.2822270000006,96.6665039999998,87.56396500000028,107.94873000000007,115.12841800000024,124.23095699999976,122.43603499999972,121.6665039999998,133.46142599999985,119.23095699999976,105.89746099999957,85.64111300000059,114.10253900000043
218,70.25634799999989,75.38476599999922,89.87158199999976,80.76904300000024,95.76904300000024,114.87158199999976,116.0258789999998,114.48730499999965,113.46142599999985,121.15380900000036,107.82031300000017,101.6665039999998,72.05126999999993,114.10253900000043
219,69.87158199999976,72.43603499999972,88.58984400000008,79.87158199999976,97.82031300000017,115.12841800000024,111.79492200000004,110.12841800000024,113.46142599999985,113.84619099999964,104.23095699999976,99.87158199999976,68.0771479999994,114.61523400000078
220,76.79492200000004,79.48730499999965,93.9741210000002,84.23095699999976,113.3334960000002,115.25634799999989,114.87158199999976,113.58984400000008,123.0771479999994,116.9228520000006,110.89746099999957,102.82031300000017,76.2822270000006,114.74365200000011
221,87.30761700000039,92.30761700000039,102.69238299999961,90.38476599999922,133.0771479999994,114.87158199999976,124.61523400000078,123.9741210000002,138.0771479999994,130.2563479999999,123.7177729999994,109.61523400000078,91.6665039999998,114.23095699999976
222,95.38476599999922,103.3334960000002,109.48730499999965,93.7177729999994,145.0,114.23095699999976,135.38476599999922,135.0,150.0,146.6665039999998,135.12841800000024,116.79492200000004,105.0,112.94873000000007
223,96.0258789999998,106.2822270000006,110.25634799999989,92.05126999999993,141.79492200000004,113.84619099999964,140.51269500000035,139.61523400000078,151.9228520000006,156.41015599999992,138.7177729999994,119.87158199999976,108.7177729999994,111.79492200000004
224,89.48730499999965,101.2822270000006,105.12841800000024,86.53857400000015,126.15380900000036,114.23095699999976,136.79492200000004,135.2563479999999,143.58984400000008,154.10253900000043,133.58984400000008,117.56396500000028,101.6665039999998,111.2822270000006
225,81.9228520000006,95.38476599999922,99.10253900000043,82.43603499999972,110.12841800000024,115.38476599999922,127.17968800000017,126.53857400000015,131.79492200000004,143.84619099999964,125.76904300000024,112.82031300000017,91.15380900000036,112.05126999999993
226,80.51269500000035,96.41015599999992,97.69238299999961,84.48730499999965,105.89746099999957,117.05126999999993,118.84619099999964,121.15380900000036,126.15380900000036,135.89746099999957,123.46142599999985,110.76904300000024,87.30761700000039,113.0771479999994
227,88.0771479999994,105.76904300000024,102.30761700000039,92.43603499999972,116.0258789999998,118.7177729999994,116.53857400000015,122.69238299999961,130.89746099999957,137.6923829999996,130.38476599999922,113.46142599999985,94.74365200000011,113.3334960000002
228,100.12841800000024,116.41015599999992,108.20507799999996,100.25634799999989,130.89746099999957,119.10253900000043,118.9741210000002,128.20507799999996,141.2822270000006,147.43603499999972,141.0258789999998,117.69238299999961,108.20507799999996,112.56396500000028
229,108.20507799999996,119.61523400000078,109.10253900000043,101.6665039999998,137.94873000000007,118.0771479999994,121.2822270000006,131.2822270000006,147.94873000000007,155.76904300000024,146.41015599999992,118.7177729999994,117.56396500000028,112.05126999999993
230,107.43603499999972,112.56396500000028,103.84619099999964,95.51269500000035,132.3076170000004,116.15380900000036,120.51269500000035,128.46142599999985,145.2563479999999,155.0,142.05126999999993,114.61523400000078,116.0258789999998,112.69238299999961
231,99.87158199999976,101.41015599999992,97.69238299999961,87.30761700000039,120.0,114.48730499999965,118.20507799999996,122.82031300000017,135.38476599999922,146.2822270000006,132.17968800000017,108.7177729999994,105.25634799999989,114.10253900000043
232,92.94873000000007,94.74365200000011,96.6665039999998,83.84619099999964,111.2822270000006,113.7177729999994,117.94873000000007,119.48730499999965,126.53857400000015,136.41015599999992,124.61523400000078,105.89746099999957,94.10253900000043,115.25634799999989
233,92.30761700000039,97.69238299999961,102.17968800000017,87.56396500000028,112.17968800000017,114.35888699999941,121.15380900000036,121.53857400000015,125.0,132.05126999999993,124.23095699999976,108.3334960000002,90.76904300000024,115.25634799999989
234,98.0771479999994,108.46142599999985,110.38476599999922,96.0258789999998,121.0258789999998,115.64111300000059,126.0258789999998,127.30761700000039,131.0258789999998,135.0,130.2563479999999,114.87158199999976,97.69238299999961,114.35888699999941
235,106.0258789999998,121.0258789999998,115.76904300000024,103.9741210000002,132.05126999999993,116.79492200000004,128.9741210000002,132.94873000000007,140.0,142.56396500000028,138.58984400000008,121.9228520000006,110.25634799999989,113.3334960000002
236,111.0258789999998,129.48730499999965,116.0258789999998,107.05126999999993,139.48730499999965,117.43603499999972,127.94873000000007,135.38476599999922,146.6665039999998,149.87158199999976,144.61523400000078,125.76904300000024,120.38476599999922,112.82031300000017
237,111.15380900000036,131.15380900000036,112.30761700000039,104.74365200000011,139.7436520000001,117.17968800000017,123.46142599999985,134.48730499999965,148.20507799999996,153.58984400000008,145.51269500000035,124.48730499999965,122.05126999999993,113.58984400000008
238,107.69238299999961,126.15380900000036,107.05126999999993,99.23095699999976,132.17968800000017,116.41015599999992,118.46142599999985,131.6665039999998,144.87158199999976,152.05126999999993,140.76904300000024,119.23095699999976,114.74365200000011,115.25634799999989
239,103.0771479999994,117.17968800000017,102.56396500000028,93.58984400000008,119.74365200000011,115.38476599999922,115.51269500000035,129.10253900000043,138.46142599999985,146.6665039999998,132.3076170000004,113.20507799999996,103.7177729999994,116.79492200000004
240,100.0,107.43603499999972,100.0,89.23095699999976,107.56396500000028,114.61523400000078,115.51269500000035,127.43603499999972,131.6665039999998,140.51269500000035,123.7177729999994,109.48730499999965,95.64111300000059,116.79492200000004
241,99.10253900000043,100.76904300000024,99.48730499999965,86.15380900000036,100.89746099999957,114.74365200000011,117.43603499999972,126.15380900000036,127.43603499999972,136.6665039999998,118.0771479999994,109.10253900000043,94.48730499999965,115.25634799999989
242,100.25634799999989,99.48730499999965,100.25634799999989,83.84619099999964,101.6665039999998,115.76904300000024,118.46142599999985,123.84619099999964,126.2822270000006,135.38476599999922,116.2822270000006,110.89746099999957,99.10253900000043,112.94873000000007
243,102.17968800000017,104.23095699999976,101.15380900000036,82.69238299999961,107.82031300000017,117.30761700000039,117.56396500000028,120.51269500000035,127.30761700000039,135.2563479999999,117.17968800000017,112.94873000000007,104.23095699999976,111.0258789999998
244,103.46142599999985,112.30761700000039,101.79492200000004,82.82031300000017,115.64111300000059,118.46142599999985,116.15380900000036,117.30761700000039,129.3588869999994,134.61523400000078,118.9741210000002,114.35888699999941,106.2822270000006,110.51269500000035
245,103.7177729999994,119.23095699999976,102.17968800000017,83.7177729999994,121.41015599999992,118.84619099999964,116.6665039999998,116.41015599999992,131.6665039999998,133.84619099999964,120.64111300000059,114.61523400000078,104.87158199999976,111.53857400000015
246,102.56396500000028,120.64111300000059,101.9228520000006,83.9741210000002,123.0771479999994,118.7177729999994,119.74365200000011,118.20507799999996,133.58984400000008,133.7177729999994,120.89746099999957,113.7177729999994,102.17968800000017,113.46142599999985
247,99.35888699999941,115.12841800000024,99.61523400000078,82.94873000000007,121.0258789999998,118.84619099999964,122.43603499999972,120.64111300000059,133.7177729999994,133.58984400000008,118.20507799999996,111.15380900000036,99.10253900000043,114.87158199999976
248,93.7177729999994,106.0258789999998,94.74365200000011,80.51269500000035,117.56396500000028,119.23095699999976,121.53857400000015,121.6665039999998,131.2822270000006,132.05126999999993,112.43603499999972,107.05126999999993,95.64111300000059,114.61523400000078
249,87.30761700000039,98.58984400000008,88.7177729999994,77.05126999999993,114.87158199999976,119.35888699999941,116.79492200000004,120.38476599999922,126.6665039999998,127.69238299999961,105.89746099999957,102.43603499999972,91.79492200000004,113.20507799999996
250,82.69238299999961,96.2822270000006,84.35888699999941,72.43603499999972,112.56396500000028,118.46142599999985,111.15380900000036,117.94873000000007,121.41015599999992,121.15380900000036,100.64111300000059,98.7177729999994,87.94873000000007,112.43603499999972
251,81.79492200000004,97.82031300000017,83.58984400000008,67.05126999999993,108.20507799999996,116.41015599999992,108.0771479999994,115.0,116.6665039999998,113.0771479999994,97.56396500000028,96.79492200000004,84.23095699999976,113.58984400000008
252,84.61523400000078,99.74365200000011,86.2822270000006,62.69238299999961,101.6665039999998,114.10253900000043,108.84619099999964,112.30761700000039,112.82031300000017,105.25634799999989,95.25634799999989,97.17968800000017,81.2822270000006,116.15380900000036
253,89.74365200000011,100.89746099999957,90.89746099999957,62.69238299999961,96.41015599999992,112.43603499999972,112.94873000000007,111.0258789999998,110.76904300000024,100.89746099999957,94.23095699999976,99.87158199999976,80.0,118.0771479999994
254,96.15380900000036,102.94873000000007,96.2822270000006,68.84619099999964,97.56396500000028,112.94873000000007,118.20507799999996,112.17968800000017,111.0258789999998,103.0771479999994,96.0258789999998,104.48730499999965,82.05126999999993,117.94873000000007
255,102.94873000000007,107.69238299999961,101.53857400000015,78.84619099999964,106.41015599999992,115.25634799999989,122.05126999999993,115.51269500000035,113.58984400000008,111.79492200000004,101.79492200000004,109.10253900000043,87.30761700000039,115.76904300000024
256,108.58984400000008,113.9741210000002,105.38476599999922,86.9228520000006,118.3334960000002,117.94873000000007,122.69238299999961,119.48730499999965,117.17968800000017,122.56396500000028,108.9741210000002,111.6665039999998,93.46142599999985,112.94873000000007
257,110.89746099999957,117.82031300000017,106.2822270000006,87.69238299999961,124.48730499999965,119.35888699999941,120.25634799999989,121.9228520000006,119.61523400000078,129.3588869999994,112.94873000000007,110.51269500000035,96.53857400000015,110.89746099999957
258,108.3334960000002,115.76904300000024,103.9741210000002,79.61523400000078,119.10253900000043,118.46142599999985,116.53857400000015,121.15380900000036,119.61523400000078,129.23095699999976,110.89746099999957,106.41015599999992,93.84619099999964,110.25634799999989
259,101.41015599999992,108.0771479999994,100.12841800000024,66.41015599999992,103.46142599999985,116.0258789999998,113.7177729999994,117.69238299999961,117.17968800000017,123.58984400000008,103.58984400000008,101.9228520000006,85.89746099999957,110.76904300000024
260,93.9741210000002,98.84619099999964,97.05126999999993,55.0,85.89746099999957,113.7177729999994,112.69238299999961,113.84619099999964,113.7177729999994,116.0258789999998,95.64111300000059,99.61523400000078,77.05126999999993,111.6665039999998
261,89.87158199999976,93.84619099999964,96.53857400000015,51.666503999999804,75.64111300000059,112.82031300000017,112.69238299999961,111.9228520000006,111.41015599999992,110.89746099999957,91.9228520000006,100.76904300000024,73.3334960000002,112.05126999999993
262,91.53857400000015,96.6665039999998,99.48730499999965,58.333496000000196,77.30761700000039,113.84619099999964,112.69238299999961,112.56396500000028,111.53857400000015,110.38476599999922,94.87158199999976,104.48730499999965,78.7177729999994,112.30761700000039
263,97.43603499999972,106.6665039999998,104.87158199999976,71.15380900000036,89.23095699999976,116.0258789999998,112.94873000000007,115.12841800000024,114.10253900000043,114.61523400000078,102.17968800000017,108.20507799999996,91.0258789999998,113.20507799999996
264,103.9741210000002,119.23095699999976,110.89746099999957,83.3334960000002,105.89746099999957,117.94873000000007,114.10253900000043,118.20507799999996,118.46142599999985,120.64111300000059,108.84619099999964,110.12841800000024,103.46142599999985,115.0
265,106.79492200000004,128.20507799999996,114.10253900000043,88.7177729999994,120.12841800000024,118.46142599999985,116.0258789999998,120.64111300000059,122.43603499999972,123.84619099999964,110.38476599999922,109.61523400000078,108.58984400000008,116.6665039999998
266,103.58984400000008,128.7177729999994,111.9228520000006,84.74365200000011,126.2822270000006,117.05126999999993,116.79492200000004,121.53857400000015,122.69238299999961,120.12841800000024,104.87158199999976,106.79492200000004,102.94873000000007,116.9228520000006
267,94.87158199999976,120.25634799999989,103.84619099999964,73.46142599999985,121.53857400000015,115.38476599999922,114.10253900000043,119.61523400000078,116.79492200000004,109.10253900000043,94.35888699999941,102.94873000000007,89.48730499999965,115.25634799999989
268,83.9741210000002,107.05126999999993,93.20507799999996,60.0,109.35888699999941,115.12841800000024,108.46142599999985,115.12841800000024,106.2822270000006,95.38476599999922,83.84619099999964,98.9741210000002,75.25634799999989,112.94873000000007
269,76.79492200000004,96.2822270000006,85.38476599999922,50.51269500000035,97.30761700000039,116.6665039999998,103.58984400000008,110.51269500000035,97.05126999999993,86.53857400000015,78.58984400000008,96.41015599999992,68.0771479999994,111.41015599999992
270,76.9228520000006,93.46142599999985,84.10253900000043,48.846190999999635,92.82031300000017,117.94873000000007,103.84619099999964,108.7177729999994,95.12841800000024,87.69238299999961,81.2822270000006,97.05126999999993,71.9228520000006,111.2822270000006
271,84.23095699999976,99.74365200000011,89.61523400000078,54.87158199999976,97.82031300000017,116.6665039999998,111.0258789999998,112.05126999999993,102.56396500000028,98.0771479999994,90.51269500000035,101.9228520000006,84.48730499999965,112.56396500000028
272,95.25634799999989,111.2822270000006,98.58984400000008,65.25634799999989,109.10253900000043,113.20507799999996,122.56396500000028,119.10253900000043,115.76904300000024,111.9228520000006,102.17968800000017,110.0,99.10253900000043,114.23095699999976
273,105.0,121.53857400000015,106.15380900000036,74.61523400000078,119.48730499999965,110.0,131.53857400000015,125.64111300000059,127.30761700000039,122.69238299999961,111.2822270000006,117.43603499999972,108.7177729999994,115.0
274,109.10253900000043,124.74365200000011,108.20507799999996,78.84619099999964,122.69238299999961,108.7177729999994,132.05126999999993,126.79492200000004,130.76904300000024,126.15380900000036,112.94873000000007,119.87158199999976,109.35888699999941,114.35888699999941
275,105.89746099999957,119.10253900000043,104.48730499999965,76.41015599999992,116.79492200000004,109.23095699999976,122.69238299999961,121.0258789999998,123.84619099999964,121.9228520000006,105.38476599999922,115.76904300000024,101.41015599999992,112.69238299999961
276,98.20507799999996,107.94873000000007,97.56396500000028,69.48730499999965,105.89746099999957,110.0,108.58984400000008,110.89746099999957,110.51269500000035,113.0771479999994,92.17968800000017,107.56396500000028,89.48730499999965,111.15380900000036
277,91.41015599999992,97.94873000000007,91.9228520000006,62.56396500000028,97.17968800000017,109.74365200000011,97.82031300000017,102.43603499999972,98.20507799999996,104.23095699999976,80.0,100.12841800000024,79.87158199999976,110.25634799999989
278,89.61523400000078,95.64111300000059,90.51269500000035,59.35888699999941,96.0258789999998,108.46142599999985,96.2822270000006,100.38476599999922,93.3334960000002,98.3334960000002,75.64111300000059,97.94873000000007,76.53857400000015,110.38476599999922
279,93.20507799999996,102.69238299999961,93.84619099999964,61.666503999999804,102.82031300000017,107.56396500000028,103.58984400000008,105.25634799999989,97.30761700000039,96.2822270000006,80.64111300000059,102.30761700000039,80.51269500000035,111.53857400000015
280,98.9741210000002,115.0,99.10253900000043,68.0771479999994,113.0771479999994,108.0771479999994,113.46142599999985,113.0771479999994,105.89746099999957,97.82031300000017,91.15380900000036,110.25634799999989,89.10253900000043,113.7177729999994
281,103.58984400000008,125.38476599999922,103.0771479999994,74.74365200000011,119.87158199999976,110.76904300000024,119.23095699999976,118.7177729999994,113.46142599999985,102.17968800000017,101.15380900000036,116.53857400000015,97.56396500000028,116.41015599999992
282,105.12841800000024,128.58984400000008,104.23095699999976,77.30761700000039,119.61523400000078,114.10253900000043,118.0771479999994,119.61523400000078,116.6665039999998,108.3334960000002,105.76904300000024,117.56396500000028,102.17968800000017,117.82031300000017
283,105.51269500000035,124.48730499999965,103.58984400000008,75.25634799999989,114.61523400000078,116.41015599999992,112.82031300000017,117.05126999999993,116.41015599999992,114.87158199999976,104.23095699999976,114.74365200000011,101.9228520000006,117.43603499999972
284,107.69238299999961,119.35888699999941,103.46142599999985,71.6665039999998,110.76904300000024,116.53857400000015,108.84619099999964,114.61523400000078,115.38476599999922,119.48730499999965,100.51269500000035,112.82031300000017,100.12841800000024,115.76904300000024
285,113.3334960000002,119.48730499999965,105.12841800000024,70.51269500000035,112.30761700000039,114.74365200000011,109.10253900000043,114.23095699999976,115.12841800000024,120.76904300000024,99.35888699999941,114.61523400000078,100.76904300000024,114.35888699999941
286,119.35888699999941,125.38476599999922,107.17968800000017,72.05126999999993,116.41015599999992,112.82031300000017,111.79492200000004,114.61523400000078,114.61523400000078,117.94873000000007,102.05126999999993,117.94873000000007,104.35888699999941,113.84619099999964
287,120.76904300000024,130.6411130000006,107.05126999999993,72.43603499999972,117.43603499999972,112.43603499999972,112.69238299999961,113.58984400000008,112.17968800000017,111.53857400000015,105.0,118.58984400000008,106.0258789999998,114.35888699999941
288,115.12841800000024,128.46142599999985,103.84619099999964,68.58984400000008,113.0771479999994,114.23095699999976,109.61523400000078,111.15380900000036,108.58984400000008,103.7177729999994,104.35888699999941,114.23095699999976,100.76904300000024,115.25634799999989
289,105.0,118.58984400000008,99.61523400000078,60.897460999999566,106.79492200000004,116.53857400000015,104.10253900000043,110.12841800000024,107.30761700000039,98.58984400000008,100.0,107.17968800000017,89.74365200000011,115.89746099999957
290,96.79492200000004,107.94873000000007,97.17968800000017,54.35888699999941,103.58984400000008,117.82031300000017,100.64111300000059,112.69238299999961,111.0258789999998,99.48730499999965,95.89746099999957,102.05126999999993,80.25634799999989,115.76904300000024
291,95.76904300000024,104.87158199999976,98.46142599999985,54.102539000000434,106.0258789999998,117.69238299999961,102.17968800000017,117.69238299999961,118.7177729999994,107.30761700000039,96.15380900000036,102.30761700000039,80.25634799999989,115.0
292,102.82031300000017,111.9228520000006,102.94873000000007,61.153809000000365,112.30761700000039,117.30761700000039,108.46142599999985,121.2822270000006,125.89746099999957,118.7177729999994,101.9228520000006,107.82031300000017,91.6665039999998,114.10253900000043
293,113.20507799999996,124.35888699999941,108.20507799999996,70.89746099999957,117.94873000000007,117.17968800000017,115.38476599999922,120.38476599999922,127.17968800000017,127.69238299999961,110.76904300000024,115.0,109.87158199999976,113.3334960000002
294,120.38476599999922,132.82031300000017,111.53857400000015,75.76904300000024,118.84619099999964,117.05126999999993,118.9741210000002,115.25634799999989,120.51269500000035,129.23095699999976,118.3334960000002,119.35888699999941,127.30761700000039,112.56396500000028
295,120.89746099999957,131.15380900000036,112.05126999999993,71.9228520000006,113.9741210000002,116.53857400000015,118.0771479999994,109.35888699999941,109.23095699999976,122.30761700000039,121.9228520000006,118.9741210000002,138.3334960000002,111.41015599999992
296,117.43603499999972,121.2822270000006,111.41015599999992,62.17968800000017,108.0771479999994,116.2822270000006,114.87158199999976,107.17968800000017,100.76904300000024,112.17968800000017,122.30761700000039,115.89746099999957,143.20507799999996,110.25634799999989
297,115.25634799999989,111.79492200000004,111.41015599999992,53.46142599999985,107.56396500000028,116.41015599999992,113.20507799999996,110.64111300000059,102.43603499999972,106.6665039999998,123.3334960000002,114.10253900000043,147.3076170000004,110.12841800000024
298,118.0771479999994,109.23095699999976,113.20507799999996,50.12841800000024,114.10253900000043,116.6665039999998,114.35888699999941,117.43603499999972,114.61523400000078,110.76904300000024,127.30761700000039,115.76904300000024,155.0,111.53857400000015
299,124.74365200000011,112.82031300000017,115.25634799999989,51.2822270000006,121.9228520000006,116.79492200000004,116.6665039999998,122.94873000000007,129.48730499999965,121.6665039999998,133.58984400000008,118.9741210000002,164.7436520000001,113.46142599999985
300,130.89746099999957,116.79492200000004,115.89746099999957,52.69238299999961,123.3334960000002,116.79492200000004,117.17968800000017,123.58984400000008,137.17968800000017,132.05126999999993,139.10253900000043,120.38476599999922,171.6665039999998,113.9741210000002
301,133.20507799999996,117.43603499999972,115.0,52.30761700000039,116.41015599999992,117.17968800000017,115.76904300000024,120.0,133.7177729999994,135.38476599999922,142.43603499999972,118.7177729999994,171.9228520000006,112.94873000000007
302,132.3076170000004,116.6665039999998,114.35888699999941,52.43603499999972,107.94873000000007,117.82031300000017,114.87158199999976,116.15380900000036,124.23095699999976,131.15380900000036,144.48730499999965,116.0258789999998,167.56396500000028,111.53857400000015
303,131.2822270000006,119.23095699999976,115.25634799999989,56.153809000000365,106.53857400000015,118.0771479999994,116.0258789999998,115.51269500000035,117.17968800000017,124.35888699999941,146.6665039999998,115.89746099999957,164.23095699999976,111.15380900000036
304,132.43603499999972,126.15380900000036,117.30761700000039,63.333496000000196,113.3334960000002,117.56396500000028,117.82031300000017,118.20507799999996,116.79492200000004,120.25634799999989,148.58984400000008,119.35888699999941,165.76904300000024,112.05126999999993
305,134.3588869999994,133.0771479999994,118.58984400000008,69.10253900000043,121.0258789999998,116.79492200000004,117.69238299999961,121.0258789999998,121.2822270000006,121.53857400000015,148.7177729999994,123.7177729999994,170.38476599999922,113.3334960000002
306,133.84619099999964,133.9741210000002,118.20507799999996,68.3334960000002,120.89746099999957,116.15380900000036,114.35888699999941,121.41015599999992,126.15380900000036,126.79492200000004,145.89746099999957,125.38476599999922,173.0771479999994,113.7177729999994
307,129.3588869999994,127.43603499999972,116.15380900000036,61.153809000000365,111.6665039999998,116.15380900000036,110.12841800000024,118.84619099999964,127.82031300000017,132.56396500000028,141.15380900000036,123.20507799999996,170.38476599999922,112.69238299999961
308,123.3334960000002,118.58984400000008,114.23095699999976,53.333496000000196,101.0258789999998,116.15380900000036,108.3334960000002,115.89746099999957,126.53857400000015,135.38476599999922,137.43603499999972,118.7177729999994,163.9741210000002,110.51269500000035
309,120.25634799999989,114.23095699999976,113.58984400000008,50.897460999999566,97.94873000000007,115.76904300000024,110.38476599999922,114.74365200000011,124.87158199999976,134.61523400000078,136.53857400000015,115.12841800000024,158.84619099999964,109.10253900000043
310,122.05126999999993,117.05126999999993,114.48730499999965,55.12841800000024,104.87158199999976,115.38476599999922,114.61523400000078,115.76904300000024,125.0,132.17968800000017,138.84619099999964,114.74365200000011,158.3334960000002,109.48730499999965
311,127.05126999999993,124.23095699999976,116.15380900000036,61.79492200000004,116.0258789999998,116.2822270000006,118.0771479999994,118.58984400000008,127.30761700000039,130.51269500000035,143.0771479999994,117.69238299999961,161.6665039999998,111.2822270000006
312,131.41015599999992,130.2563479999999,117.69238299999961,65.89746099999957,123.58984400000008,118.3334960000002,119.35888699999941,121.79492200000004,130.6411130000006,130.89746099999957,148.20507799999996,121.79492200000004,165.2563479999999,112.94873000000007
313,131.79492200000004,131.15380900000036,118.58984400000008,65.12841800000024,122.69238299999961,119.87158199999976,118.46142599999985,123.9741210000002,133.3334960000002,132.56396500000028,152.6923829999996,123.84619099999964,166.53857400000015,113.20507799999996
314,127.56396500000028,125.64111300000059,117.69238299999961,60.64111300000059,113.9741210000002,118.84619099999964,115.89746099999957,122.94873000000007,132.82031300000017,132.6923829999996,153.7177729999994,121.79492200000004,164.10253900000043,112.56396500000028
315,120.64111300000059,115.38476599999922,114.10253900000043,54.74365200000011,102.43603499999972,114.74365200000011,112.17968800000017,118.0771479999994,127.30761700000039,128.3334960000002,147.94873000000007,116.2822270000006,157.94873000000007,112.05126999999993
316,113.84619099999964,104.35888699999941,108.3334960000002,49.87158199999976,94.23095699999976,109.61523400000078,107.69238299999961,110.89746099999957,117.94873000000007,120.0,135.38476599999922,110.12841800000024,149.3588869999994,112.17968800000017
317,110.0,96.6665039999998,102.56396500000028,47.43603499999972,92.43603499999972,107.05126999999993,103.20507799999996,104.23095699999976,108.3334960000002,111.6665039999998,120.89746099999957,106.41015599999992,141.2822270000006,112.69238299999961
318,110.38476599999922,94.48730499999965,99.74365200000011,47.69238299999961,95.64111300000059,109.10253900000043,101.0258789999998,101.2822270000006,102.94873000000007,107.69238299999961,112.05126999999993,107.17968800000017,137.82031300000017,113.46142599999985
319,115.25634799999989,98.9741210000002,102.17968800000017,51.410155999999915,100.51269500000035,114.10253900000043,103.20507799999996,103.3334960000002,104.35888699999941,110.12841800000024,113.58984400000008,112.05126999999993,140.6411130000006,113.9741210000002
320,123.58984400000008,110.0,108.9741210000002,59.35888699999941,106.0258789999998,119.23095699999976,109.74365200000011,109.87158199999976,112.30761700000039,117.56396500000028,124.61523400000078,118.3334960000002,149.10253900000043,113.7177729999994
321,132.94873000000007,125.51269500000035,116.15380900000036,70.25634799999989,112.43603499999972,121.79492200000004,118.20507799999996,118.58984400000008,123.3334960000002,125.64111300000059,138.7177729999994,122.43603499999972,158.84619099999964,113.46142599999985
322,138.7177729999994,139.3588869999994,119.35888699999941,79.74365200000011,118.7177729999994,121.15380900000036,123.7177729999994,125.25634799999989,131.53857400000015,129.3588869999994,146.79492200000004,122.05126999999993,163.9741210000002,113.46142599999985
323,137.3076170000004,144.23095699999976,116.53857400000015,82.05126999999993,121.79492200000004,119.10253900000043,123.20507799999996,126.2822270000006,131.6665039999998,125.89746099999957,143.84619099999964,117.94873000000007,160.6411130000006,113.84619099999964
324,128.20507799999996,136.9228520000006,109.74365200000011,75.64111300000059,119.87158199999976,117.56396500000028,117.82031300000017,120.89746099999957,123.20507799999996,117.17968800000017,131.79492200000004,113.0771479999994,149.87158199999976,113.9741210000002
325,115.64111300000059,122.56396500000028,103.0771479999994,64.35888699999941,114.23095699999976,117.69238299999961,111.9228520000006,111.53857400000015,111.15380900000036,108.9741210000002,118.20507799999996,109.87158199999976,137.56396500000028,113.46142599999985
326,105.89746099999957,110.12841800000024,100.12841800000024,55.25634799999989,108.58984400000008,118.9741210000002,109.10253900000043,103.0771479999994,102.43603499999972,106.0258789999998,110.64111300000059,109.10253900000043,129.48730499999965,113.3334960000002
327,103.46142599999985,106.41015599999992,101.53857400000015,53.0771479999994,105.0,119.87158199999976,110.38476599999922,98.9741210000002,100.25634799999989,108.84619099999964,111.41015599999992,109.74365200000011,128.0771479999994,113.9741210000002
328,107.30761700000039,111.79492200000004,105.25634799999989,57.94873000000007,103.84619099999964,119.48730499999965,113.7177729999994,100.89746099999957,103.58984400000008,114.23095699999976,117.43603499999972,110.12841800000024,132.05126999999993,115.38476599999922
329,113.7177729999994,120.64111300000059,108.3334960000002,66.2822270000006,104.74365200000011,117.94873000000007,116.9228520000006,107.30761700000039,109.48730499999965,118.9741210000002,123.84619099999964,109.10253900000043,137.94873000000007,116.41015599999992
330,118.0771479999994,126.9228520000006,109.10253900000043,73.20507799999996,106.79492200000004,116.6665039999998,118.20507799999996,115.38476599999922,115.0,121.41015599999992,127.30761700000039,107.69238299999961,142.82031300000017,116.15380900000036
331,118.84619099999964,127.69238299999961,107.82031300000017,75.64111300000059,108.84619099999964,116.6665039999998,117.17968800000017,121.41015599999992,118.20507799999996,121.2822270000006,126.9228520000006,107.17968800000017,144.48730499999965,114.48730499999965
332,117.17968800000017,124.48730499999965,106.15380900000036,73.58984400000008,109.74365200000011,116.9228520000006,114.87158199999976,123.20507799999996,119.23095699999976,119.61523400000078,124.10253900000043,108.3334960000002,143.0771479999994,112.69238299999961
333,116.0258789999998,121.53857400000015,105.76904300000024,69.74365200000011,110.12841800000024,116.41015599999992,113.20507799999996,121.0258789999998,118.84619099999964,117.30761700000039,120.76904300000024,110.76904300000024,140.2563479999999,111.6665039999998
334,116.9228520000006,121.53857400000015,106.9228520000006,66.6665039999998,110.51269500000035,115.0,112.69238299999961,117.17968800000017,117.43603499999972,114.87158199999976,118.84619099999964,112.56396500000028,137.94873000000007,111.79492200000004
335,119.10253900000043,123.20507799999996,108.46142599999985,65.64111300000059,110.64111300000059,113.7177729999994,112.69238299999961,113.9741210000002,114.61523400000078,111.6665039999998,118.20507799999996,112.05126999999993,136.15380900000036,112.69238299999961
336,119.61523400000078,122.43603499999972,108.58984400000008,65.89746099999957,110.12841800000024,113.20507799999996,111.6665039999998,112.05126999999993,110.51269500000035,107.05126999999993,117.56396500000028,108.7177729999994,133.9741210000002,113.58984400000008
337,117.30761700000039,117.94873000000007,106.9228520000006,66.41015599999992,109.74365200000011,113.84619099999964,109.23095699999976,111.15380900000036,106.41015599999992,102.17968800000017,116.41015599999992,104.61523400000078,131.15380900000036,113.7177729999994
338,113.7177729999994,113.0771479999994,104.61523400000078,66.41015599999992,110.38476599999922,114.74365200000011,107.30761700000039,111.41015599999992,104.74365200000011,99.87158199999976,116.15380900000036,103.0771479999994,129.3588869999994,113.20507799999996
339,111.79492200000004,112.69238299999961,103.7177729999994,66.53857400000015,112.17968800000017,115.76904300000024,108.20507799999996,112.82031300000017,107.30761700000039,102.30761700000039,119.10253900000043,105.89746099999957,130.0,112.82031300000017
340,112.94873000000007,118.3334960000002,104.35888699999941,67.69238299999961,114.10253900000043,116.41015599999992,111.6665039999998,115.12841800000024,112.69238299999961,108.84619099999964,125.51269500000035,111.79492200000004,132.6923829999996,113.20507799999996
341,115.38476599999922,125.64111300000059,105.38476599999922,69.23095699999976,114.48730499999965,116.6665039999998,114.87158199999976,116.41015599999992,116.9228520000006,115.76904300000024,132.05126999999993,116.0258789999998,135.6411130000006,113.7177729999994
342,116.2822270000006,128.20507799999996,105.25634799999989,68.84619099999964,112.56396500000028,116.0258789999998,114.48730499999965,114.48730499999965,116.2822270000006,119.35888699999941,134.7436520000001,115.51269500000035,137.3076170000004,113.7177729999994
343,114.35888699999941,122.94873000000007,103.84619099999964,65.64111300000059,108.84619099999964,115.0,110.51269500000035,109.48730499999965,110.51269500000035,118.0771479999994,131.9228520000006,110.89746099999957,137.3076170000004,112.94873000000007
344,110.51269500000035,112.94873000000007,101.9228520000006,60.12841800000024,103.9741210000002,114.48730499999965,105.64111300000059,103.58984400000008,102.17968800000017,112.56396500000028,125.0,105.51269500000035,135.76904300000024,112.43603499999972
345,107.30761700000039,104.35888699999941,99.74365200000011,54.61523400000078,99.10253900000043,114.74365200000011,102.69238299999961,99.23095699999976,94.87158199999976,104.61523400000078,117.82031300000017,102.56396500000028,132.3076170000004,112.56396500000028
346,106.6665039999998,102.56396500000028,98.46142599999985,52.17968800000017,96.53857400000015,115.76904300000024,102.94873000000007,98.20507799999996,91.0258789999998,96.41015599999992,113.7177729999994,102.94873000000007,127.82031300000017,113.3334960000002
347,109.61523400000078,109.35888699999941,99.48730499999965,55.0,100.0,117.05126999999993,106.0258789999998,100.76904300000024,91.6665039999998,90.89746099999957,114.35888699999941,106.0258789999998,124.23095699999976,114.10253900000043
348,114.61523400000078,121.6665039999998,102.94873000000007,62.82031300000017,110.12841800000024,118.20507799999996,110.0,105.38476599999922,96.0258789999998,90.12841800000024,117.82031300000017,110.12841800000024,123.58984400000008,114.35888699999941
349,119.23095699999976,132.82031300000017,106.53857400000015,71.79492200000004,121.9228520000006,118.84619099999964,111.6665039999998,108.84619099999964,101.6665039999998,94.23095699999976,120.51269500000035,112.43603499999972,125.25634799999989,113.84619099999964
350,120.76904300000024,137.43603499999972,107.56396500000028,76.9228520000006,128.3334960000002,118.58984400000008,108.9741210000002,108.9741210000002,105.76904300000024,101.53857400000015,120.76904300000024,111.41015599999992,127.30761700000039,112.43603499999972
351,119.87158199999976,134.3588869999994,105.51269500000035,76.9228520000006,127.17968800000017,117.94873000000007,103.84619099999964,106.9228520000006,107.56396500000028,109.35888699999941,120.12841800000024,108.3334960000002,129.3588869999994,111.0258789999998
352,118.84619099999964,127.30761700000039,102.82031300000017,74.74365200000011,122.56396500000028,117.69238299999961,101.2822270000006,106.0258789999998,107.69238299999961,115.38476599999922,121.79492200000004,106.2822270000006,131.79492200000004,110.25634799999989
353,119.61523400000078,121.15380900000036,101.79492200000004,73.46142599999985,119.35888699999941,118.3334960000002,103.7177729999994,108.84619099999964,107.30761700000039,118.20507799999996,126.2822270000006,106.6665039999998,134.7436520000001,110.64111300000059
354,121.0258789999998,118.0771479999994,102.69238299999961,73.46142599999985,117.94873000000007,119.61523400000078,108.84619099999964,113.46142599999985,106.15380900000036,116.53857400000015,130.0,108.58984400000008,136.2822270000006,111.53857400000015
355,120.0,116.79492200000004,103.9741210000002,72.82031300000017,115.25634799999989,120.51269500000035,111.79492200000004,115.12841800000024,103.58984400000008,110.89746099999957,128.58984400000008,109.87158199999976,133.84619099999964,112.17968800000017
356,116.2822270000006,116.79492200000004,105.12841800000024,70.89746099999957,110.38476599999922,120.38476599999922,109.74365200000011,111.6665039999998,100.51269500000035,104.23095699999976,122.30761700000039,110.51269500000035,127.56396500000028,112.56396500000028
357,113.46142599999985,118.84619099999964,106.79492200000004,69.87158199999976,106.41015599999992,119.10253900000043,104.87158199999976,105.38476599999922,99.48730499999965,100.64111300000059,116.79492200000004,111.9228520000006,121.6665039999998,112.43603499999972
358,116.15380900000036,123.20507799999996,109.61523400000078,72.17968800000017,106.41015599999992,117.43603499999972,102.05126999999993,101.15380900000036,102.94873000000007,102.69238299999961,117.69238299999961,114.48730499999965,121.0258789999998,111.9228520000006
359,124.10253900000043,128.0771479999994,112.82031300000017,77.82031300000017,110.38476599999922,116.0258789999998,104.61523400000078,102.30761700000039,110.12841800000024,109.35888699999941,125.25634799999989,116.9228520000006,126.15380900000036,111.0258789999998
360,131.79492200000004,130.89746099999957,114.87158199999976,83.7177729999994,116.0258789999998,115.38476599999922,111.53857400000015,108.3334960000002,116.9228520000006,116.79492200000004,133.3334960000002,117.05126999999993,133.0771479999994,110.25634799999989
361,134.23095699999976,131.0258789999998,114.61523400000078,86.6665039999998,121.0258789999998,115.76904300000024,118.3334960000002,115.38476599999922,119.48730499999965,121.2822270000006,136.0258789999998,114.61523400000078,136.9228520000006,110.25634799999989
362,130.51269500000035,130.51269500000035,112.82031300000017,86.15380900000036,123.9741210000002,116.6665039999998,120.76904300000024,119.61523400000078,117.43603499999972,121.53857400000015,132.43603499999972,111.41015599999992,135.76904300000024,110.76904300000024
363,124.35888699999941,131.53857400000015,110.76904300000024,84.61523400000078,123.9741210000002,117.56396500000028,118.0771479999994,119.48730499999965,113.46142599999985,118.3334960000002,126.53857400000015,109.61523400000078,131.79492200000004,111.9228520000006
364,120.12841800000024,133.7177729999994,109.61523400000078,84.35888699999941,120.64111300000059,117.82031300000017,111.9228520000006,116.15380900000036,110.25634799999989,112.94873000000007,122.82031300000017,110.38476599999922,127.94873000000007,113.0771479999994
365,120.76904300000024,134.61523400000078,109.74365200000011,84.74365200000011,114.87158199999976,117.30761700000039,105.64111300000059,112.05126999999993,108.84619099999964,105.89746099999957,122.82031300000017,112.82031300000017,125.76904300000024,113.9741210000002
366,125.89746099999957,133.46142599999985,111.6665039999998,83.58984400000008,109.35888699999941,116.15380900000036,102.94873000000007,109.74365200000011,109.48730499999965,98.9741210000002,125.76904300000024,115.64111300000059,125.51269500000035,114.10253900000043
367,133.0771479999994,131.79492200000004,115.25634799999989,80.12841800000024,106.6665039999998,114.74365200000011,105.38476599999922,110.51269500000035,112.43603499999972,95.51269500000035,130.2563479999999,117.82031300000017,127.30761700000039,113.3334960000002
368,140.0,132.56396500000028,120.0,76.6665039999998,108.7177729999994,113.58984400000008,111.2822270000006,113.58984400000008,116.9228520000006,98.9741210000002,135.38476599999922,119.10253900000043,130.6411130000006,112.05126999999993
369,145.38476599999922,137.43603499999972,124.87158199999976,77.82031300000017,116.15380900000036,113.84619099999964,116.53857400000015,116.79492200000004,121.9228520000006,109.61523400000078,140.76904300000024,119.87158199999976,135.51269500000035,111.53857400000015
370,148.84619099999964,146.15380900000036,128.7177729999994,86.41015599999992,127.05126999999993,115.76904300000024,118.46142599999985,118.9741210000002,126.41015599999992,123.7177729999994,146.0258789999998,121.0258789999998,141.0258789999998,112.30761700000039
371,149.7436520000001,155.38476599999922,130.2563479999999,99.74365200000011,136.53857400000015,117.43603499999972,116.6665039999998,120.12841800000024,128.9741210000002,134.61523400000078,148.46142599999985,122.82031300000017,144.7436520000001,113.58984400000008
372,146.0258789999998,159.3588869999994,127.82031300000017,108.7177729999994,136.79492200000004,116.6665039999998,112.30761700000039,118.9741210000002,127.05126999999993,135.76904300000024,144.3588869999994,123.46142599999985,142.6923829999996,114.61523400000078
373,136.15380900000036,153.0771479999994,120.0,104.61523400000078,122.56396500000028,113.0771479999994,106.0258789999998,113.20507799999996,118.46142599999985,125.0,131.15380900000036,120.64111300000059,132.05126999999993,114.74365200000011
374,122.43603499999972,137.56396500000028,108.3334960000002,87.17968800000017,97.82031300000017,108.7177729999994,98.7177729999994,102.69238299999961,104.10253900000043,106.9228520000006,112.69238299999961,113.58984400000008,115.51269500000035,113.58984400000008
375,111.6665039999998,120.51269500000035,97.82031300000017,66.9228520000006,75.76904300000024,105.89746099999957,92.82031300000017,91.0258789999998,89.74365200000011,90.64111300000059,97.69238299999961,105.25634799999989,100.89746099999957,112.05126999999993
376,110.76904300000024,111.15380900000036,93.84619099999964,57.30761700000039,69.74365200000011,105.76904300000024,91.9228520000006,83.9741210000002,82.56396500000028,83.84619099999964,94.74365200000011,100.51269500000035,96.53857400000015,111.15380900000036
377,120.12841800000024,113.9741210000002,97.94873000000007,64.10253900000043,82.43603499999972,107.30761700000039,96.53857400000015,85.38476599999922,85.38476599999922,88.58984400000008,104.35888699999941,102.82031300000017,104.23095699999976,111.9228520000006
378,132.3076170000004,124.61523400000078,106.2822270000006,80.76904300000024,103.9741210000002,108.3334960000002,103.7177729999994,93.58984400000008,94.35888699999941,99.10253900000043,117.94873000000007,110.51269500000035,117.69238299999961,113.58984400000008
379,137.94873000000007,134.10253900000043,112.05126999999993,95.12841800000024,120.38476599999922,108.3334960000002,108.0771479999994,102.30761700000039,101.6665039999998,106.41015599999992,124.35888699999941,118.0771479999994,127.05126999999993,115.0
380,133.46142599999985,136.41015599999992,111.2822270000006,98.58984400000008,123.3334960000002,108.0771479999994,106.41015599999992,105.64111300000059,102.43603499999972,105.25634799999989,118.9741210000002,119.74365200000011,126.6665039999998,115.25634799999989
381,124.10253900000043,132.82031300000017,105.76904300000024,92.69238299999961,115.12841800000024,109.35888699999941,101.41015599999992,103.46142599999985,98.46142599999985,97.94873000000007,106.9228520000006,115.0,119.23095699999976,114.74365200000011
382,118.46142599999985,129.10253900000043,101.15380900000036,86.0258789999998,105.25634799999989,112.69238299999961,98.7177729999994,99.87158199999976,96.0258789999998,92.56396500000028,97.94873000000007,108.0771479999994,112.56396500000028,114.23095699999976
383,121.2822270000006,130.51269500000035,101.0258789999998,86.41015599999992,102.82031300000017,116.9228520000006,101.9228520000006,99.48730499999965,100.0,94.87158199999976,98.58984400000008,103.7177729999994,112.56396500000028,114.35888699999941
