,EEG.AF3,EEG.F7,EEG.F3,EEG.FC5,EEG.T7,EEG.P7,EEG.O1,EEG.O2,EEG.P8,EEG.T8,EEG.FC6,EEG.F4,EEG.F8,EEG.AF4
0,72.82031300000017,75.0,97.05126999999993,73.7177729999994,136.6665039999998,120.0,131.79492200000004,134.7436520000001,131.79492200000004,131.53857400000015,90.64111300000059,101.53857400000015,57.17968800000017,112.17968800000017
1,73.0771479999994,77.30761700000039,97.56396500000028,76.0258789999998,135.12841800000024,120.25634799999989,132.3076170000004,136.9228520000006,136.41015599999992,132.3076170000004,91.15380900000036,101.79492200000004,56.153809000000365,111.9228520000006
2,72.43603499999972,72.30761700000039,93.3334960000002,72.56396500000028,133.3334960000002,119.74365200000011,129.23095699999976,136.0258789999998,136.79492200000004,127.17968800000017,89.35888699999941,101.15380900000036,52.30761700000039,111.9228520000006
3,71.15380900000036,63.589844000000085,87.82031300000017,64.48730499999965,131.6665039999998,118.84619099999964,123.58984400000008,133.0771479999994,132.05126999999993,116.2822270000006,87.05126999999993,99.87158199999976,47.56396500000028,111.79492200000004
4,69.74365200000011,56.025878999999804,85.0,55.38476599999922,130.2563479999999,118.20507799999996,118.9741210000002,130.12841800000024,124.48730499999965,104.23095699999976,85.64111300000059,98.7177729999994,44.102539000000434,111.53857400000015
5,68.9741210000002,52.05126999999993,86.9228520000006,50.25634799999989,128.9741210000002,117.82031300000017,118.0771479999994,129.10253900000043,118.3334960000002,97.56396500000028,85.51269500000035,98.46142599999985,43.589844000000085,111.41015599999992
6,69.10253900000043,51.410155999999915,92.17968800000017,51.410155999999915,127.82031300000017,117.69238299999961,121.41015599999992,130.0,116.9228520000006,99.48730499999965,85.76904300000024,98.9741210000002,45.76904300000024,111.2822270000006
7,69.61523400000078,53.0771479999994,97.05126999999993,57.30761700000039,126.15380900000036,117.30761700000039,126.0258789999998,131.41015599999992,120.76904300000024,107.94873000000007,85.64111300000059,99.35888699999941,49.102539000000434,111.2822270000006
8,70.38476599999922,57.05126999999993,99.23095699999976,64.10253900000043,125.0,116.9228520000006,128.20507799999996,132.17968800000017,126.6665039999998,117.30761700000039,85.76904300000024,99.74365200000011,52.17968800000017,111.6665039999998
9,71.2822270000006,63.846190999999635,99.23095699999976,67.94873000000007,126.41015599999992,116.9228520000006,126.9228520000006,131.79492200000004,131.0258789999998,122.69238299999961,87.17968800000017,100.38476599999922,54.74365200000011,112.56396500000028
10,72.56396500000028,71.79492200000004,99.10253900000043,66.9228520000006,131.2822270000006,117.17968800000017,123.3334960000002,131.15380900000036,131.41015599999992,122.05126999999993,90.0,101.2822270000006,56.53857400000015,113.84619099999964
11,73.20507799999996,76.41015599999992,99.61523400000078,61.025878999999804,136.9228520000006,117.56396500000028,118.7177729999994,130.38476599999922,127.17968800000017,116.9228520000006,92.30761700000039,101.6665039999998,56.2822270000006,114.61523400000078
12,72.30761700000039,73.9741210000002,100.12841800000024,52.94873000000007,137.82031300000017,117.94873000000007,114.35888699999941,129.3588869999994,120.12841800000024,110.25634799999989,91.6665039999998,100.64111300000059,53.333496000000196,114.74365200000011
13,71.15380900000036,65.76904300000024,99.61523400000078,46.9228520000006,130.89746099999957,118.20507799999996,112.05126999999993,128.46142599999985,113.84619099999964,105.51269500000035,87.69238299999961,98.84619099999964,49.23095699999976,114.23095699999976
14,72.43603499999972,57.69238299999961,99.23095699999976,46.410155999999915,119.35888699999941,118.3334960000002,113.46142599999985,128.3334960000002,112.30761700000039,105.38476599999922,83.7177729999994,97.94873000000007,46.9228520000006,113.9741210000002
15,77.82031300000017,55.76904300000024,100.38476599999922,51.53857400000015,110.51269500000035,118.3334960000002,118.20507799999996,129.3588869999994,116.79492200000004,109.48730499999965,83.46142599999985,99.23095699999976,48.0771479999994,113.84619099999964
16,85.89746099999957,61.153809000000365,103.84619099999964,58.46142599999985,110.38476599999922,118.0771479999994,123.7177729999994,131.0258789999998,125.12841800000024,115.25634799999989,88.0771479999994,102.69238299999961,51.666503999999804,113.84619099999964
17,92.94873000000007,69.48730499999965,107.82031300000017,63.46142599999985,119.74365200000011,117.94873000000007,127.69238299999961,132.3076170000004,132.56396500000028,119.48730499999965,95.12841800000024,106.6665039999998,55.12841800000024,113.9741210000002
18,96.2822270000006,75.51269500000035,110.0,64.74365200000011,133.84619099999964,118.0771479999994,128.9741210000002,132.6923829999996,135.38476599999922,120.38476599999922,101.15380900000036,108.46142599999985,56.9228520000006,114.23095699999976
19,95.89746099999957,77.05126999999993,108.9741210000002,63.974121000000196,145.0,118.3334960000002,128.3334960000002,132.3076170000004,133.58984400000008,118.84619099999964,103.9741210000002,106.79492200000004,57.69238299999961,114.48730499999965
20,93.9741210000002,76.41015599999992,105.76904300000024,62.94873000000007,147.43603499999972,118.7177729999994,127.17968800000017,131.9228520000006,129.23095699999976,117.30761700000039,103.20507799999996,102.82031300000017,58.589844000000085,114.48730499999965
21,91.53857400000015,77.17968800000017,101.79492200000004,61.410155999999915,140.76904300000024,118.58984400000008,125.38476599999922,131.9228520000006,124.35888699999941,116.9228520000006,99.87158199999976,99.10253900000043,59.48730499999965,114.23095699999976
22,88.58984400000008,80.51269500000035,98.20507799999996,58.46142599999985,129.7436520000001,117.56396500000028,122.30761700000039,131.6665039999998,119.87158199999976,117.05126999999993,95.25634799999989,97.30761700000039,59.74365200000011,113.58984400000008
23,85.38476599999922,84.10253900000043,96.2822270000006,54.48730499999965,120.89746099999957,115.76904300000024,118.58984400000008,130.38476599999922,116.53857400000015,116.2822270000006,91.6665039999998,97.69238299999961,58.589844000000085,112.69238299999961
24,83.3334960000002,85.64111300000059,96.6665039999998,52.30761700000039,117.94873000000007,114.35888699999941,116.41015599999992,128.46142599999985,115.0,115.25634799999989,90.38476599999922,99.35888699999941,56.79492200000004,111.53857400000015
25,84.35888699999941,85.38476599999922,99.74365200000011,54.61523400000078,121.2822270000006,114.10253900000043,117.82031300000017,127.43603499999972,115.76904300000024,116.0258789999998,92.17968800000017,101.15380900000036,56.025878999999804,110.89746099999957
26,88.46142599999985,85.76904300000024,104.35888699999941,61.153809000000365,128.58984400000008,115.76904300000024,122.56396500000028,128.7177729999994,118.7177729999994,120.0,96.41015599999992,102.56396500000028,57.94873000000007,111.15380900000036
27,93.9741210000002,89.48730499999965,108.58984400000008,68.84619099999964,136.41015599999992,118.0771479999994,127.94873000000007,131.6665039999998,122.94873000000007,126.0258789999998,101.2822270000006,103.58984400000008,62.82031300000017,112.05126999999993
28,97.82031300000017,95.76904300000024,109.87158199999976,73.46142599999985,141.0258789999998,119.35888699999941,130.38476599999922,133.9741210000002,126.15380900000036,130.76904300000024,103.9741210000002,104.35888699999941,69.10253900000043,112.82031300000017
29,96.9228520000006,99.10253900000043,106.9228520000006,71.41015599999992,138.84619099999964,118.7177729999994,127.94873000000007,132.6923829999996,126.0258789999998,129.87158199999976,101.9228520000006,104.48730499999965,72.94873000000007,112.82031300000017
30,91.15380900000036,94.23095699999976,100.76904300000024,62.43603499999972,129.10253900000043,116.9228520000006,121.53857400000015,127.17968800000017,121.15380900000036,120.76904300000024,94.35888699999941,103.0771479999994,71.2822270000006,112.43603499999972
31,83.58984400000008,82.17968800000017,94.74365200000011,50.897460999999566,116.53857400000015,115.51269500000035,114.87158199999976,120.25634799999989,113.46142599999985,107.05126999999993,84.23095699999976,100.25634799999989,64.48730499999965,112.69238299999961
32,79.74365200000011,70.89746099999957,92.69238299999961,44.61523400000078,109.35888699999941,115.76904300000024,112.82031300000017,116.53857400000015,108.46142599999985,97.05126999999993,77.94873000000007,97.69238299999961,57.69238299999961,113.7177729999994
33,83.3334960000002,69.74365200000011,96.15380900000036,47.94873000000007,113.46142599999985,117.30761700000039,117.69238299999961,119.87158199999976,111.0258789999998,99.10253900000043,80.51269500000035,97.82031300000017,56.53857400000015,114.74365200000011
34,92.82031300000017,79.87158199999976,102.56396500000028,57.30761700000039,126.53857400000015,118.58984400000008,126.6665039999998,128.46142599999985,120.89746099999957,113.20507799999996,91.0258789999998,101.15380900000036,61.9228520000006,114.87158199999976
35,102.05126999999993,93.0771479999994,107.05126999999993,64.23095699999976,138.7177729999994,118.20507799999996,133.9741210000002,136.79492200000004,132.3076170000004,131.41015599999992,102.82031300000017,105.12841800000024,69.10253900000043,113.7177729999994
36,105.64111300000059,99.74365200000011,106.79492200000004,63.20507799999996,141.6665039999998,116.15380900000036,135.6411130000006,140.2563479999999,138.7177729999994,143.3334960000002,108.7177729999994,106.53857400000015,72.69238299999961,111.41015599999992
37,102.94873000000007,96.53857400000015,102.94873000000007,56.666503999999804,135.0,113.84619099999964,132.43603499999972,138.7177729999994,138.46142599999985,144.3588869999994,106.6665039999998,104.87158199999976,71.6665039999998,109.35888699999941
38,98.58984400000008,87.82031300000017,99.35888699999941,51.79492200000004,126.9228520000006,113.20507799999996,128.46142599999985,135.6411130000006,134.61523400000078,137.6923829999996,101.41015599999992,102.30761700000039,69.48730499999965,108.7177729999994
39,97.30761700000039,82.05126999999993,98.84619099999964,53.46142599999985,126.41015599999992,114.48730499999965,127.43603499999972,134.3588869999994,132.05126999999993,130.89746099999957,98.84619099999964,101.41015599999992,70.64111300000059,110.0
40,100.12841800000024,84.10253900000043,101.41015599999992,60.0,135.89746099999957,116.9228520000006,129.61523400000078,136.41015599999992,133.58984400000008,129.3588869999994,101.9228520000006,102.94873000000007,76.2822270000006,112.30761700000039
41,104.10253900000043,92.30761700000039,105.25634799999989,66.0258789999998,149.87158199999976,118.46142599999985,132.94873000000007,140.2563479999999,138.0771479999994,132.6923829999996,108.3334960000002,105.38476599999922,83.3334960000002,114.48730499999965
42,105.38476599999922,99.48730499999965,107.82031300000017,67.05126999999993,157.43603499999972,118.3334960000002,134.7436520000001,142.6923829999996,142.05126999999993,136.41015599999992,112.69238299999961,106.53857400000015,87.30761700000039,116.41015599999992
43,101.9228520000006,98.84619099999964,107.17968800000017,61.79492200000004,151.15380900000036,116.6665039999998,133.7177729999994,141.41015599999992,141.9228520000006,135.6411130000006,110.12841800000024,105.12841800000024,84.48730499999965,118.46142599999985
44,94.10253900000043,89.87158199999976,103.20507799999996,52.30761700000039,132.17968800000017,115.12841800000024,129.61523400000078,135.6411130000006,135.89746099999957,128.46142599999985,99.61523400000078,101.9228520000006,74.74365200000011,120.12841800000024
45,85.12841800000024,78.3334960000002,97.43603499999972,42.43603499999972,111.0258789999998,114.74365200000011,123.46142599999985,127.82031300000017,125.76904300000024,117.05126999999993,85.89746099999957,98.7177729999994,62.05126999999993,120.51269500000035
46,79.74365200000011,71.6665039999998,92.56396500000028,36.53857400000015,99.10253900000043,115.51269500000035,117.05126999999993,121.41015599999992,116.9228520000006,106.6665039999998,77.05126999999993,97.30761700000039,52.82031300000017,118.58984400000008
47,80.38476599999922,72.82031300000017,91.53857400000015,36.53857400000015,101.2822270000006,117.05126999999993,113.20507799999996,119.61523400000078,114.48730499999965,102.30761700000039,78.0771479999994,98.46142599999985,51.79492200000004,115.25634799999989
48,85.38476599999922,78.46142599999985,94.35888699999941,41.025878999999804,113.20507799999996,118.20507799999996,113.58984400000008,123.20507799999996,119.10253900000043,105.51269500000035,86.9228520000006,101.41015599999992,57.17968800000017,112.17968800000017
49,90.0,82.94873000000007,98.58984400000008,46.9228520000006,126.41015599999992,118.3334960000002,117.82031300000017,130.2563479999999,126.15380900000036,113.0771479999994,96.41015599999992,103.3334960000002,63.20507799999996,110.38476599999922
50,90.64111300000059,83.20507799999996,101.0258789999998,51.666503999999804,133.7177729999994,117.43603499999972,123.46142599999985,136.6665039999998,130.51269500000035,119.48730499999965,100.0,102.43603499999972,65.64111300000059,110.25634799999989
51,88.3334960000002,80.89746099999957,100.76904300000024,55.12841800000024,133.84619099999964,116.53857400000015,127.69238299999961,138.46142599999985,130.12841800000024,121.0258789999998,97.17968800000017,99.48730499999965,64.74365200000011,111.41015599999992
52,86.79492200000004,79.23095699999976,99.48730499999965,57.94873000000007,129.48730499999965,116.9228520000006,128.84619099999964,134.87158199999976,126.53857400000015,117.69238299999961,92.05126999999993,97.30761700000039,63.46142599999985,112.69238299999961
53,89.35888699999941,80.25634799999989,99.10253900000043,61.025878999999804,125.64111300000059,118.7177729999994,127.82031300000017,128.9741210000002,123.58984400000008,113.0771479999994,89.87158199999976,98.20507799999996,63.974121000000196,113.0771479999994
54,95.51269500000035,83.46142599999985,101.2822270000006,63.974121000000196,126.0258789999998,120.0,127.17968800000017,125.76904300000024,123.3334960000002,111.2822270000006,92.94873000000007,101.9228520000006,65.64111300000059,112.56396500000028
55,101.6665039999998,87.05126999999993,105.38476599999922,67.05126999999993,131.0258789999998,119.10253900000043,128.84619099999964,127.56396500000028,125.76904300000024,114.35888699999941,98.9741210000002,106.41015599999992,66.2822270000006,111.9228520000006
56,104.23095699999976,89.48730499999965,109.74365200000011,69.87158199999976,137.05126999999993,115.51269500000035,132.17968800000017,132.3076170000004,128.20507799999996,120.12841800000024,103.46142599999985,109.48730499999965,65.51269500000035,111.79492200000004
57,101.41015599999992,89.87158199999976,111.41015599999992,71.0258789999998,138.0771479999994,110.64111300000059,134.10253900000043,135.2563479999999,127.56396500000028,124.10253900000043,103.46142599999985,109.61523400000078,64.74365200000011,112.56396500000028
58,93.7177729999994,86.79492200000004,108.0771479999994,67.43603499999972,130.2563479999999,106.6665039999998,131.15380900000036,132.56396500000028,122.05126999999993,122.69238299999961,99.87158199999976,106.2822270000006,66.2822270000006,113.7177729999994
59,84.61523400000078,80.51269500000035,100.89746099999957,58.46142599999985,116.15380900000036,105.0,122.82031300000017,124.74365200000011,113.58984400000008,116.53857400000015,96.41015599999992,100.76904300000024,71.79492200000004,114.74365200000011
60,78.84619099999964,73.20507799999996,94.35888699999941,48.46142599999985,103.58984400000008,106.9228520000006,113.0771479999994,116.6665039999998,107.82031300000017,111.15380900000036,97.56396500000028,96.2822270000006,81.79492200000004,115.76904300000024
61,80.76904300000024,68.84619099999964,93.7177729999994,43.974121000000196,101.15380900000036,111.41015599999992,108.20507799999996,114.35888699999941,109.87158199999976,113.20507799999996,105.64111300000059,96.15380900000036,95.89746099999957,116.15380900000036
62,91.2822270000006,70.38476599999922,100.51269500000035,49.35888699999941,111.53857400000015,115.76904300000024,112.56396500000028,120.0,120.76904300000024,125.25634799999989,119.74365200000011,101.41015599999992,112.69238299999961,115.38476599999922
63,106.2822270000006,77.05126999999993,111.9228520000006,61.79492200000004,130.0,117.17968800000017,124.61523400000078,130.76904300000024,136.0258789999998,143.0771479999994,135.2563479999999,110.12841800000024,129.61523400000078,113.9741210000002
64,118.0771479999994,84.61523400000078,122.17968800000017,73.20507799999996,146.6665039999998,115.25634799999989,137.43603499999972,140.51269500000035,148.46142599999985,157.6923829999996,146.53857400000015,117.56396500000028,143.7177729999994,112.94873000000007
65,119.87158199999976,87.30761700000039,125.38476599999922,75.64111300000059,151.6665039999998,111.79492200000004,142.94873000000007,143.84619099999964,151.9228520000006,161.0258789999998,149.10253900000043,119.61523400000078,150.76904300000024,112.82031300000017
66,110.12841800000024,81.53857400000015,118.84619099999964,66.6665039999998,141.15380900000036,109.23095699999976,137.3076170000004,138.9741210000002,145.2563479999999,151.41015599999992,141.9228520000006,115.12841800000024,147.94873000000007,112.69238299999961
67,93.7177729999994,69.74365200000011,105.64111300000059,51.153809000000365,120.64111300000059,108.3334960000002,124.35888699999941,128.7177729999994,132.3076170000004,135.12841800000024,128.58984400000008,106.2822270000006,136.2822270000006,111.53857400000015
68,79.87158199999976,58.46142599999985,93.9741210000002,38.0771479999994,102.56396500000028,109.10253900000043,112.05126999999993,119.10253900000043,120.25634799999989,121.41015599999992,115.76904300000024,98.20507799999996,121.53857400000015,109.74365200000011
69,76.41015599999992,54.102539000000434,91.2822270000006,35.0,97.69238299999961,110.51269500000035,106.79492200000004,115.38476599999922,115.25634799999989,116.79492200000004,110.0,94.87158199999976,111.6665039999998,108.46142599999985
70,84.23095699999976,58.20507799999996,98.46142599999985,42.30761700000039,107.05126999999993,111.53857400000015,110.25634799999989,118.58984400000008,119.10253900000043,121.2822270000006,112.82031300000017,96.9228520000006,111.6665039999998,109.23095699999976
71,96.9228520000006,66.9228520000006,109.23095699999976,53.7177729999994,122.43603499999972,111.6665039999998,119.10253900000043,125.38476599999922,127.56396500000028,129.61523400000078,121.0258789999998,101.9228520000006,120.12841800000024,112.05126999999993
72,106.0258789999998,74.74365200000011,115.76904300000024,60.897460999999566,132.6923829999996,111.53857400000015,127.94873000000007,131.53857400000015,134.3588869999994,136.15380900000036,128.84619099999964,105.89746099999957,130.76904300000024,115.51269500000035
73,107.05126999999993,78.46142599999985,114.74365200000011,59.87158199999976,132.43603499999972,112.30761700000039,132.94873000000007,134.7436520000001,135.89746099999957,138.9741210000002,132.3076170000004,106.2822270000006,136.53857400000015,117.17968800000017
74,102.43603499999972,78.20507799999996,108.7177729999994,53.46142599999985,125.0,113.7177729999994,133.20507799999996,135.0,133.58984400000008,139.23095699999976,131.53857400000015,103.7177729999994,135.38476599999922,116.15380900000036
75,97.94873000000007,76.79492200000004,103.3334960000002,48.20507799999996,117.94873000000007,114.87158199999976,130.0,133.58984400000008,130.6411130000006,138.9741210000002,129.23095699999976,101.0258789999998,130.0,113.58984400000008
76,97.82031300000017,76.0258789999998,102.56396500000028,48.589844000000085,116.53857400000015,114.87158199999976,125.38476599999922,131.15380900000036,129.3588869999994,138.7177729999994,127.69238299999961,100.51269500000035,125.25634799999989,111.9228520000006
77,100.89746099999957,76.6665039999998,106.0258789999998,53.846190999999635,120.0,114.10253900000043,121.0258789999998,128.3334960000002,128.84619099999964,137.17968800000017,127.05126999999993,102.56396500000028,123.84619099999964,113.0771479999994
78,102.17968800000017,77.05126999999993,109.48730499999965,58.974121000000196,123.0771479999994,113.0771479999994,117.30761700000039,124.61523400000078,126.53857400000015,132.94873000000007,125.25634799999989,104.35888699999941,123.9741210000002,115.89746099999957
79,97.82031300000017,75.76904300000024,108.58984400000008,59.74365200000011,120.25634799999989,112.05126999999993,114.10253900000043,119.35888699999941,120.64111300000059,125.64111300000059,120.25634799999989,103.46142599999985,121.41015599999992,118.0771479999994
80,88.84619099999964,72.17968800000017,102.82031300000017,56.2822270000006,111.0258789999998,110.76904300000024,111.9228520000006,113.46142599999985,112.56396500000028,117.30761700000039,112.43603499999972,99.87158199999976,114.35888699999941,117.30761700000039
81,80.51269500000035,68.46142599999985,96.0258789999998,52.17968800000017,101.6665039999998,109.23095699999976,111.15380900000036,109.10253900000043,106.2822270000006,111.2822270000006,105.76904300000024,96.2822270000006,105.89746099999957,114.35888699999941
82,78.7177729999994,67.69238299999961,93.9741210000002,52.05126999999993,100.38476599999922,108.3334960000002,112.43603499999972,108.84619099999964,105.76904300000024,110.38476599999922,105.64111300000059,96.0258789999998,102.05126999999993,111.0258789999998
83,85.51269500000035,72.82031300000017,99.48730499999965,58.0771479999994,110.38476599999922,107.82031300000017,115.51269500000035,112.94873000000007,112.43603499999972,116.0258789999998,114.23095699999976,100.12841800000024,106.79492200000004,109.61523400000078
84,97.69238299999961,83.58984400000008,110.38476599999922,67.94873000000007,126.53857400000015,107.69238299999961,119.10253900000043,119.23095699999976,123.58984400000008,127.05126999999993,128.20507799999996,106.6665039999998,119.10253900000043,110.51269500000035
85,107.94873000000007,96.0258789999998,119.35888699999941,76.0258789999998,138.3334960000002,107.30761700000039,121.79492200000004,124.35888699999941,133.58984400000008,138.58984400000008,139.87158199999976,111.79492200000004,132.56396500000028,112.43603499999972
86,110.25634799999989,103.3334960000002,120.0,77.05126999999993,137.94873000000007,106.53857400000015,121.53857400000015,125.0,136.41015599999992,144.10253900000043,142.17968800000017,112.56396500000028,140.0,113.46142599999985
87,103.46142599999985,100.38476599999922,110.89746099999957,70.0,125.76904300000024,105.38476599999922,116.9228520000006,120.64111300000059,130.12841800000024,139.3588869999994,133.0771479999994,107.82031300000017,137.17968800000017,112.94873000000007
88,91.6665039999998,87.17968800000017,97.30761700000039,58.333496000000196,108.7177729999994,105.0,108.7177729999994,112.82031300000017,117.05126999999993,125.64111300000059,116.79492200000004,100.0,125.25634799999989,111.9228520000006
89,81.0258789999998,69.35888699999941,86.79492200000004,47.94873000000007,94.87158199999976,105.89746099999957,100.38476599999922,105.0,103.46142599999985,109.35888699999941,101.0258789999998,93.58984400000008,109.87158199999976,111.9228520000006
90,75.89746099999957,55.76904300000024,84.61523400000078,43.0771479999994,88.9741210000002,107.82031300000017,96.0258789999998,100.51269500000035,95.76904300000024,98.84619099999964,92.82031300000017,92.05126999999993,97.82031300000017,113.20507799999996
91,77.30761700000039,52.94873000000007,90.25634799999989,44.48730499999965,91.53857400000015,109.48730499999965,97.82031300000017,101.2822270000006,97.05126999999993,98.46142599999985,95.12841800000024,95.76904300000024,94.35888699999941,114.61523400000078
92,82.82031300000017,61.153809000000365,98.84619099999964,49.23095699999976,100.51269500000035,110.51269500000035,104.10253900000043,106.79492200000004,105.38476599999922,106.0258789999998,105.76904300000024,101.53857400000015,99.61523400000078,114.87158199999976
93,88.7177729999994,75.0,104.87158199999976,54.102539000000434,111.9228520000006,111.2822270000006,110.89746099999957,114.48730499999965,115.89746099999957,115.76904300000024,118.0771479999994,105.38476599999922,108.9741210000002,114.23095699999976
94,92.82031300000017,87.94873000000007,105.89746099999957,57.82031300000017,122.30761700000039,112.56396500000028,115.89746099999957,121.41015599999992,123.9741210000002,123.3334960000002,126.41015599999992,106.0258789999998,116.79492200000004,113.58984400000008
95,95.51269500000035,95.64111300000059,103.9741210000002,60.76904300000024,128.46142599999985,114.35888699999941,119.23095699999976,126.41015599999992,128.0771479999994,128.3334960000002,129.61523400000078,105.51269500000035,121.41015599999992,113.3334960000002
96,98.84619099999964,98.0771479999994,104.10253900000043,64.35888699999941,129.48730499999965,115.89746099999957,121.53857400000015,129.61523400000078,129.87158199999976,132.94873000000007,130.0,106.6665039999998,124.35888699999941,113.58984400000008
97,103.20507799999996,97.56396500000028,108.58984400000008,68.84619099999964,126.79492200000004,116.53857400000015,123.7177729999994,131.6665039999998,132.05126999999993,138.84619099999964,130.51269500000035,110.64111300000059,127.56396500000028,113.84619099999964
98,106.79492200000004,97.30761700000039,115.89746099999957,73.46142599999985,123.7177729999994,116.15380900000036,125.64111300000059,132.82031300000017,135.0,145.0,131.9228520000006,116.2822270000006,131.15380900000036,114.10253900000043
99,106.9228520000006,98.3334960000002,120.89746099999957,76.53857400000015,121.79492200000004,115.12841800000024,126.53857400000015,132.6923829999996,136.9228520000006,148.58984400000008,132.94873000000007,120.0,133.7177729999994,114.23095699999976
100,102.30761700000039,98.84619099999964,120.0,75.76904300000024,120.12841800000024,114.10253900000043,124.48730499999965,131.0258789999998,135.38476599999922,146.9228520000006,131.41015599999992,119.10253900000043,133.46142599999985,113.9741210000002
101,93.84619099999964,95.38476599999922,113.0771479999994,69.48730499999965,116.0258789999998,113.3334960000002,118.9741210000002,127.05126999999993,129.7436520000001,139.23095699999976,126.15380900000036,113.20507799999996,128.58984400000008,113.46142599999985
102,84.35888699999941,86.79492200000004,103.9741210000002,58.589844000000085,108.58984400000008,112.17968800000017,111.53857400000015,121.41015599999992,122.30761700000039,128.58984400000008,118.58984400000008,105.0,119.74365200000011,113.46142599999985
103,77.69238299999961,76.41015599999992,97.30761700000039,46.666503999999804,100.12841800000024,109.74365200000011,105.76904300000024,115.89746099999957,116.9228520000006,120.25634799999989,112.30761700000039,98.84619099999964,110.64111300000059,113.84619099999964
104,76.2822270000006,70.12841800000024,96.2822270000006,39.102539000000434,95.25634799999989,107.05126999999993,104.48730499999965,113.46142599999985,116.9228520000006,117.69238299999961,110.38476599999922,97.69238299999961,106.6665039999998,114.35888699999941
105,80.25634799999989,72.30761700000039,101.0258789999998,39.74365200000011,98.7177729999994,106.41015599999992,108.0771479999994,115.25634799999989,121.79492200000004,120.51269500000035,113.9741210000002,101.79492200000004,110.51269500000035,114.48730499999965
106,87.82031300000017,82.69238299999961,109.23095699999976,49.23095699999976,110.89746099999957,109.61523400000078,114.35888699999941,120.25634799999989,128.3334960000002,125.64111300000059,121.15380900000036,108.7177729999994,120.12841800000024,114.23095699999976
107,96.15380900000036,96.0258789999998,117.17968800000017,63.974121000000196,126.0258789999998,114.87158199999976,119.74365200000011,125.64111300000059,133.20507799999996,130.89746099999957,128.46142599999985,114.61523400000078,129.3588869999994,114.10253900000043
108,102.56396500000028,106.0258789999998,121.6665039999998,77.17968800000017,135.6411130000006,118.9741210000002,121.79492200000004,128.46142599999985,134.61523400000078,135.12841800000024,132.94873000000007,117.05126999999993,132.3076170000004,113.9741210000002
109,105.25634799999989,109.35888699999941,121.53857400000015,82.56396500000028,134.10253900000043,119.35888699999941,120.0,126.9228520000006,132.94873000000007,137.17968800000017,132.82031300000017,116.0258789999998,127.43603499999972,113.58984400000008
110,103.9741210000002,106.53857400000015,118.3334960000002,78.58984400000008,122.94873000000007,116.15380900000036,116.15380900000036,121.79492200000004,130.2563479999999,135.89746099999957,129.7436520000001,113.58984400000008,118.46142599999985,112.94873000000007
111,100.51269500000035,101.2822270000006,114.74365200000011,69.35888699999941,109.48730499999965,111.79492200000004,112.05126999999993,115.89746099999957,128.58984400000008,131.9228520000006,126.53857400000015,111.6665039999998,111.53857400000015,112.56396500000028
112,98.0771479999994,97.56396500000028,113.0771479999994,61.666503999999804,101.53857400000015,108.7177729999994,110.38476599999922,112.82031300000017,128.84619099999964,128.9741210000002,125.89746099999957,111.6665039999998,111.79492200000004,112.82031300000017
113,99.35888699999941,97.43603499999972,114.23095699999976,60.76904300000024,102.43603499999972,108.58984400000008,112.05126999999993,115.12841800000024,130.76904300000024,130.76904300000024,128.3334960000002,113.3334960000002,119.48730499999965,113.58984400000008
114,105.0,100.76904300000024,116.9228520000006,67.05126999999993,109.87158199999976,111.15380900000036,116.53857400000015,121.9228520000006,133.0771479999994,137.56396500000028,132.3076170000004,115.51269500000035,130.12841800000024,114.10253900000043
115,112.82031300000017,105.25634799999989,119.23095699999976,76.0258789999998,118.84619099999964,114.48730499999965,120.89746099999957,129.61523400000078,134.23095699999976,145.6411130000006,135.89746099999957,117.56396500000028,137.82031300000017,113.9741210000002
116,117.94873000000007,108.7177729999994,119.74365200000011,81.6665039999998,125.0,116.6665039999998,122.69238299999961,133.84619099999964,133.9741210000002,149.61523400000078,137.6923829999996,118.3334960000002,139.23095699999976,113.0771479999994
117,117.30761700000039,109.87158199999976,118.3334960000002,80.12841800000024,126.79492200000004,117.17968800000017,121.15380900000036,132.82031300000017,133.0771479999994,147.17968800000017,136.9228520000006,117.69238299999961,135.76904300000024,111.6665039999998
118,111.6665039999998,109.61523400000078,116.15380900000036,72.43603499999972,125.38476599999922,116.6665039999998,118.20507799999996,128.3334960000002,133.0771479999994,140.6411130000006,135.0,115.76904300000024,131.79492200000004,110.76904300000024
119,104.87158199999976,108.7177729999994,114.61523400000078,62.69238299999961,122.05126999999993,115.89746099999957,115.64111300000059,123.58984400000008,134.10253900000043,133.9741210000002,132.94873000000007,113.20507799999996,130.38476599999922,111.15380900000036
120,100.38476599999922,107.17968800000017,113.46142599999985,54.74365200000011,117.94873000000007,115.0,114.10253900000043,120.25634799999989,133.9741210000002,128.84619099999964,131.15380900000036,109.87158199999976,130.89746099999957,112.82031300000017
121,98.58984400000008,104.48730499999965,111.6665039999998,50.64111300000059,113.46142599999985,114.35888699999941,113.46142599999985,118.3334960000002,130.6411130000006,125.25634799999989,128.9741210000002,106.53857400000015,130.2563479999999,114.61523400000078
122,98.20507799999996,101.2822270000006,109.61523400000078,50.897460999999566,110.0,114.48730499999965,113.84619099999964,117.56396500000028,124.48730499999965,123.58984400000008,126.53857400000015,104.48730499999965,126.41015599999992,115.38476599999922
123,98.3334960000002,98.9741210000002,108.7177729999994,53.846190999999635,108.84619099999964,115.25634799999989,115.25634799999989,118.3334960000002,118.58984400000008,125.0,125.51269500000035,105.64111300000059,121.79492200000004,114.23095699999976
124,99.10253900000043,98.20507799999996,110.0,57.82031300000017,111.15380900000036,116.0258789999998,116.9228520000006,120.89746099999957,117.05126999999993,129.7436520000001,126.9228520000006,110.12841800000024,120.12841800000024,111.53857400000015
125,101.0258789999998,99.10253900000043,112.94873000000007,61.410155999999915,116.15380900000036,116.15380900000036,117.69238299999961,124.35888699999941,121.15380900000036,136.79492200000004,130.12841800000024,115.25634799999989,123.58984400000008,109.23095699999976
126,103.46142599999985,101.41015599999992,116.15380900000036,64.23095699999976,121.41015599999992,116.2822270000006,117.17968800000017,127.30761700000039,128.0771479999994,142.94873000000007,132.56396500000028,117.30761700000039,130.38476599999922,109.35888699999941
127,106.0258789999998,105.25634799999989,118.0771479999994,66.6665039999998,123.9741210000002,116.53857400000015,116.53857400000015,128.7177729999994,132.6923829999996,145.2563479999999,132.56396500000028,114.87158199999976,136.15380900000036,112.56396500000028
128,107.43603499999972,110.38476599999922,118.0771479999994,68.58984400000008,122.43603499999972,116.41015599999992,116.41015599999992,128.0771479999994,131.6665039999998,141.79492200000004,130.12841800000024,109.74365200000011,136.79492200000004,117.17968800000017
129,107.56396500000028,115.25634799999989,116.6665039999998,69.35888699999941,118.20507799999996,115.76904300000024,116.6665039999998,125.76904300000024,125.38476599999922,133.9741210000002,126.15380900000036,105.38476599999922,132.43603499999972,120.12841800000024
130,106.9228520000006,117.82031300000017,114.87158199999976,67.94873000000007,114.48730499999965,114.74365200000011,116.0258789999998,122.69238299999961,118.3334960000002,126.53857400000015,121.9228520000006,103.9741210000002,125.64111300000059,120.0
131,106.2822270000006,115.89746099999957,114.10253900000043,64.48730499999965,112.69238299999961,114.23095699999976,113.46142599999985,120.0,114.48730499999965,124.35888699999941,117.82031300000017,105.76904300000024,119.48730499999965,117.56396500000028
132,105.25634799999989,109.61523400000078,114.61523400000078,59.48730499999965,112.17968800000017,114.48730499999965,109.48730499999965,117.94873000000007,114.35888699999941,127.56396500000028,114.48730499999965,108.46142599999985,115.25634799999989,114.74365200000011
133,103.20507799999996,101.15380900000036,115.12841800000024,54.48730499999965,111.53857400000015,115.25634799999989,105.64111300000059,116.53857400000015,115.76904300000024,131.53857400000015,112.82031300000017,109.87158199999976,112.69238299999961,112.94873000000007
134,100.64111300000059,95.12841800000024,114.61523400000078,50.64111300000059,110.89746099999957,116.15380900000036,103.58984400000008,115.25634799999989,116.2822270000006,131.53857400000015,113.84619099999964,109.48730499999965,111.9228520000006,112.82031300000017
135,99.87158199999976,95.25634799999989,113.3334960000002,50.51269500000035,111.9228520000006,116.6665039999998,104.74365200000011,115.0,115.89746099999957,128.3334960000002,118.46142599999985,109.10253900000043,114.35888699999941,113.9741210000002
136,103.0771479999994,102.30761700000039,113.7177729999994,55.51269500000035,115.38476599999922,117.05126999999993,109.10253900000043,116.9228520000006,116.9228520000006,126.9228520000006,125.89746099999957,110.76904300000024,120.76904300000024,115.76904300000024
137,110.12841800000024,112.94873000000007,117.43603499999972,64.61523400000078,119.74365200000011,117.43603499999972,115.25634799999989,121.9228520000006,121.79492200000004,131.2822270000006,133.58984400000008,114.61523400000078,129.87158199999976,117.05126999999993
138,117.69238299999961,121.2822270000006,123.3334960000002,73.58984400000008,121.79492200000004,118.0771479999994,121.0258789999998,128.84619099999964,129.7436520000001,140.12841800000024,138.84619099999964,118.84619099999964,138.3334960000002,116.79492200000004
139,121.41015599999992,122.56396500000028,127.69238299999961,77.05126999999993,118.9741210000002,118.58984400000008,124.10253900000043,134.48730499999965,136.79492200000004,148.0771479999994,139.3588869999994,121.0258789999998,142.05126999999993,114.87158199999976
140,119.35888699999941,116.41015599999992,127.17968800000017,72.43603499999972,111.41015599999992,118.3334960000002,123.20507799999996,135.2563479999999,138.0771479999994,149.48730499999965,135.51269500000035,120.0,139.48730499999965,112.43603499999972
141,113.9741210000002,107.56396500000028,122.30761700000039,63.0771479999994,103.3334960000002,117.69238299999961,119.35888699999941,130.0,131.9228520000006,143.7177729999994,129.61523400000078,116.9228520000006,132.3076170000004,110.76904300000024
142,109.87158199999976,102.69238299999961,117.17968800000017,56.153809000000365,100.25634799999989,116.41015599999992,114.87158199999976,122.05126999999993,122.17968800000017,135.2563479999999,125.64111300000059,114.87158199999976,125.64111300000059,110.76904300000024
143,110.38476599999922,104.87158199999976,116.53857400000015,56.79492200000004,105.12841800000024,114.74365200000011,112.56396500000028,116.2822270000006,115.38476599999922,129.87158199999976,126.41015599999992,115.51269500000035,123.9741210000002,112.43603499999972
144,114.87158199999976,111.9228520000006,121.41015599999992,64.48730499999965,115.76904300000024,113.3334960000002,113.3334960000002,116.15380900000036,116.15380900000036,130.12841800000024,131.6665039999998,118.20507799999996,128.20507799999996,114.87158199999976
145,119.61523400000078,118.46142599999985,128.3334960000002,72.69238299999961,126.0258789999998,113.3334960000002,116.0258789999998,120.64111300000059,123.0771479999994,134.10253900000043,137.6923829999996,120.38476599999922,134.48730499999965,117.30761700000039
146,120.89746099999957,120.12841800000024,132.05126999999993,74.48730499999965,129.7436520000001,114.87158199999976,118.46142599999985,126.15380900000036,130.51269500000035,136.9228520000006,139.87158199999976,120.38476599999922,137.05126999999993,118.3334960000002
147,117.94873000000007,116.79492200000004,129.23095699999976,67.94873000000007,125.64111300000059,115.89746099999957,118.84619099999964,128.58984400000008,133.3334960000002,135.51269500000035,136.15380900000036,118.20507799999996,133.20507799999996,117.05126999999993
148,113.46142599999985,112.17968800000017,122.05126999999993,58.0771479999994,117.69238299999961,114.87158199999976,117.17968800000017,126.9228520000006,130.2563479999999,129.61523400000078,128.84619099999964,115.76904300000024,125.64111300000059,114.35888699999941
149,111.2822270000006,110.25634799999989,115.89746099999957,52.82031300000017,112.30761700000039,112.17968800000017,115.12841800000024,122.82031300000017,124.35888699999941,122.43603499999972,122.43603499999972,114.61523400000078,120.38476599999922,112.17968800000017
150,113.3334960000002,112.56396500000028,115.38476599999922,56.79492200000004,112.56396500000028,109.87158199999976,114.48730499999965,119.74365200000011,119.87158199999976,117.43603499999972,121.15380900000036,115.38476599999922,120.64111300000059,111.79492200000004
151,117.43603499999972,116.6665039999998,120.0,66.2822270000006,116.6665039999998,108.46142599999985,115.89746099999957,118.9741210000002,119.23095699999976,115.89746099999957,124.48730499999965,117.05126999999993,124.74365200000011,112.69238299999961
152,119.87158199999976,118.3334960000002,125.12841800000024,72.82031300000017,119.35888699999941,107.69238299999961,118.3334960000002,120.12841800000024,121.15380900000036,116.53857400000015,128.20507799999996,117.56396500000028,126.79492200000004,113.84619099999964
153,117.94873000000007,115.25634799999989,126.15380900000036,70.25634799999989,117.30761700000039,107.05126999999993,119.87158199999976,121.41015599999992,122.56396500000028,117.56396500000028,127.43603499999972,115.38476599999922,122.94873000000007,114.23095699999976
154,112.82031300000017,109.10253900000043,122.69238299999961,60.38476599999922,111.0258789999998,106.41015599999992,119.87158199999976,121.41015599999992,121.41015599999992,118.0771479999994,120.38476599999922,110.64111300000059,113.9741210000002,113.7177729999994
155,107.43603499999972,102.94873000000007,117.82031300000017,50.76904300000024,103.9741210000002,106.15380900000036,118.58984400000008,119.74365200000011,117.69238299999961,117.94873000000007,110.0,105.51269500000035,103.9741210000002,112.56396500000028
156,103.7177729999994,99.23095699999976,115.0,47.69238299999961,99.10253900000043,105.89746099999957,116.79492200000004,116.6665039999998,112.30761700000039,115.76904300000024,101.2822270000006,102.30761700000039,97.30761700000039,111.41015599999992
157,101.79492200000004,98.7177729999994,114.61523400000078,51.025878999999804,97.82031300000017,105.76904300000024,114.48730499999965,112.82031300000017,106.79492200000004,110.64111300000059,97.56396500000028,101.53857400000015,95.25634799999989,111.15380900000036
158,100.12841800000024,100.25634799999989,115.0,55.12841800000024,100.0,105.76904300000024,111.0258789999998,108.9741210000002,102.05126999999993,104.10253900000043,98.84619099999964,101.6665039999998,96.6665039999998,112.17968800000017
159,98.20507799999996,102.43603499999972,114.74365200000011,55.25634799999989,103.84619099999964,105.51269500000035,107.05126999999993,105.76904300000024,98.7177729999994,99.74365200000011,102.30761700000039,101.41015599999992,99.35888699999941,113.7177729999994
160,97.17968800000017,104.87158199999976,113.84619099999964,51.53857400000015,107.82031300000017,105.64111300000059,104.35888699999941,104.23095699999976,97.94873000000007,100.76904300000024,105.12841800000024,100.51269500000035,101.79492200000004,114.61523400000078
161,98.3334960000002,108.7177729999994,113.9741210000002,48.589844000000085,112.17968800000017,107.05126999999993,105.64111300000059,105.76904300000024,101.2822270000006,106.79492200000004,107.17968800000017,100.38476599999922,104.87158199999976,114.61523400000078
162,102.56396500000028,115.25634799999989,115.64111300000059,50.76904300000024,117.82031300000017,110.64111300000059,111.2822270000006,110.64111300000059,108.7177729999994,114.35888699999941,110.0,101.6665039999998,109.35888699999941,113.58984400000008
163,108.46142599999985,122.56396500000028,117.82031300000017,56.79492200000004,122.69238299999961,115.25634799999989,118.3334960000002,116.6665039999998,116.79492200000004,119.10253900000043,114.23095699999976,103.7177729999994,114.23095699999976,112.17968800000017
164,112.17968800000017,125.64111300000059,118.46142599999985,60.0,122.56396500000028,117.69238299999961,121.41015599999992,119.87158199999976,120.25634799999989,117.69238299999961,116.9228520000006,104.61523400000078,115.89746099999957,111.15380900000036
165,110.25634799999989,120.25634799999989,116.53857400000015,55.12841800000024,115.38476599999922,116.2822270000006,117.56396500000028,116.6665039999998,115.64111300000059,110.0,114.23095699999976,103.58984400000008,111.6665039999998,111.41015599999992
166,103.0771479999994,109.10253900000043,113.3334960000002,44.23095699999976,105.0,112.05126999999993,108.58984400000008,108.20507799999996,105.25634799999989,99.87158199999976,106.41015599999992,101.2822270000006,103.84619099999964,113.0771479999994
167,95.76904300000024,100.12841800000024,111.79492200000004,35.64111300000059,99.74365200000011,108.3334960000002,100.51269500000035,99.61523400000078,96.15380900000036,93.46142599999985,99.10253900000043,100.12841800000024,98.46142599999985,114.74365200000011
168,93.84619099999964,100.51269500000035,113.58984400000008,35.897460999999566,104.10253900000043,107.82031300000017,98.7177729999994,96.0258789999998,93.3334960000002,94.48730499999965,98.3334960000002,101.0258789999998,100.12841800000024,115.12841800000024
169,98.46142599999985,108.9741210000002,116.9228520000006,43.7177729999994,113.58984400000008,110.64111300000059,103.58984400000008,98.46142599999985,96.2822270000006,101.0258789999998,104.35888699999941,102.69238299999961,107.17968800000017,113.84619099999964
170,106.0258789999998,118.46142599999985,118.58984400000008,51.2822270000006,118.0771479999994,113.7177729999994,111.15380900000036,103.7177729999994,100.25634799999989,107.43603499999972,111.9228520000006,103.3334960000002,114.10253900000043,112.43603499999972
171,111.9228520000006,122.82031300000017,117.94873000000007,52.69238299999961,112.43603499999972,114.10253900000043,116.9228520000006,108.0771479999994,101.79492200000004,110.0,115.89746099999957,102.56396500000028,117.43603499999972,111.79492200000004
172,115.0,122.56396500000028,117.56396500000028,48.7177729999994,102.17968800000017,111.6665039999998,118.46142599999985,110.64111300000059,101.6665039999998,109.87158199999976,116.0258789999998,102.17968800000017,119.23095699999976,111.9228520000006
173,116.6665039999998,122.17968800000017,120.64111300000059,45.12841800000024,98.46142599999985,109.35888699999941,117.30761700000039,112.43603499999972,103.58984400000008,110.89746099999957,116.0258789999998,104.48730499999965,123.20507799999996,112.56396500000028
174,118.46142599999985,125.76904300000024,126.9228520000006,47.05126999999993,107.56396500000028,110.25634799999989,115.89746099999957,115.51269500000035,110.0,115.76904300000024,120.0,109.48730499999965,130.51269500000035,112.94873000000007
175,120.76904300000024,132.43603499999972,132.82031300000017,53.46142599999985,125.25634799999989,114.10253900000043,116.0258789999998,119.61523400000078,118.7177729999994,123.0771479999994,127.30761700000039,114.61523400000078,137.6923829999996,112.82031300000017
176,122.43603499999972,138.20507799999996,133.84619099999964,59.102539000000434,140.51269500000035,117.43603499999972,117.43603499999972,123.20507799999996,124.74365200000011,128.84619099999964,134.10253900000043,116.0258789999998,140.38476599999922,112.17968800000017
177,121.79492200000004,139.7436520000001,129.23095699999976,58.46142599999985,145.12841800000024,117.05126999999993,118.84619099999964,124.23095699999976,124.48730499999965,130.0,135.6411130000006,112.43603499999972,137.82031300000017,111.6665039999998
178,118.0771479999994,136.2822270000006,122.05126999999993,50.25634799999989,138.9741210000002,113.3334960000002,118.9741210000002,121.6665039999998,118.84619099999964,126.15380900000036,130.0,106.0258789999998,132.56396500000028,112.17968800000017
179,112.82031300000017,130.0,117.05126999999993,38.846190999999635,127.30761700000039,108.9741210000002,116.79492200000004,115.89746099999957,111.2822270000006,118.7177729999994,119.35888699999941,101.15380900000036,128.0771479999994,113.58984400000008
180,107.43603499999972,123.20507799999996,115.64111300000059,30.25634799999989,115.64111300000059,107.05126999999993,112.69238299999961,108.84619099999964,104.87158199999976,109.74365200000011,108.58984400000008,100.0,125.38476599999922,114.61523400000078
181,102.94873000000007,117.30761700000039,115.76904300000024,27.69238299999961,106.41015599999992,108.58984400000008,107.43603499999972,102.69238299999961,100.51269500000035,101.53857400000015,102.05126999999993,100.64111300000059,122.94873000000007,114.35888699999941
182,99.87158199999976,112.94873000000007,114.61523400000078,29.74365200000011,99.61523400000078,111.79492200000004,103.20507799999996,99.35888699999941,97.56396500000028,96.0258789999998,101.15380900000036,100.38476599999922,119.87158199999976,113.3334960000002
183,100.0,111.53857400000015,112.43603499999972,32.82031300000017,96.0258789999998,113.9741210000002,101.6665039999998,99.23095699999976,96.2822270000006,94.74365200000011,105.0,98.9741210000002,117.30761700000039,112.43603499999972
184,105.0,115.76904300000024,112.17968800000017,35.0,98.46142599999985,113.7177729999994,103.7177729999994,102.17968800000017,97.69238299999961,98.84619099999964,111.2822270000006,98.7177729999994,118.3334960000002,111.6665039999998
185,114.74365200000011,126.9228520000006,116.15380900000036,36.79492200000004,108.9741210000002,112.56396500000028,108.84619099999964,107.30761700000039,103.0771479999994,107.17968800000017,118.9741210000002,101.9228520000006,125.64111300000059,111.2822270000006
186,126.0258789999998,141.53857400000015,123.46142599999985,39.87158199999976,124.87158199999976,112.30761700000039,114.74365200000011,113.0771479999994,111.0258789999998,116.9228520000006,127.17968800000017,107.05126999999993,137.6923829999996,111.41015599999992
187,133.46142599999985,151.41015599999992,129.48730499999965,43.0771479999994,137.6923829999996,113.58984400000008,118.0771479999994,117.56396500000028,118.0771479999994,123.20507799999996,133.20507799999996,110.64111300000059,148.20507799999996,112.17968800000017
188,133.20507799999996,149.48730499999965,130.12841800000024,43.846190999999635,139.23095699999976,115.38476599999922,117.30761700000039,118.7177729999994,120.51269500000035,122.56396500000028,134.23095699999976,109.61523400000078,151.53857400000015,113.3334960000002
189,126.15380900000036,137.05126999999993,125.12841800000024,41.53857400000015,128.84619099999964,116.0258789999998,113.9741210000002,115.89746099999957,117.56396500000028,116.2822270000006,130.12841800000024,105.12841800000024,147.3076170000004,114.61523400000078
190,118.58984400000008,124.23095699999976,119.74365200000011,38.333496000000196,114.74365200000011,115.25634799999989,111.9228520000006,111.79492200000004,112.69238299999961,110.25634799999989,125.25634799999989,101.6665039999998,141.6665039999998,115.38476599999922
191,116.79492200000004,121.79492200000004,119.48730499999965,37.30761700000039,108.0771479999994,114.35888699999941,113.20507799999996,110.25634799999989,110.64111300000059,110.64111300000059,125.51269500000035,102.94873000000007,142.56396500000028,115.38476599999922
192,122.94873000000007,131.6665039999998,125.38476599999922,39.61523400000078,113.3334960000002,114.35888699999941,116.15380900000036,112.56396500000028,113.46142599999985,117.69238299999961,132.56396500000028,108.84619099999964,152.17968800000017,114.87158199999976
193,132.82031300000017,146.0258789999998,133.0771479999994,43.20507799999996,125.0,115.38476599999922,117.05126999999993,116.53857400000015,119.10253900000043,126.15380900000036,142.56396500000028,115.51269500000035,165.38476599999922,113.84619099999964
194,140.2563479999999,155.2563479999999,136.9228520000006,44.87158199999976,133.58984400000008,116.15380900000036,113.3334960000002,118.84619099999964,123.20507799999996,130.0,149.48730499999965,118.84619099999964,174.87158199999976,113.3334960000002
195,141.41015599999992,155.89746099999957,135.51269500000035,43.20507799999996,132.82031300000017,115.38476599999922,107.05126999999993,117.82031300000017,122.69238299999961,127.82031300000017,150.89746099999957,118.20507799999996,176.79492200000004,113.58984400000008
196,137.17968800000017,151.41015599999992,131.9228520000006,39.35888699999941,124.10253900000043,112.69238299999961,101.9228520000006,114.23095699999976,118.46142599999985,122.43603499999972,148.3334960000002,115.89746099999957,173.0771479999994,113.9741210000002
197,131.9228520000006,146.9228520000006,130.0,35.51269500000035,112.43603499999972,109.48730499999965,100.51269500000035,109.48730499999965,113.20507799999996,116.9228520000006,145.2563479999999,114.48730499999965,167.82031300000017,113.7177729999994
198,129.87158199999976,145.12841800000024,130.6411130000006,33.333496000000196,102.82031300000017,108.3334960000002,101.53857400000015,104.87158199999976,108.20507799999996,111.2822270000006,143.20507799999996,114.74365200000011,164.10253900000043,112.56396500000028
199,132.3076170000004,145.2563479999999,132.3076170000004,33.20507799999996,97.82031300000017,110.38476599999922,101.79492200000004,100.64111300000059,102.94873000000007,104.35888699999941,142.56396500000028,115.89746099999957,162.6923829999996,111.53857400000015
200,137.94873000000007,146.53857400000015,133.7177729999994,34.87158199999976,99.74365200000011,114.23095699999976,100.25634799999989,98.3334960000002,97.82031300000017,97.56396500000028,143.46142599999985,117.17968800000017,164.23095699999976,111.53857400000015
201,143.84619099999964,148.9741210000002,135.6411130000006,37.82031300000017,108.84619099999964,117.82031300000017,99.87158199999976,99.48730499999965,95.64111300000059,95.89746099999957,146.41015599999992,118.9741210000002,168.7177729999994,112.43603499999972
202,148.84619099999964,153.58984400000008,139.48730499999965,40.76904300000024,121.6665039999998,119.35888699999941,103.9741210000002,104.48730499999965,99.23095699999976,103.3334960000002,152.05126999999993,122.05126999999993,175.89746099999957,113.58984400000008
203,152.3076170000004,160.12841800000024,144.48730499999965,42.69238299999961,131.79492200000004,119.10253900000043,112.17968800000017,111.79492200000004,108.3334960000002,118.0771479999994,159.48730499999965,126.2822270000006,184.23095699999976,114.35888699999941
204,153.7177729999994,166.53857400000015,147.3076170000004,42.30761700000039,134.3588869999994,118.0771479999994,119.87158199999976,117.43603499999972,117.56396500000028,132.17968800000017,166.0258789999998,129.10253900000043,191.0258789999998,114.35888699999941
205,151.6665039999998,169.48730499999965,144.3588869999994,38.846190999999635,128.9741210000002,116.9228520000006,121.15380900000036,117.56396500000028,121.15380900000036,136.53857400000015,167.3076170000004,127.43603499999972,192.56396500000028,113.9741210000002
206,144.48730499999965,165.6411130000006,134.87158199999976,31.666503999999804,119.48730499999965,116.41015599999992,113.84619099999964,110.51269500000035,115.76904300000024,126.9228520000006,159.48730499999965,119.74365200000011,185.2563479999999,113.58984400000008
207,132.82031300000017,153.7177729999994,122.43603499999972,21.025878999999804,109.35888699999941,116.15380900000036,100.64111300000059,97.94873000000007,102.30761700000039,106.9228520000006,143.20507799999996,108.7177729999994,168.9741210000002,113.58984400000008
208,120.0,137.43603499999972,112.69238299999961,9.102539000000434,100.25634799999989,116.2822270000006,88.46142599999985,85.25634799999989,85.64111300000059,86.15380900000036,124.35888699999941,99.23095699999976,148.7177729999994,113.9741210000002
209,110.51269500000035,123.58984400000008,109.10253900000043,-0.6411130000005869,93.0771479999994,116.2822270000006,83.9741210000002,78.20507799999996,73.0771479999994,74.87158199999976,111.79492200000004,95.64111300000059,133.3334960000002,114.74365200000011
210,107.30761700000039,118.3334960000002,111.79492200000004,-5.641113000000132,90.12841800000024,116.41015599999992,89.48730499999965,79.74365200000011,70.51269500000035,77.05126999999993,110.76904300000024,97.82031300000017,129.3588869999994,114.87158199999976
211,110.76904300000024,122.17968800000017,117.17968800000017,-5.769286999999622,93.84619099999964,117.17968800000017,100.64111300000059,88.0771479999994,78.46142599999985,88.7177729999994,120.0,102.82031300000017,137.05126999999993,113.7177729999994
212,118.58984400000008,130.51269500000035,121.15380900000036,-2.5639650000002803,103.9741210000002,118.3334960000002,110.51269500000035,97.69238299999961,92.05126999999993,102.43603499999972,132.82031300000017,107.30761700000039,150.38476599999922,111.9228520000006
213,126.9228520000006,138.0771479999994,121.79492200000004,1.7949220000000423,116.2822270000006,118.7177729999994,114.23095699999976,103.7177729999994,103.84619099999964,111.6665039999998,142.43603499999972,109.61523400000078,162.05126999999993,110.25634799999989
214,132.3076170000004,141.53857400000015,119.87158199999976,5.512695000000349,124.74365200000011,117.17968800000017,111.9228520000006,104.48730499999965,109.23095699999976,115.12841800000024,146.15380900000036,110.0,167.82031300000017,109.87158199999976
215,133.46142599999985,141.0258789999998,117.69238299999961,7.692382999999609,126.41015599999992,114.48730499999965,107.43603499999972,102.69238299999961,108.84619099999964,114.87158199999976,145.76904300000024,109.35888699999941,168.84619099999964,110.38476599999922
216,131.0258789999998,138.20507799999996,116.79492200000004,8.205077999999958,122.82031300000017,113.0771479999994,105.25634799999989,102.30761700000039,106.9228520000006,114.10253900000043,144.7436520000001,108.58984400000008,168.7177729999994,111.53857400000015
217,127.17968800000017,135.6411130000006,117.17968800000017,7.56396500000028,118.7177729999994,114.48730499999965,106.9228520000006,105.38476599999922,107.43603499999972,115.0,145.6411130000006,108.46142599999985,171.15380900000036,112.56396500000028
218,123.7177729999994,135.0,117.82031300000017,5.769043000000238,117.82031300000017,117.94873000000007,110.89746099999957,111.41015599999992,111.6665039999998,117.56396500000028,148.3334960000002,108.46142599999985,176.15380900000036,112.94873000000007
219,121.15380900000036,136.9228520000006,117.82031300000017,3.077147999999397,120.76904300000024,120.64111300000059,115.0,117.43603499999972,117.56396500000028,120.89746099999957,150.89746099999957,108.20507799999996,180.89746099999957,112.82031300000017
220,119.35888699999941,139.7436520000001,117.17968800000017,-0.769043000000238,124.61523400000078,120.0,117.05126999999993,120.38476599999922,121.6665039999998,122.94873000000007,150.2563479999999,107.30761700000039,180.2563479999999,112.82031300000017
221,117.82031300000017,140.89746099999957,115.89746099999957,-5.38452099999995,125.38476599999922,116.2822270000006,116.53857400000015,118.9741210000002,122.05126999999993,122.17968800000017,144.87158199999976,105.89746099999957,171.41015599999992,113.58984400000008
222,116.2822270000006,139.10253900000043,114.23095699999976,-9.8718259999996,122.05126999999993,111.53857400000015,114.61523400000078,114.74365200000011,118.9741210000002,118.3334960000002,136.41015599999992,104.23095699999976,156.2822270000006,114.74365200000011
223,115.38476599999922,135.38476599999922,113.0771479999994,-12.820557000000008,118.58984400000008,108.84619099999964,113.7177729999994,111.6665039999998,115.76904300000024,114.10253900000043,129.23095699999976,103.0771479999994,141.53857400000015,115.76904300000024
224,115.64111300000059,132.17968800000017,113.58984400000008,-12.692382999999609,119.61523400000078,109.74365200000011,115.12841800000024,112.30761700000039,115.76904300000024,112.82031300000017,126.9228520000006,102.56396500000028,133.3334960000002,115.76904300000024
225,115.89746099999957,130.38476599999922,115.25634799999989,-10.1281740000004,125.51269500000035,113.3334960000002,117.94873000000007,116.15380900000036,118.9741210000002,115.0,128.7177729999994,102.56396500000028,132.3076170000004,114.74365200000011
226,114.87158199999976,129.3588869999994,116.79492200000004,-7.692382999999609,131.9228520000006,117.05126999999993,119.35888699999941,119.48730499999965,122.17968800000017,117.43603499999972,130.51269500000035,102.05126999999993,133.84619099999964,113.3334960000002
227,112.17968800000017,127.69238299999961,116.79492200000004,-7.564209000000574,134.7436520000001,118.58984400000008,118.7177729999994,119.35888699999941,121.6665039999998,116.53857400000015,129.23095699999976,101.2822270000006,133.84619099999964,112.05126999999993
228,109.61523400000078,125.89746099999957,115.64111300000059,-9.61547900000005,134.23095699999976,117.69238299999961,117.69238299999961,116.0258789999998,117.82031300000017,112.56396500000028,125.25634799999989,101.6665039999998,131.41015599999992,112.17968800000017
229,109.87158199999976,125.64111300000059,115.25634799999989,-11.794922000000042,134.10253900000043,115.89746099999957,119.23095699999976,112.94873000000007,114.61523400000078,109.48730499999965,122.17968800000017,104.48730499999965,129.61523400000078,113.46142599999985
230,114.10253900000043,127.56396500000028,117.30761700000039,-11.794922000000042,137.05126999999993,115.0,123.46142599999985,113.0771479999994,116.0258789999998,111.15380900000036,123.0771479999994,109.23095699999976,131.6665039999998,115.12841800000024
231,120.89746099999957,130.51269500000035,120.64111300000059,-9.230713000000378,141.41015599999992,115.64111300000059,127.17968800000017,116.53857400000015,121.53857400000015,117.43603499999972,128.0771479999994,113.58984400000008,138.3334960000002,115.89746099999957
232,126.41015599999992,133.0771479999994,122.94873000000007,-5.897461000000021,142.82031300000017,116.79492200000004,127.30761700000039,120.38476599999922,126.53857400000015,124.48730499999965,134.10253900000043,115.0,146.6665039999998,115.76904300000024
233,127.30761700000039,133.7177729999994,122.17968800000017,-4.230713000000378,138.58984400000008,117.56396500000028,123.84619099999964,121.53857400000015,126.9228520000006,126.79492200000004,136.53857400000015,113.20507799999996,151.2822270000006,115.25634799999989
234,122.05126999999993,131.0258789999998,118.3334960000002,-6.41015600000037,130.6411130000006,117.43603499999972,119.10253900000043,119.23095699999976,121.41015599999992,120.89746099999957,132.17968800000017,108.9741210000002,147.56396500000028,114.74365200000011
235,112.05126999999993,124.10253900000043,112.94873000000007,-12.051270000000386,123.0771479999994,116.9228520000006,115.38476599999922,114.87158199999976,112.69238299999961,108.46142599999985,122.17968800000017,104.10253900000043,135.6411130000006,114.61523400000078
236,101.6665039999998,115.76904300000024,108.46142599999985,-17.69238299999961,118.84619099999964,116.79492200000004,113.9741210000002,110.64111300000059,105.12841800000024,96.2822270000006,112.30761700000039,100.51269500000035,121.15380900000036,114.74365200000011
237,96.53857400000015,111.53857400000015,107.56396500000028,-19.10253899999998,118.9741210000002,117.17968800000017,114.74365200000011,108.9741210000002,102.56396500000028,92.30761700000039,108.46142599999985,100.25634799999989,112.17968800000017,115.38476599999922
238,99.87158199999976,115.0,111.15380900000036,-14.230713000000378,123.46142599999985,117.69238299999961,117.17968800000017,110.89746099999957,106.2822270000006,99.74365200000011,113.58984400000008,103.3334960000002,113.58984400000008,116.0258789999998
239,109.87158199999976,124.74365200000011,117.56396500000028,-5.38452099999995,130.76904300000024,117.94873000000007,120.12841800000024,116.0258789999998,113.84619099999964,114.23095699999976,124.87158199999976,108.0771479999994,123.58984400000008,116.41015599999992
240,121.41015599999992,135.38476599999922,123.0771479999994,2.9487300000000687,138.58984400000008,118.3334960000002,122.69238299999961,122.30761700000039,120.89746099999957,126.79492200000004,135.6411130000006,112.17968800000017,135.2563479999999,116.0258789999998
241,129.10253900000043,141.6665039999998,125.64111300000059,7.307617000000391,144.23095699999976,118.7177729999994,123.9741210000002,127.30761700000039,124.61523400000078,130.76904300000024,139.7436520000001,113.7177729999994,141.79492200000004,114.87158199999976
242,130.38476599999922,142.17968800000017,125.0,7.307617000000391,146.53857400000015,119.10253900000043,124.23095699999976,129.3588869999994,124.74365200000011,126.53857400000015,136.53857400000015,112.94873000000007,140.89746099999957,113.46142599999985
243,126.2822270000006,138.20507799999996,122.17968800000017,4.358886999999413,145.51269500000035,119.10253900000043,123.3334960000002,128.46142599999985,123.0771479999994,119.35888699999941,129.87158199999976,110.25634799999989,135.0,112.05126999999993
244,119.74365200000011,132.3076170000004,118.3334960000002,-0.38476599999921746,141.41015599999992,118.3334960000002,120.64111300000059,124.87158199999976,120.76904300000024,114.74365200000011,124.10253900000043,106.53857400000015,127.56396500000028,111.15380900000036
245,112.94873000000007,126.6665039999998,114.10253900000043,-6.281981999999971,135.0,117.05126999999993,115.64111300000059,119.35888699999941,117.82031300000017,113.58984400000008,120.76904300000024,102.69238299999961,120.64111300000059,111.53857400000015
246,107.43603499999972,121.53857400000015,110.0,-12.051270000000386,126.9228520000006,115.25634799999989,109.10253900000043,112.43603499999972,113.3334960000002,113.20507799999996,118.3334960000002,99.61523400000078,115.0,113.20507799999996
247,103.3334960000002,116.53857400000015,106.15380900000036,-16.41015600000037,118.84619099999964,113.7177729999994,102.94873000000007,105.51269500000035,107.05126999999993,110.0,114.74365200000011,97.82031300000017,110.89746099999957,115.12841800000024
248,100.51269500000035,111.6665039999998,102.69238299999961,-18.205077999999958,112.30761700000039,113.0771479999994,98.9741210000002,100.25634799999989,100.51269500000035,103.0771479999994,109.35888699999941,96.79492200000004,108.9741210000002,115.89746099999957
249,99.35888699999941,108.58984400000008,100.12841800000024,-16.923095999999987,108.46142599999985,113.20507799999996,98.20507799999996,98.3334960000002,96.2822270000006,95.38476599999922,104.35888699999941,96.41015599999992,108.84619099999964,115.25634799999989
250,100.64111300000059,108.84619099999964,99.23095699999976,-13.58984399999963,107.30761700000039,113.84619099999964,100.64111300000059,100.25634799999989,96.6665039999998,91.6665039999998,102.94873000000007,96.9228520000006,109.61523400000078,113.84619099999964
251,104.35888699999941,113.20507799999996,100.38476599999922,-10.0,107.56396500000028,114.61523400000078,105.64111300000059,104.61523400000078,101.79492200000004,94.74365200000011,106.0258789999998,98.58984400000008,110.38476599999922,112.69238299999961
252,109.35888699999941,120.25634799999989,103.46142599999985,-8.461425999999847,108.9741210000002,115.38476599999922,111.2822270000006,109.61523400000078,108.84619099999964,102.56396500000028,112.17968800000017,100.64111300000059,111.53857400000015,112.56396500000028
253,113.58984400000008,127.82031300000017,107.43603499999972,-9.102538999999979,112.30761700000039,115.76904300000024,115.76904300000024,113.9741210000002,115.0,111.0258789999998,118.46142599999985,102.56396500000028,114.61523400000078,113.58984400000008
254,115.38476599999922,133.20507799999996,111.53857400000015,-10.0,117.56396500000028,115.64111300000059,117.82031300000017,117.17968800000017,118.9741210000002,116.79492200000004,122.43603499999972,103.58984400000008,119.61523400000078,115.12841800000024
255,115.12841800000024,134.87158199999976,114.35888699999941,-8.461425999999847,122.94873000000007,115.12841800000024,117.30761700000039,118.9741210000002,121.0258789999998,119.61523400000078,123.20507799999996,103.3334960000002,125.0,116.9228520000006
256,114.74365200000011,133.46142599999985,115.25634799999989,-3.3334960000001956,127.30761700000039,114.61523400000078,115.64111300000059,119.23095699999976,122.17968800000017,121.2822270000006,121.9228520000006,102.56396500000028,128.46142599999985,117.82031300000017
257,116.6665039999998,131.6665039999998,115.0,3.717772999999397,130.6411130000006,114.48730499999965,114.10253900000043,118.84619099999964,122.94873000000007,123.20507799999996,120.76904300000024,102.30761700000039,128.7177729999994,117.43603499999972
258,121.79492200000004,132.17968800000017,114.87158199999976,9.358886999999413,134.23095699999976,115.0,113.46142599999985,118.20507799999996,123.20507799999996,125.0,121.53857400000015,103.0771479999994,126.53857400000015,116.2822270000006
259,127.56396500000028,135.51269500000035,115.64111300000059,10.256347999999889,137.05126999999993,116.0258789999998,113.3334960000002,117.17968800000017,122.69238299999961,125.12841800000024,124.23095699999976,104.10253900000043,124.48730499999965,115.0
260,130.6411130000006,139.7436520000001,117.05126999999993,5.897460999999566,136.2822270000006,116.9228520000006,112.82031300000017,115.51269500000035,121.15380900000036,122.82031300000017,127.05126999999993,104.74365200000011,124.10253900000043,114.23095699999976
261,129.7436520000001,142.17968800000017,118.20507799999996,-1.153809000000365,130.6411130000006,117.17968800000017,112.17968800000017,113.46142599999985,119.10253900000043,119.61523400000078,128.46142599999985,104.74365200000011,125.12841800000024,113.58984400000008
262,126.0258789999998,141.79492200000004,118.46142599999985,-6.923095999999987,122.82031300000017,116.6665039999998,112.43603499999972,112.17968800000017,117.82031300000017,117.30761700000039,127.69238299999961,104.61523400000078,126.0258789999998,113.58984400000008
263,121.9228520000006,139.61523400000078,118.3334960000002,-8.58984399999963,117.56396500000028,116.0258789999998,113.84619099999964,112.82031300000017,117.30761700000039,116.79492200000004,125.25634799999989,104.61523400000078,125.0,114.23095699999976
264,118.84619099999964,137.17968800000017,118.46142599999985,-6.153809000000365,118.3334960000002,115.64111300000059,115.64111300000059,115.0,117.56396500000028,117.43603499999972,121.53857400000015,104.23095699999976,121.41015599999992,115.25634799999989
265,116.79492200000004,134.7436520000001,118.84619099999964,-2.3076170000003913,122.94873000000007,115.89746099999957,116.53857400000015,116.79492200000004,117.30761700000039,117.82031300000017,117.05126999999993,103.3334960000002,116.53857400000015,115.76904300000024
266,113.9741210000002,130.76904300000024,118.0771479999994,-1.9228520000006029,125.76904300000024,116.9228520000006,116.15380900000036,116.41015599999992,115.51269500000035,116.41015599999992,112.82031300000017,102.05126999999993,112.17968800000017,115.38476599999922
267,108.9741210000002,123.46142599999985,115.0,-8.205077999999958,121.79492200000004,117.94873000000007,114.74365200000011,113.20507799999996,111.79492200000004,111.6665039999998,108.7177729999994,100.51269500000035,108.84619099999964,114.48730499999965
268,101.79492200000004,113.84619099999964,110.0,-20.38452099999995,111.53857400000015,118.20507799999996,113.0771479999994,108.0771479999994,106.15380900000036,104.35888699999941,104.35888699999941,99.35888699999941,105.0,113.84619099999964
269,95.0,105.51269500000035,105.12841800000024,-33.33325200000036,100.38476599999922,117.17968800000017,111.2822270000006,103.0771479999994,100.25634799999989,97.30761700000039,99.23095699999976,98.46142599999985,99.10253900000043,113.58984400000008
270,91.9228520000006,103.0771479999994,103.20507799999996,-40.64111300000013,94.61523400000078,115.89746099999957,109.74365200000011,100.38476599999922,96.6665039999998,94.23095699999976,95.12841800000024,97.69238299999961,93.3334960000002,113.20507799999996
271,94.61523400000078,108.58984400000008,105.89746099999957,-37.82055700000001,97.69238299999961,115.76904300000024,110.12841800000024,102.05126999999993,98.0771479999994,96.41015599999992,95.38476599999922,97.56396500000028,91.79492200000004,112.69238299999961
272,102.30761700000039,119.23095699999976,112.17968800000017,-26.153809000000365,107.94873000000007,117.05126999999993,113.3334960000002,108.46142599999985,104.87158199999976,102.43603499999972,102.30761700000039,98.9741210000002,97.05126999999993,112.05126999999993
273,110.76904300000024,129.10253900000043,118.46142599999985,-12.179442999999992,118.9741210000002,118.46142599999985,118.46142599999985,116.53857400000015,114.23095699999976,108.9741210000002,113.20507799999996,101.9228520000006,106.6665039999998,111.53857400000015
274,115.12841800000024,132.3076170000004,121.0258789999998,-3.717772999999397,124.10253900000043,118.9741210000002,122.56396500000028,121.9228520000006,120.64111300000059,112.17968800000017,120.76904300000024,104.74365200000011,113.9741210000002,111.15380900000036
275,112.82031300000017,127.17968800000017,118.3334960000002,-5.0,121.2822270000006,118.20507799999996,122.69238299999961,121.15380900000036,120.25634799999989,110.25634799999989,118.9741210000002,104.87158199999976,113.3334960000002,111.2822270000006
276,104.74365200000011,117.56396500000028,111.79492200000004,-13.461425999999847,114.61523400000078,116.79492200000004,117.94873000000007,115.0,112.82031300000017,105.0,108.0771479999994,101.41015599999992,104.23095699999976,112.43603499999972
277,94.35888699999941,109.74365200000011,104.87158199999976,-22.564209000000574,110.25634799999989,115.51269500000035,110.38476599999922,107.05126999999993,103.20507799999996,100.0,94.61523400000078,95.89746099999957,91.79492200000004,114.10253900000043
278,85.64111300000059,106.53857400000015,100.25634799999989,-27.051270000000386,109.48730499999965,114.48730499999965,103.3334960000002,101.41015599999992,97.43603499999972,98.0771479999994,86.41015599999992,91.0258789999998,82.56396500000028,115.25634799999989
279,81.0258789999998,106.6665039999998,98.58984400000008,-26.41015600000037,108.3334960000002,113.7177729999994,99.10253900000043,99.61523400000078,97.94873000000007,98.84619099999964,86.15380900000036,89.48730499999965,80.38476599999922,115.38476599999922
280,81.15380900000036,106.9228520000006,99.23095699999976,-23.58984399999963,102.82031300000017,113.46142599999985,98.3334960000002,100.25634799999989,102.17968800000017,99.74365200000011,91.0258789999998,91.2822270000006,85.12841800000024,115.0
281,85.25634799999989,106.0258789999998,101.0258789999998,-21.923095999999987,95.12841800000024,113.58984400000008,100.38476599999922,101.15380900000036,104.87158199999976,99.23095699999976,96.41015599999992,95.0,92.69238299999961,114.87158199999976
282,91.53857400000015,105.64111300000059,103.84619099999964,-21.538574000000153,92.05126999999993,114.23095699999976,104.23095699999976,101.2822270000006,104.10253900000043,98.9741210000002,99.74365200000011,98.3334960000002,98.9741210000002,115.12841800000024
283,98.0771479999994,108.7177729999994,107.69238299999961,-20.25634799999989,98.7177729999994,115.12841800000024,108.46142599999985,101.79492200000004,102.30761700000039,102.43603499999972,102.05126999999993,100.38476599999922,102.56396500000028,115.64111300000059
284,103.0771479999994,115.38476599999922,112.05126999999993,-15.769286999999622,112.82031300000017,116.0258789999998,112.69238299999961,103.9741210000002,103.46142599999985,110.25634799999989,105.0,101.53857400000015,104.23095699999976,115.38476599999922
285,105.38476599999922,122.30761700000039,115.38476599999922,-9.102538999999979,125.89746099999957,116.15380900000036,116.41015599999992,107.17968800000017,108.3334960000002,118.3334960000002,108.46142599999985,102.43603499999972,104.74365200000011,113.84619099999964
286,104.61523400000078,125.0,116.41015599999992,-3.846190999999635,129.7436520000001,115.25634799999989,118.7177729999994,108.84619099999964,113.0771479999994,121.0258789999998,110.25634799999989,102.69238299999961,104.23095699999976,111.53857400000015
287,102.30761700000039,121.9228520000006,115.0,-3.5898440000000846,122.82031300000017,113.7177729999994,118.20507799999996,107.30761700000039,113.7177729999994,116.15380900000036,108.46142599999985,102.30761700000039,102.30761700000039,110.51269500000035
288,101.2822270000006,115.89746099999957,112.69238299999961,-7.820557000000008,111.15380900000036,112.94873000000007,115.38476599999922,103.84619099999964,109.61523400000078,107.94873000000007,103.7177729999994,101.41015599999992,100.0,112.05126999999993
289,104.23095699999976,112.69238299999961,111.9228520000006,-12.564209000000574,103.84619099999964,113.7177729999994,112.43603499999972,101.9228520000006,104.61523400000078,103.3334960000002,99.87158199999976,100.89746099999957,99.48730499999965,115.64111300000059
290,111.0258789999998,115.89746099999957,113.9741210000002,-13.846190999999635,106.2822270000006,115.89746099999957,112.17968800000017,103.84619099999964,103.20507799999996,105.76904300000024,100.12841800000024,101.6665039999998,102.17968800000017,118.9741210000002
291,118.46142599999985,123.84619099999964,117.94873000000007,-10.769286999999622,116.15380900000036,118.46142599999985,115.38476599999922,109.23095699999976,106.9228520000006,112.30761700000039,104.35888699999941,103.58984400000008,107.05126999999993,120.0
292,122.17968800000017,130.76904300000024,121.2822270000006,-6.794922000000042,125.12841800000024,119.74365200000011,118.84619099999964,114.10253900000043,111.79492200000004,116.2822270000006,108.84619099999964,105.64111300000059,110.25634799999989,118.7177729999994
293,118.84619099999964,130.76904300000024,121.15380900000036,-6.538574000000153,125.12841800000024,119.74365200000011,118.46142599999985,113.9741210000002,112.30761700000039,112.94873000000007,108.7177729999994,105.76904300000024,108.46142599999985,116.79492200000004
294,109.35888699999941,122.82031300000017,116.9228520000006,-12.179442999999992,114.61523400000078,118.7177729999994,112.30761700000039,107.17968800000017,106.0258789999998,103.20507799999996,103.20507799999996,102.82031300000017,101.53857400000015,115.64111300000059
295,98.7177729999994,112.43603499999972,110.89746099999957,-21.025634999999966,100.76904300000024,117.56396500000028,103.0771479999994,96.9228520000006,96.9228520000006,93.3334960000002,95.89746099999957,98.3334960000002,93.58984400000008,115.25634799999989
296,93.20507799999996,107.30761700000039,107.17968800000017,-27.948729999999614,93.9741210000002,116.6665039999998,96.0258789999998,89.87158199999976,91.6665039999998,89.87158199999976,91.9228520000006,95.76904300000024,89.35888699999941,115.51269500000035
297,96.0258789999998,111.0258789999998,108.46142599999985,-28.58984399999963,98.9741210000002,115.89746099999957,95.25634799999989,90.89746099999957,94.10253900000043,94.10253900000043,93.20507799999996,96.79492200000004,90.89746099999957,115.51269500000035
298,105.38476599999922,120.76904300000024,113.9741210000002,-23.333252000000357,111.15380900000036,115.38476599999922,101.15380900000036,99.74365200000011,102.30761700000039,101.6665039999998,97.82031300000017,100.38476599999922,95.89746099999957,114.74365200000011
299,115.0,129.87158199999976,119.61523400000078,-15.769286999999622,120.89746099999957,115.12841800000024,109.87158199999976,110.51269500000035,110.51269500000035,106.6665039999998,102.30761700000039,103.7177729999994,100.89746099999957,113.0771479999994
300,118.9741210000002,133.3334960000002,121.2822270000006,-9.743652000000111,122.05126999999993,115.38476599999922,117.05126999999993,116.9228520000006,113.7177729999994,106.41015599999992,104.23095699999976,104.74365200000011,103.84619099999964,111.6665039999998
301,116.0258789999998,131.15380900000036,118.0771479999994,-7.435790999999426,116.41015599999992,116.2822270000006,119.10253900000043,116.15380900000036,111.0258789999998,102.30761700000039,103.7177729999994,103.7177729999994,104.87158199999976,111.2822270000006
302,108.46142599999985,126.0258789999998,112.05126999999993,-8.974365000000034,109.48730499999965,117.43603499999972,116.2822270000006,110.12841800000024,105.25634799999989,97.82031300000017,101.53857400000015,101.79492200000004,104.10253900000043,112.56396500000028
303,100.89746099999957,121.53857400000015,106.6665039999998,-13.076904000000013,105.76904300000024,117.94873000000007,111.15380900000036,103.7177729999994,100.51269500000035,95.0,97.94873000000007,99.74365200000011,101.53857400000015,114.48730499999965
304,97.43603499999972,119.48730499999965,104.48730499999965,-17.820557000000008,106.0258789999998,117.43603499999972,107.43603499999972,101.41015599999992,99.10253900000043,94.61523400000078,94.35888699999941,98.20507799999996,97.94873000000007,115.76904300000024
305,100.38476599999922,120.64111300000059,106.53857400000015,-21.41015600000037,109.48730499999965,116.9228520000006,107.43603499999972,105.12841800000024,101.15380900000036,97.05126999999993,93.7177729999994,97.94873000000007,96.15380900000036,115.76904300000024
306,109.23095699999976,125.0,112.17968800000017,-23.205077999999958,113.84619099999964,117.30761700000039,111.41015599999992,113.20507799999996,105.89746099999957,102.69238299999961,98.3334960000002,99.87158199999976,99.48730499999965,115.25634799999989
307,120.64111300000059,131.9228520000006,119.35888699999941,-23.71801800000003,116.79492200000004,118.58984400000008,116.9228520000006,120.89746099999957,111.6665039999998,111.41015599999992,107.56396500000028,103.7177729999994,108.46142599999985,114.48730499999965
308,129.61523400000078,139.10253900000043,125.12841800000024,-23.974365000000034,117.17968800000017,118.9741210000002,120.51269500000035,123.20507799999996,116.53857400000015,120.0,117.05126999999993,107.56396500000028,119.35888699999941,113.58984400000008
309,132.6923829999996,143.46142599999985,127.69238299999961,-24.8718259999996,115.89746099999957,116.79492200000004,120.12841800000024,118.84619099999964,118.3334960000002,124.48730499999965,121.6665039999998,109.74365200000011,126.2822270000006,112.94873000000007
310,129.23095699999976,143.7177729999994,126.53857400000015,-27.179442999999992,116.0258789999998,112.17968800000017,116.15380900000036,110.76904300000024,116.79492200000004,122.82031300000017,119.10253900000043,109.61523400000078,126.41015599999992,112.69238299999961
311,122.43603499999972,140.89746099999957,122.82031300000017,-31.41015600000037,118.9741210000002,107.30761700000039,111.41015599999992,104.61523400000078,114.10253900000043,117.69238299999961,111.6665039999998,107.69238299999961,121.0258789999998,112.69238299999961
312,116.2822270000006,137.17968800000017,118.3334960000002,-36.92309599999999,122.94873000000007,105.38476599999922,108.3334960000002,103.84619099999964,113.20507799999996,113.20507799999996,103.58984400000008,104.74365200000011,114.61523400000078,112.69238299999961
313,113.46142599999985,134.10253900000043,115.0,-42.435790999999426,123.58984400000008,107.69238299999961,107.56396500000028,107.30761700000039,114.61523400000078,112.30761700000039,99.23095699999976,101.6665039999998,110.76904300000024,112.56396500000028
314,114.23095699999976,132.56396500000028,114.23095699999976,-46.153809000000365,117.82031300000017,112.94873000000007,107.56396500000028,110.38476599999922,116.0258789999998,113.9741210000002,100.25634799999989,99.74365200000011,111.15380900000036,112.43603499999972
315,118.0771479999994,132.82031300000017,116.6665039999998,-47.051270000000386,107.69238299999961,118.0771479999994,106.6665039999998,110.12841800000024,115.12841800000024,115.0,105.38476599999922,100.12841800000024,114.48730499999965,112.56396500000028
316,123.3334960000002,135.2563479999999,121.15380900000036,-45.38452099999995,99.10253900000043,120.25634799999989,104.48730499999965,106.6665039999998,111.15380900000036,112.94873000000007,111.79492200000004,102.69238299999961,118.84619099999964,112.94873000000007
317,128.3334960000002,139.23095699999976,126.0258789999998,-42.82055700000001,97.05126999999993,119.23095699999976,102.30761700000039,102.69238299999961,105.89746099999957,108.3334960000002,116.6665039999998,106.9228520000006,122.94873000000007,113.0771479999994
318,131.6665039999998,142.82031300000017,130.0,-41.41015600000037,102.17968800000017,116.9228520000006,101.6665039999998,100.76904300000024,101.9228520000006,103.84619099999964,118.58984400000008,111.2822270000006,127.30761700000039,112.94873000000007
319,132.82031300000017,144.48730499999965,131.9228520000006,-42.564209000000574,110.89746099999957,115.38476599999922,102.56396500000028,100.89746099999957,101.15380900000036,101.2822270000006,118.58984400000008,114.23095699999976,133.7177729999994,112.69238299999961
320,132.3076170000004,144.48730499999965,131.9228520000006,-45.89746100000002,117.56396500000028,115.51269500000035,103.7177729999994,101.53857400000015,101.79492200000004,100.76904300000024,118.3334960000002,114.10253900000043,142.56396500000028,112.94873000000007
321,131.15380900000036,144.23095699999976,129.87158199999976,-50.51293900000019,117.69238299999961,116.53857400000015,103.3334960000002,100.76904300000024,101.0258789999998,99.87158199999976,118.3334960000002,111.15380900000036,151.15380900000036,113.58984400000008
322,130.51269500000035,145.51269500000035,126.53857400000015,-55.51293900000019,109.87158199999976,117.17968800000017,101.0258789999998,97.94873000000007,96.6665039999998,96.15380900000036,117.94873000000007,106.53857400000015,156.53857400000015,114.74365200000011
323,130.6411130000006,147.94873000000007,123.20507799999996,-60.1281740000004,97.94873000000007,116.9228520000006,98.0771479999994,94.48730499999965,90.76904300000024,90.25634799999989,116.2822270000006,102.94873000000007,158.3334960000002,115.89746099999957
324,132.05126999999993,149.10253900000043,122.17968800000017,-63.846190999999635,87.94873000000007,115.64111300000059,96.53857400000015,92.94873000000007,86.79492200000004,85.64111300000059,113.9741210000002,102.69238299999961,159.7436520000001,116.0258789999998
325,133.84619099999964,146.53857400000015,124.35888699999941,-66.28198199999997,84.35888699999941,114.35888699999941,97.56396500000028,95.0,86.6665039999998,85.76904300000024,113.20507799999996,106.15380900000036,163.7177729999994,114.87158199999976
326,134.7436520000001,140.12841800000024,128.0771479999994,-67.43579099999943,86.6665039999998,113.84619099999964,100.25634799999989,99.74365200000011,89.61523400000078,90.89746099999957,115.64111300000059,111.6665039999998,170.6411130000006,113.3334960000002
327,134.3588869999994,134.23095699999976,131.0258789999998,-67.17944299999999,91.15380900000036,114.10253900000043,102.69238299999961,103.7177729999994,91.79492200000004,97.17968800000017,121.2822270000006,116.15380900000036,178.3334960000002,112.17968800000017
328,134.23095699999976,135.76904300000024,131.9228520000006,-65.25634799999989,94.74365200000011,114.35888699999941,103.58984400000008,103.84619099999964,91.15380900000036,99.48730499999965,128.46142599999985,117.17968800000017,184.7436520000001,111.79492200000004
329,137.43603499999972,148.58984400000008,132.17968800000017,-61.153809000000365,97.30761700000039,114.23095699999976,103.3334960000002,100.25634799999989,89.10253900000043,96.6665039999998,134.61523400000078,115.25634799999989,190.2563479999999,112.17968800000017
330,146.2822270000006,170.51269500000035,134.3588869999994,-55.25634799999989,101.2822270000006,113.7177729999994,104.10253900000043,96.6665039999998,90.12841800000024,93.20507799999996,139.3588869999994,113.3334960000002,197.82031300000017,112.69238299999961
331,159.87158199999976,193.46142599999985,139.87158199999976,-48.20507799999996,108.3334960000002,113.20507799999996,107.82031300000017,97.30761700000039,97.43603499999972,96.15380900000036,144.7436520000001,114.61523400000078,210.51269500000035,113.0771479999994
332,174.61523400000078,208.84619099999964,147.17968800000017,-40.64111300000013,117.05126999999993,113.20507799999996,114.61523400000078,103.0771479999994,109.61523400000078,108.7177729999994,152.82031300000017,120.12841800000024,228.20507799999996,112.82031300000017
333,184.87158199999976,213.3334960000002,153.20507799999996,-34.48706099999981,123.3334960000002,113.46142599999985,121.2822270000006,111.0258789999998,120.25634799999989,125.38476599999922,162.56396500000028,127.30761700000039,245.89746099999957,112.05126999999993
334,187.05126999999993,210.51269500000035,154.48730499999965,-31.538574000000153,123.3334960000002,113.9741210000002,123.0771479999994,115.64111300000059,122.69238299999961,135.89746099999957,168.9741210000002,131.6665039999998,255.38476599999922,111.2822270000006
335,181.9228520000006,207.6923829999996,151.15380900000036,-32.30761700000039,116.41015599999992,114.48730499999965,118.0771479999994,113.0771479999994,115.12841800000024,132.82031300000017,167.6923829999996,130.0,251.6665039999998,111.6665039999998
336,175.0,211.15380900000036,146.0258789999998,-34.48706099999981,106.53857400000015,115.0,109.10253900000043,105.38476599999922,102.82031300000017,118.3334960000002,159.61523400000078,123.58984400000008,238.7177729999994,113.20507799999996
337,172.94873000000007,221.6665039999998,143.9741210000002,-34.48706099999981,100.12841800000024,115.38476599999922,102.30761700000039,99.23095699999976,94.87158199999976,102.94873000000007,151.15380900000036,117.69238299999961,227.05126999999993,114.74365200000011
338,178.84619099999964,235.12841800000024,147.3076170000004,-30.512939000000188,100.89746099999957,115.64111300000059,101.53857400000015,99.87158199999976,96.79492200000004,97.05126999999993,149.61523400000078,117.17968800000017,226.41015599999992,115.51269500000035
339,190.12841800000024,246.0258789999998,153.84619099999964,-25.0,107.05126999999993,115.51269500000035,106.2822270000006,107.17968800000017,106.6665039999998,102.69238299999961,157.17968800000017,122.69238299999961,237.17968800000017,115.12841800000024
340,200.76904300000024,252.17968800000017,159.23095699999976,-21.41015600000037,113.7177729999994,115.12841800000024,112.17968800000017,115.64111300000059,116.15380900000036,113.84619099999964,168.7177729999994,129.87158199999976,250.6411130000006,114.35888699999941
341,206.0258789999998,254.7436520000001,160.2563479999999,-21.41015600000037,116.6665039999998,114.48730499999965,114.74365200000011,118.46142599999985,118.3334960000002,122.17968800000017,176.53857400000015,134.23095699999976,256.79492200000004,113.7177729999994
342,206.2822270000006,257.17968800000017,158.46142599999985,-22.69238299999961,115.38476599999922,114.23095699999976,113.20507799999996,113.84619099999964,112.43603499999972,123.3334960000002,176.79492200000004,134.48730499999965,253.46142599999985,113.7177729999994
343,205.6411130000006,261.53857400000015,157.56396500000028,-21.538574000000153,112.69238299999961,114.74365200000011,109.74365200000011,105.64111300000059,103.9741210000002,119.74365200000011,171.79492200000004,133.20507799999996,246.79492200000004,113.9741210000002
344,207.6923829999996,267.3076170000004,159.61523400000078,-16.666747999999643,111.15380900000036,116.0258789999998,107.82031300000017,99.61523400000078,98.7177729999994,116.0258789999998,167.05126999999993,132.43603499999972,244.61523400000078,113.9741210000002
345,212.05126999999993,272.17968800000017,162.94873000000007,-10.641113000000132,110.51269500000035,117.17968800000017,107.82031300000017,98.7177729999994,98.46142599999985,114.10253900000043,165.38476599999922,132.43603499999972,248.58984400000008,113.0771479999994
346,215.2563479999999,274.3588869999994,164.10253900000043,-8.205077999999958,109.35888699999941,117.17968800000017,107.69238299999961,101.41015599999992,100.12841800000024,112.17968800000017,165.2563479999999,131.0258789999998,254.3588869999994,112.43603499999972
347,214.3588869999994,274.10253900000043,161.2822270000006,-10.769286999999622,106.2822270000006,115.76904300000024,104.87158199999976,103.3334960000002,99.48730499999965,107.05126999999993,163.3334960000002,127.05126999999993,255.76904300000024,113.0771479999994
348,210.2563479999999,273.7177729999994,156.9228520000006,-15.38452099999995,102.69238299999961,113.46142599999985,99.48730499999965,102.05126999999993,95.25634799999989,98.58984400000008,158.46142599999985,122.05126999999993,250.6411130000006,115.0
349,207.56396500000028,276.79492200000004,155.51269500000035,-15.897461000000021,102.69238299999961,111.9228520000006,95.38476599999922,98.9741210000002,90.25634799999989,91.41015599999992,154.23095699999976,119.48730499999965,244.10253900000043,117.17968800000017
350,210.76904300000024,285.51269500000035,160.12841800000024,-8.461425999999847,109.48730499999965,111.79492200000004,97.43603499999972,97.94873000000007,89.35888699999941,91.9228520000006,156.41015599999992,122.30761700000039,244.7436520000001,118.20507799999996
351,219.87158199999976,297.94873000000007,169.48730499999965,4.487304999999651,120.64111300000059,113.3334960000002,106.15380900000036,100.51269500000035,94.35888699999941,102.30761700000039,166.6665039999998,129.61523400000078,256.9228520000006,117.69238299999961
352,229.48730499999965,307.3076170000004,178.7177729999994,13.974121000000196,128.84619099999964,115.89746099999957,116.53857400000015,105.0,102.05126999999993,116.53857400000015,179.23095699999976,137.17968800000017,275.2563479999999,116.2822270000006
353,232.94873000000007,306.79492200000004,181.9228520000006,11.794922000000042,127.17968800000017,118.3334960000002,121.41015599999992,107.43603499999972,106.9228520000006,125.12841800000024,185.12841800000024,140.2563479999999,286.9228520000006,114.87158199999976
354,227.43603499999972,294.87158199999976,176.9228520000006,-2.1796869999998307,115.25634799999989,118.7177729999994,118.0771479999994,105.51269500000035,105.76904300000024,121.79492200000004,179.3588869999994,137.43603499999972,282.94873000000007,113.84619099999964
355,216.41015599999992,276.79492200000004,166.79492200000004,-19.61547900000005,100.25634799999989,116.0258789999998,109.23095699999976,99.74365200000011,99.10253900000043,108.84619099999964,165.2563479999999,131.0258789999998,265.12841800000024,113.7177729999994
356,206.41015599999992,261.2822270000006,157.43603499999972,-29.8718259999996,90.25634799999989,111.15380900000036,100.51269500000035,93.20507799999996,90.0,93.7177729999994,151.15380900000036,125.25634799999989,244.87158199999976,114.23095699999976
357,202.6923829999996,254.3588869999994,153.84619099999964,-28.461425999999847,88.7177729999994,106.6665039999998,95.89746099999957,88.3334960000002,82.05126999999993,84.35888699999941,144.7436520000001,122.82031300000017,235.2563479999999,114.61523400000078
358,206.15380900000036,256.79492200000004,156.79492200000004,-19.10253899999998,92.94873000000007,104.74365200000011,95.38476599999922,85.89746099999957,77.82031300000017,84.10253900000043,148.58984400000008,123.7177729999994,241.79492200000004,113.9741210000002
359,214.23095699999976,264.10253900000043,163.84619099999964,-9.358886999999868,99.10253900000043,106.0258789999998,97.82031300000017,86.15380900000036,78.84619099999964,91.41015599999992,160.0,126.41015599999992,260.51269500000035,112.82031300000017
360,222.94873000000007,270.51269500000035,172.05126999999993,-4.743652000000111,105.38476599999922,109.23095699999976,102.05126999999993,89.61523400000078,85.89746099999957,103.0771479999994,173.58984400000008,130.2563479999999,281.4101559999999,111.9228520000006
361,229.7436520000001,272.3076170000004,178.46142599999985,-4.487060999999812,111.79492200000004,112.94873000000007,107.43603499999972,96.9228520000006,97.94873000000007,115.76904300000024,185.2563479999999,135.0,295.3847659999992,112.17968800000017
362,233.9741210000002,270.3847659999992,182.05126999999993,-4.358886999999868,118.58984400000008,115.0,113.0771479999994,106.41015599999992,111.0258789999998,126.6665039999998,193.7177729999994,140.2563479999999,300.6411130000006,113.20507799999996
363,236.2822270000006,267.82031300000017,183.0771479999994,-0.769043000000238,124.10253900000043,114.61523400000078,117.94873000000007,114.87158199999976,120.12841800000024,133.3334960000002,198.9741210000002,144.7436520000001,300.89746099999957,114.35888699999941
364,236.0258789999998,265.12841800000024,182.05126999999993,5.769043000000238,125.25634799999989,112.56396500000028,120.51269500000035,118.84619099999964,121.79492200000004,134.48730499999965,200.2563479999999,146.79492200000004,300.3847659999992,115.38476599999922
365,232.94873000000007,260.89746099999957,179.87158199999976,10.897460999999566,120.12841800000024,110.89746099999957,119.48730499999965,117.30761700000039,116.15380900000036,130.2563479999999,196.41015599999992,146.0258789999998,300.12841800000024,116.53857400000015
366,228.0771479999994,253.7177729999994,177.05126999999993,11.282227000000603,110.25634799999989,110.76904300000024,114.61523400000078,111.41015599999992,106.79492200000004,123.46142599999985,188.7177729999994,143.7177729999994,298.9741210000002,117.30761700000039
367,225.0,246.41015599999992,174.7436520000001,7.43603499999972,100.64111300000059,111.15380900000036,107.94873000000007,103.9741210000002,98.84619099999964,117.69238299999961,181.79492200000004,141.53857400000015,297.05126999999993,117.05126999999993
368,226.79492200000004,243.58984400000008,174.61523400000078,3.3334960000001956,97.56396500000028,111.6665039999998,102.82031300000017,98.58984400000008,96.2822270000006,115.12841800000024,181.0258789999998,141.2822270000006,296.9228520000006,115.76904300000024
369,233.58984400000008,247.3076170000004,176.9228520000006,2.9487300000000687,102.94873000000007,112.30761700000039,102.17968800000017,97.56396500000028,99.48730499999965,116.15380900000036,187.56396500000028,144.10253900000043,301.6665039999998,114.10253900000043
370,241.15380900000036,254.10253900000043,179.3588869999994,6.282227000000603,111.53857400000015,113.0771479999994,104.74365200000011,100.64111300000059,105.25634799999989,118.3334960000002,196.9228520000006,148.58984400000008,310.12841800000024,113.20507799999996
371,243.84619099999964,257.05126999999993,179.10253900000043,10.256347999999889,115.38476599999922,113.46142599999985,106.79492200000004,104.35888699999941,108.58984400000008,118.84619099999964,201.53857400000015,151.15380900000036,317.3076170000004,112.94873000000007
372,239.7436520000001,251.6665039999998,175.12841800000024,11.410155999999915,111.0258789999998,113.20507799999996,105.76904300000024,105.0,106.41015599999992,116.53857400000015,197.6923829999996,149.7436520000001,317.82031300000017,112.94873000000007
373,232.05126999999993,240.89746099999957,170.0,10.128418000000238,102.94873000000007,112.17968800000017,102.30761700000039,101.2822270000006,100.51269500000035,113.20507799999996,188.9741210000002,145.38476599999922,310.51269500000035,112.56396500000028
374,225.89746099999957,231.9228520000006,166.6665039999998,8.717772999999397,98.58984400000008,110.64111300000059,99.87158199999976,95.38476599999922,94.87158199999976,112.17968800000017,182.17968800000017,141.15380900000036,299.6152340000008,112.17968800000017
375,224.10253900000043,229.23095699999976,166.0258789999998,8.974121000000196,99.48730499999965,108.9741210000002,99.48730499999965,90.25634799999989,92.05126999999993,113.7177729999994,180.76904300000024,139.10253900000043,290.51269500000035,111.6665039999998
376,225.12841800000024,231.6665039999998,166.79492200000004,9.487304999999651,101.2822270000006,107.17968800000017,99.87158199999976,87.05126999999993,90.38476599999922,114.61523400000078,182.6923829999996,139.23095699999976,286.2822270000006,111.41015599999992
377,225.51269500000035,233.3334960000002,166.9228520000006,9.102539000000434,98.58984400000008,105.89746099999957,98.20507799999996,85.25634799999989,87.56396500000028,110.89746099999957,182.94873000000007,139.7436520000001,285.6411130000006,111.41015599999992
378,223.46142599999985,229.61523400000078,166.0258789999998,8.589844000000085,91.6665039999998,105.38476599999922,94.10253900000043,84.10253900000043,83.0771479999994,103.0771479999994,179.10253900000043,139.23095699999976,286.15380900000036,111.53857400000015
379,220.0,222.05126999999993,165.12841800000024,10.0,86.0258789999998,105.51269500000035,89.35888699999941,84.61523400000078,79.48730499999965,96.15380900000036,173.58984400000008,137.94873000000007,287.05126999999993,111.6665039999998
380,218.7177729999994,216.6665039999998,165.89746099999957,14.102539000000434,85.89746099999957,105.76904300000024,87.56396500000028,87.82031300000017,80.25634799999989,95.38476599999922,171.0258789999998,136.79492200000004,288.9741210000002,111.79492200000004
381,221.2822270000006,217.94873000000007,168.58984400000008,19.48730499999965,90.25634799999989,106.15380900000036,90.25634799999989,92.82031300000017,85.76904300000024,101.53857400000015,173.58984400000008,136.9228520000006,292.82031300000017,112.69238299999961
382,226.0258789999998,224.87158199999976,171.41015599999992,22.82031300000017,94.10253900000043,106.53857400000015,95.89746099999957,97.30761700000039,93.46142599999985,110.0,178.58984400000008,138.0771479999994,297.4360349999997,114.23095699999976
383,229.61523400000078,231.79492200000004,172.05126999999993,22.05126999999993,93.9741210000002,106.6665039999998,100.64111300000059,99.23095699999976,99.74365200000011,116.15380900000036,182.05126999999993,139.3588869999994,300.3847659999992,115.64111300000059
