,EEG.AF3,EEG.F7,EEG.F3,EEG.FC5,EEG.T7,EEG.P7,EEG.O1,EEG.O2,EEG.P8,EEG.T8,EEG.FC6,EEG.F4,EEG.F8,EEG.AF4
0,85.12841800000024,97.17968800000017,86.41015599999992,129.7436520000001,100.89746099999957,117.30761700000039,108.46142599999985,97.43603499999972,105.25634799999989,98.3334960000002,115.64111300000059,102.17968800000017,95.76904300000024,115.25634799999989
1,83.0771479999994,89.61523400000078,85.89746099999957,128.0771479999994,99.35888699999941,117.43603499999972,107.05126999999993,96.41015599999992,100.12841800000024,97.94873000000007,116.2822270000006,98.7177729999994,90.76904300000024,113.58984400000008
2,84.10253900000043,86.0258789999998,89.61523400000078,129.61523400000078,99.35888699999941,115.76904300000024,109.10253900000043,97.94873000000007,98.20507799999996,99.61523400000078,116.41015599999992,98.58984400000008,86.41015599999992,112.82031300000017
3,86.9228520000006,87.30761700000039,94.87158199999976,132.3076170000004,100.0,112.69238299999961,112.30761700000039,98.84619099999964,98.58984400000008,100.0,115.51269500000035,101.2822270000006,84.48730499999965,114.10253900000043
4,90.64111300000059,91.9228520000006,99.23095699999976,134.87158199999976,100.64111300000059,110.12841800000024,114.48730499999965,98.46142599999985,101.15380900000036,97.30761700000039,115.0,105.38476599999922,86.6665039999998,116.53857400000015
5,95.12841800000024,96.9228520000006,101.6665039999998,137.05126999999993,101.2822270000006,109.87158199999976,115.38476599999922,98.58984400000008,105.89746099999957,94.48730499999965,116.9228520000006,109.87158199999976,92.43603499999972,118.3334960000002
6,99.61523400000078,100.25634799999989,102.56396500000028,139.3588869999994,101.79492200000004,112.30761700000039,116.41015599999992,101.53857400000015,112.05126999999993,96.53857400000015,122.05126999999993,113.58984400000008,99.35888699999941,118.0771479999994
7,103.58984400000008,101.6665039999998,102.94873000000007,141.6665039999998,102.82031300000017,115.64111300000059,118.0771479999994,107.69238299999961,118.20507799999996,105.76904300000024,128.58984400000008,115.89746099999957,104.61523400000078,116.2822270000006
8,105.38476599999922,101.41015599999992,103.58984400000008,142.94873000000007,104.87158199999976,117.56396500000028,118.9741210000002,114.10253900000043,121.6665039999998,117.82031300000017,133.20507799999996,116.15380900000036,106.9228520000006,114.23095699999976
9,103.46142599999985,98.7177729999994,103.7177729999994,141.2822270000006,106.0258789999998,117.05126999999993,116.79492200000004,116.41015599999992,119.61523400000078,123.46142599999985,132.43603499999972,113.7177729999994,105.51269500000035,113.46142599999985
10,96.79492200000004,92.94873000000007,101.2822270000006,136.15380900000036,103.84619099999964,115.12841800000024,111.2822270000006,112.17968800000017,111.2822270000006,116.79492200000004,125.64111300000059,109.10253900000043,100.0,114.23095699999976
11,87.43603499999972,86.0258789999998,96.15380900000036,129.48730499999965,98.84619099999964,113.7177729999994,104.87158199999976,103.84619099999964,100.0,100.51269500000035,115.76904300000024,104.23095699999976,91.53857400000015,115.64111300000059
12,81.15380900000036,82.05126999999993,90.38476599999922,125.25634799999989,95.64111300000059,114.35888699999941,101.6665039999998,97.30761700000039,92.82031300000017,85.76904300000024,109.10253900000043,101.79492200000004,84.10253900000043,116.53857400000015
13,81.41015599999992,83.3334960000002,87.17968800000017,125.0,98.0771479999994,116.41015599999992,104.10253900000043,96.9228520000006,95.0,82.94873000000007,109.74365200000011,102.56396500000028,81.6665039999998,116.0258789999998
14,86.41015599999992,87.69238299999961,86.79492200000004,126.79492200000004,103.58984400000008,118.3334960000002,110.64111300000059,101.53857400000015,104.87158199999976,92.82031300000017,115.51269500000035,104.23095699999976,83.9741210000002,114.48730499999965
15,89.48730499999965,89.48730499999965,86.9228520000006,126.53857400000015,105.51269500000035,118.58984400000008,116.53857400000015,106.0258789999998,115.0,106.53857400000015,119.74365200000011,103.46142599999985,86.79492200000004,113.3334960000002
16,86.53857400000015,86.15380900000036,85.38476599999922,124.10253900000043,100.12841800000024,117.17968800000017,117.94873000000007,106.15380900000036,118.58984400000008,113.46142599999985,117.69238299999961,99.74365200000011,85.89746099999957,112.69238299999961
17,79.48730499999965,80.76904300000024,82.69238299999961,123.0771479999994,91.0258789999998,115.38476599999922,114.61523400000078,102.56396500000028,115.51269500000035,110.64111300000059,111.15380900000036,96.41015599999992,82.43603499999972,112.17968800000017
18,74.74365200000011,80.89746099999957,82.56396500000028,127.05126999999993,86.53857400000015,114.87158199999976,110.76904300000024,99.74365200000011,111.9228520000006,104.35888699999941,107.30761700000039,97.69238299999961,81.15380900000036,111.41015599999992
19,77.43603499999972,89.74365200000011,86.9228520000006,136.41015599999992,91.6665039999998,115.64111300000059,111.2822270000006,102.05126999999993,113.7177729999994,103.84619099999964,111.2822270000006,104.23095699999976,86.15380900000036,110.76904300000024
20,86.15380900000036,103.3334960000002,94.23095699999976,146.41015599999992,103.58984400000008,116.79492200000004,116.9228520000006,109.87158199999976,121.79492200000004,112.30761700000039,121.41015599999992,112.05126999999993,96.15380900000036,110.89746099999957
21,94.61523400000078,111.9228520000006,99.87158199999976,150.89746099999957,114.10253900000043,117.05126999999993,123.20507799999996,118.84619099999964,131.2822270000006,124.48730499999965,130.6411130000006,116.15380900000036,105.25634799999989,112.05126999999993
22,95.64111300000059,108.9741210000002,99.61523400000078,146.9228520000006,115.38476599999922,116.2822270000006,124.48730499999965,122.82031300000017,135.38476599999922,130.89746099999957,132.3076170000004,113.9741210000002,107.30761700000039,113.58984400000008
23,87.69238299999961,96.6665039999998,93.7177729999994,137.05126999999993,106.41015599999992,115.38476599999922,118.84619099999964,118.46142599999985,131.2822270000006,126.53857400000015,125.38476599999922,107.56396500000028,100.25634799999989,114.87158199999976
24,75.51269500000035,84.61523400000078,86.0258789999998,127.69238299999961,93.20507799999996,115.12841800000024,109.35888699999941,108.0771479999994,121.6665039999998,114.61523400000078,114.23095699999976,101.2822270000006,88.58984400000008,115.51269500000035
25,67.17968800000017,80.89746099999957,81.0258789999998,124.87158199999976,84.61523400000078,115.51269500000035,102.17968800000017,98.3334960000002,112.94873000000007,103.58984400000008,105.64111300000059,98.3334960000002,79.61523400000078,115.64111300000059
26,68.3334960000002,86.6665039999998,81.41015599999992,129.61523400000078,86.0258789999998,116.15380900000036,101.79492200000004,95.0,110.25634799999989,100.51269500000035,104.10253900000043,99.74365200000011,78.9741210000002,114.74365200000011
27,78.46142599999985,95.38476599999922,86.2822270000006,138.20507799999996,95.89746099999957,116.53857400000015,107.56396500000028,99.48730499999965,114.35888699999941,106.0258789999998,110.0,103.20507799999996,86.6665039999998,113.3334960000002
28,90.89746099999957,99.48730499999965,91.9228520000006,144.3588869999994,107.17968800000017,116.2822270000006,115.25634799999989,107.82031300000017,120.89746099999957,114.74365200000011,119.74365200000011,106.0258789999998,97.30761700000039,112.30761700000039
29,97.43603499999972,96.2822270000006,94.23095699999976,144.10253900000043,112.17968800000017,115.0,119.87158199999976,113.3334960000002,124.10253900000043,120.0,127.82031300000017,106.2822270000006,103.58984400000008,112.30761700000039
30,94.87158199999976,89.23095699999976,91.41015599999992,138.0771479999994,108.58984400000008,113.46142599999985,118.9741210000002,112.05126999999993,121.2822270000006,118.3334960000002,130.12841800000024,103.46142599999985,101.79492200000004,113.20507799999996
31,87.30761700000039,84.87158199999976,85.38476599999922,131.53857400000015,100.51269500000035,112.69238299999961,114.35888699999941,105.76904300000024,115.12841800000024,112.05126999999993,126.53857400000015,99.74365200000011,94.61523400000078,114.35888699999941
32,82.05126999999993,87.30761700000039,80.76904300000024,129.61523400000078,94.35888699999941,113.46142599999985,110.76904300000024,100.51269500000035,111.41015599999992,106.41015599999992,120.64111300000059,98.0771479999994,88.84619099999964,115.25634799999989
33,84.23095699999976,95.25634799999989,81.6665039999998,133.58984400000008,93.84619099999964,115.64111300000059,111.6665039999998,100.64111300000059,113.58984400000008,106.41015599999992,116.53857400000015,100.25634799999989,89.23095699999976,115.12841800000024
34,92.17968800000017,103.20507799999996,87.82031300000017,140.38476599999922,97.30761700000039,117.94873000000007,116.79492200000004,106.6665039999998,120.51269500000035,111.9228520000006,115.89746099999957,105.0,94.87158199999976,113.84619099999964
35,99.87158199999976,105.64111300000059,95.76904300000024,145.0,100.38476599999922,118.84619099999964,121.53857400000015,114.61523400000078,127.05126999999993,118.7177729999994,117.43603499999972,109.61523400000078,101.0258789999998,111.9228520000006
36,101.15380900000036,100.25634799999989,100.38476599999922,143.84619099999964,100.76904300000024,117.69238299999961,121.2822270000006,119.87158199999976,128.0771479999994,121.53857400000015,118.9741210000002,111.9228520000006,102.82031300000017,109.87158199999976
37,94.48730499999965,89.87158199999976,99.10253900000043,137.6923829999996,99.48730499999965,115.25634799999989,115.0,119.48730499999965,122.82031300000017,118.0771479999994,118.58984400000008,110.76904300000024,99.35888699999941,108.84619099999964
38,84.35888699999941,80.76904300000024,93.0771479999994,130.51269500000035,98.84619099999964,113.3334960000002,106.9228520000006,114.87158199999976,115.25634799999989,110.89746099999957,116.0258789999998,107.17968800000017,94.10253900000043,109.87158199999976
39,77.94873000000007,78.46142599999985,86.9228520000006,127.17968800000017,100.64111300000059,113.0771479999994,102.94873000000007,110.51269500000035,110.89746099999957,104.23095699999976,112.94873000000007,103.20507799999996,91.15380900000036,112.94873000000007
40,79.87158199999976,84.23095699999976,85.12841800000024,130.2563479999999,104.61523400000078,114.35888699999941,105.64111300000059,110.38476599999922,113.0771479999994,101.6665039999998,111.6665039999998,101.2822270000006,92.69238299999961,117.30761700000039
41,88.9741210000002,94.74365200000011,88.46142599999985,137.82031300000017,109.48730499999965,116.0258789999998,113.0771479999994,114.87158199999976,120.38476599999922,103.46142599999985,113.3334960000002,102.56396500000028,97.30761700000039,121.15380900000036
42,98.84619099999964,103.7177729999994,93.7177729999994,145.0,112.94873000000007,116.9228520000006,119.74365200000011,119.87158199999976,127.56396500000028,107.17968800000017,116.9228520000006,105.64111300000059,101.2822270000006,122.30761700000039
43,103.0771479999994,106.15380900000036,95.76904300000024,146.9228520000006,112.43603499999972,116.53857400000015,121.53857400000015,120.76904300000024,129.48730499999965,109.35888699999941,119.35888699999941,107.94873000000007,102.05126999999993,120.12841800000024
44,99.87158199999976,101.53857400000015,92.30761700000039,142.3076170000004,106.79492200000004,115.25634799999989,117.69238299999961,116.0258789999998,125.0,107.82031300000017,118.9741210000002,107.43603499999972,99.35888699999941,116.79492200000004
45,92.82031300000017,93.3334960000002,85.89746099999957,134.3588869999994,98.58984400000008,114.10253900000043,111.2822270000006,108.46142599999985,116.41015599999992,102.56396500000028,116.15380900000036,104.61523400000078,95.89746099999957,114.48730499999965
46,88.3334960000002,87.30761700000039,81.53857400000015,128.46142599999985,92.56396500000028,113.84619099999964,106.6665039999998,101.9228520000006,108.7177729999994,96.0258789999998,113.58984400000008,101.6665039999998,94.48730499999965,114.23095699999976
47,90.76904300000024,88.0771479999994,82.82031300000017,128.0771479999994,93.20507799999996,114.10253900000043,106.79492200000004,99.61523400000078,106.15380900000036,91.2822270000006,113.58984400000008,100.64111300000059,96.15380900000036,115.25634799999989
48,98.7177729999994,94.87158199999976,88.58984400000008,132.05126999999993,100.64111300000059,114.10253900000043,110.89746099999957,101.41015599999992,109.10253900000043,90.12841800000024,116.2822270000006,101.79492200000004,99.23095699999976,116.0258789999998
49,106.6665039999998,103.0771479999994,94.35888699999941,136.41015599999992,110.64111300000059,113.58984400000008,115.64111300000059,104.74365200000011,113.9741210000002,92.30761700000039,119.74365200000011,103.46142599999985,101.6665039999998,115.76904300000024
50,108.84619099999964,106.79492200000004,95.51269500000035,137.43603499999972,117.69238299999961,112.94873000000007,117.43603499999972,106.15380900000036,116.53857400000015,96.6665039999998,121.15380900000036,103.9741210000002,102.17968800000017,114.35888699999941
51,104.10253900000043,104.23095699999976,91.53857400000015,134.48730499999965,119.87158199999976,113.20507799999996,114.87158199999976,104.48730499999965,115.12841800000024,101.9228520000006,119.23095699999976,102.94873000000007,101.41015599999992,112.43603499999972
52,95.64111300000059,97.94873000000007,85.25634799999989,130.38476599999922,118.9741210000002,114.35888699999941,109.87158199999976,101.2822270000006,111.41015599999992,106.41015599999992,115.38476599999922,101.2822270000006,101.0258789999998,111.41015599999992
53,88.20507799999996,92.30761700000039,80.64111300000059,128.58984400000008,118.20507799999996,115.76904300000024,105.64111300000059,100.0,108.20507799999996,108.58984400000008,112.05126999999993,100.12841800000024,101.15380900000036,112.05126999999993
54,85.64111300000059,90.25634799999989,79.23095699999976,129.48730499999965,118.58984400000008,116.6665039999998,104.23095699999976,101.9228520000006,107.43603499999972,107.17968800000017,110.89746099999957,99.48730499999965,101.0258789999998,113.84619099999964
55,87.94873000000007,91.53857400000015,80.25634799999989,131.0258789999998,118.3334960000002,116.41015599999992,105.89746099999957,105.76904300000024,108.9741210000002,102.82031300000017,111.9228520000006,99.35888699999941,100.25634799999989,115.38476599999922
56,92.94873000000007,94.87158199999976,82.05126999999993,130.89746099999957,115.89746099999957,115.25634799999989,109.61523400000078,108.58984400000008,111.79492200000004,98.0771479999994,113.9741210000002,99.61523400000078,99.23095699999976,115.76904300000024
57,97.69238299999961,98.58984400000008,83.46142599999985,129.48730499999965,112.43603499999972,113.9741210000002,114.10253900000043,108.58984400000008,115.38476599999922,96.53857400000015,115.38476599999922,100.51269500000035,99.23095699999976,115.51269500000035
58,101.0258789999998,101.53857400000015,84.23095699999976,129.10253900000043,110.25634799999989,113.9741210000002,118.3334960000002,106.6665039999998,118.3334960000002,98.84619099999964,115.76904300000024,101.6665039999998,101.15380900000036,115.51269500000035
59,102.82031300000017,102.30761700000039,84.61523400000078,131.0258789999998,111.41015599999992,115.25634799999989,120.89746099999957,104.74365200000011,119.35888699999941,102.43603499999972,115.12841800000024,102.43603499999972,103.7177729999994,115.64111300000059
60,103.3334960000002,99.74365200000011,84.35888699999941,133.84619099999964,115.25634799999989,116.53857400000015,120.51269500000035,103.58984400000008,117.05126999999993,103.0771479999994,114.35888699999941,102.56396500000028,104.35888699999941,114.87158199999976
61,102.82031300000017,94.61523400000078,83.9741210000002,133.9741210000002,118.7177729999994,116.53857400000015,117.05126999999993,102.82031300000017,111.6665039999998,99.23095699999976,113.9741210000002,101.79492200000004,100.64111300000059,113.20507799999996
62,101.9228520000006,89.87158199999976,83.7177729999994,129.7436520000001,118.9741210000002,115.25634799999989,111.15380900000036,101.15380900000036,105.51269500000035,92.82031300000017,114.48730499999965,101.0258789999998,93.84619099999964,111.6665039999998
63,101.41015599999992,88.9741210000002,84.23095699999976,122.69238299999961,114.87158199999976,113.9741210000002,105.64111300000059,99.23095699999976,101.6665039999998,87.94873000000007,115.89746099999957,100.89746099999957,87.43603499999972,111.53857400000015
64,101.2822270000006,92.17968800000017,85.25634799999989,116.9228520000006,108.46142599999985,113.3334960000002,102.43603499999972,97.82031300000017,101.2822270000006,87.17968800000017,117.94873000000007,101.6665039999998,85.38476599999922,112.69238299999961
65,101.0258789999998,96.41015599999992,85.89746099999957,115.64111300000059,102.69238299999961,112.69238299999961,101.53857400000015,97.30761700000039,102.94873000000007,88.84619099999964,119.10253900000043,102.17968800000017,88.0771479999994,114.10253900000043
66,99.87158199999976,97.56396500000028,85.25634799999989,118.7177729999994,99.61523400000078,111.53857400000015,101.15380900000036,97.05126999999993,103.20507799999996,89.74365200000011,117.56396500000028,101.41015599999992,92.82031300000017,114.61523400000078
67,98.58984400000008,94.48730499999965,83.7177729999994,123.58984400000008,99.35888699999941,110.0,99.87158199999976,96.79492200000004,101.0258789999998,88.20507799999996,113.84619099999964,99.61523400000078,96.15380900000036,114.10253900000043
68,99.35888699999941,89.61523400000078,82.82031300000017,127.82031300000017,101.15380900000036,108.9741210000002,98.58984400000008,97.43603499999972,98.20507799999996,86.53857400000015,110.89746099999957,98.7177729999994,97.56396500000028,112.94873000000007
69,103.3334960000002,87.30761700000039,84.61523400000078,131.15380900000036,104.23095699999976,109.48730499999965,99.10253900000043,99.48730499999965,98.46142599999985,88.58984400000008,112.05126999999993,100.25634799999989,98.9741210000002,111.79492200000004
70,109.87158199999976,89.87158199999976,89.48730499999965,133.9741210000002,107.82031300000017,111.6665039999998,102.69238299999961,102.94873000000007,104.10253900000043,95.89746099999957,117.56396500000028,104.35888699999941,102.56396500000028,111.2822270000006
71,115.64111300000059,96.15380900000036,95.12841800000024,135.51269500000035,110.89746099999957,114.48730499999965,108.0771479999994,106.6665039999998,113.3334960000002,105.12841800000024,124.61523400000078,108.7177729999994,108.0771479999994,111.6665039999998
72,116.6665039999998,101.2822270000006,97.43603499999972,133.3334960000002,110.76904300000024,116.2822270000006,111.41015599999992,108.7177729999994,120.0,110.0,128.3334960000002,110.38476599999922,112.05126999999993,112.82031300000017
73,110.12841800000024,99.87158199999976,93.20507799999996,125.51269500000035,105.76904300000024,116.0258789999998,109.23095699999976,107.30761700000039,118.84619099999964,105.89746099999957,124.74365200000011,107.56396500000028,110.64111300000059,113.7177729999994
74,98.46142599999985,91.53857400000015,83.84619099999964,113.0771479999994,97.43603499999972,114.48730499999965,102.05126999999993,102.82031300000017,110.51269500000035,95.38476599999922,114.74365200000011,101.6665039999998,102.82031300000017,113.9741210000002
75,88.46142599999985,82.43603499999972,74.61523400000078,101.79492200000004,91.15380900000036,113.0771479999994,94.87158199999976,99.23095699999976,102.30761700000039,86.41015599999992,104.87158199999976,96.79492200000004,93.46142599999985,113.84619099999964
76,86.53857400000015,80.12841800000024,71.9228520000006,98.0771479999994,92.30761700000039,112.94873000000007,93.20507799999996,99.61523400000078,101.9228520000006,86.0258789999998,102.43603499999972,96.2822270000006,89.10253900000043,113.58984400000008
77,94.10253900000043,86.0258789999998,76.9228520000006,103.58984400000008,100.12841800000024,113.7177729999994,98.58984400000008,103.7177729999994,109.48730499999965,93.58984400000008,108.58984400000008,99.74365200000011,92.56396500000028,113.3334960000002
78,105.38476599999922,93.7177729999994,84.61523400000078,112.56396500000028,107.82031300000017,114.87158199999976,106.15380900000036,106.9228520000006,117.43603499999972,100.76904300000024,117.56396500000028,103.3334960000002,99.74365200000011,112.94873000000007
79,112.43603499999972,95.38476599999922,88.7177729999994,116.9228520000006,108.46142599999985,115.0,109.48730499999965,105.25634799999989,117.30761700000039,99.87158199999976,121.53857400000015,104.48730499999965,103.58984400000008,112.56396500000028
80,112.17968800000017,90.0,87.30761700000039,114.35888699999941,102.69238299999961,114.23095699999976,107.05126999999993,100.64111300000059,109.10253900000043,92.17968800000017,118.58984400000008,103.46142599999985,101.53857400000015,112.05126999999993
81,108.3334960000002,84.23095699999976,84.23095699999976,110.0,98.0771479999994,113.46142599999985,103.46142599999985,99.35888699999941,101.53857400000015,87.69238299999961,113.9741210000002,103.46142599999985,98.20507799999996,111.53857400000015
82,107.43603499999972,86.0258789999998,85.25634799999989,111.9228520000006,101.41015599999992,114.23095699999976,104.74365200000011,106.2822270000006,104.10253900000043,94.35888699999941,114.61523400000078,106.79492200000004,99.61523400000078,111.15380900000036
83,112.30761700000039,96.53857400000015,91.53857400000015,121.6665039999998,112.30761700000039,116.2822270000006,112.05126999999993,119.61523400000078,117.82031300000017,109.74365200000011,122.30761700000039,112.17968800000017,107.30761700000039,111.53857400000015
84,119.48730499999965,109.10253900000043,99.10253900000043,133.0771479999994,122.82031300000017,118.0771479999994,120.64111300000059,131.41015599999992,133.3334960000002,122.30761700000039,131.79492200000004,115.76904300000024,115.76904300000024,112.43603499999972
85,122.69238299999961,115.25634799999989,101.53857400000015,136.2822270000006,124.35888699999941,118.20507799999996,123.9741210000002,133.58984400000008,139.3588869999994,122.05126999999993,134.7436520000001,113.7177729999994,118.20507799999996,113.3334960000002
86,118.7177729999994,111.0258789999998,96.0258789999998,127.05126999999993,115.51269500000035,116.53857400000015,119.23095699999976,124.10253900000043,131.53857400000015,108.84619099999964,127.82031300000017,106.9228520000006,112.94873000000007,113.58984400000008
87,109.35888699999941,99.23095699999976,86.15380900000036,110.38476599999922,101.79492200000004,114.48730499999965,108.84619099999964,108.9741210000002,115.25634799999989,92.43603499999972,114.23095699999976,99.48730499999965,103.46142599999985,113.20507799999996
88,99.74365200000011,86.79492200000004,78.20507799999996,96.6665039999998,91.53857400000015,113.7177729999994,99.10253900000043,96.9228520000006,101.15380900000036,84.23095699999976,102.05126999999993,96.15380900000036,95.51269500000035,112.56396500000028
89,94.35888699999941,80.12841800000024,76.15380900000036,93.84619099999964,90.0,114.23095699999976,95.51269500000035,93.7177729999994,97.30761700000039,88.20507799999996,97.43603499999972,97.69238299999961,92.30761700000039,112.43603499999972
90,94.23095699999976,81.9228520000006,79.74365200000011,102.30761700000039,96.79492200000004,114.87158199999976,99.61523400000078,98.58984400000008,104.23095699999976,99.35888699999941,101.53857400000015,101.6665039999998,93.9741210000002,112.94873000000007
91,98.0771479999994,89.23095699999976,85.25634799999989,114.48730499999965,106.15380900000036,115.12841800000024,107.82031300000017,105.76904300000024,115.38476599999922,108.20507799999996,109.74365200000011,104.87158199999976,98.46142599999985,113.9741210000002
92,102.94873000000007,96.0258789999998,88.46142599999985,120.89746099999957,110.38476599999922,114.61523400000078,113.58984400000008,108.84619099999964,122.05126999999993,109.10253900000043,115.89746099999957,105.38476599999922,103.0771479999994,115.0
93,106.6665039999998,97.69238299999961,88.3334960000002,118.20507799999996,105.76904300000024,113.3334960000002,113.20507799999996,105.51269500000035,119.23095699999976,102.82031300000017,117.05126999999993,103.84619099999964,106.0258789999998,115.0
94,109.48730499999965,95.64111300000059,87.69238299999961,111.2822270000006,96.2822270000006,111.41015599999992,107.69238299999961,98.7177729999994,110.0,96.79492200000004,115.25634799999989,103.0771479999994,107.69238299999961,114.23095699999976
95,113.3334960000002,95.51269500000035,90.25634799999989,109.10253900000043,90.64111300000059,110.25634799999989,102.69238299999961,94.35888699999941,102.43603499999972,97.82031300000017,116.41015599999992,106.0258789999998,111.0258789999998,113.58984400000008
96,119.10253900000043,101.15380900000036,97.05126999999993,116.15380900000036,94.87158199999976,110.64111300000059,102.43603499999972,96.41015599999992,103.46142599999985,107.17968800000017,123.20507799999996,113.3334960000002,117.30761700000039,113.7177729999994
97,124.74365200000011,109.87158199999976,103.9741210000002,128.0771479999994,106.6665039999998,112.30761700000039,106.6665039999998,103.46142599999985,112.05126999999993,118.3334960000002,131.79492200000004,121.0258789999998,124.10253900000043,114.10253900000043
98,125.64111300000059,114.74365200000011,105.89746099999957,135.2563479999999,117.05126999999993,113.3334960000002,110.64111300000059,109.74365200000011,121.15380900000036,123.0771479999994,134.87158199999976,123.3334960000002,126.15380900000036,114.23095699999976
99,119.10253900000043,110.76904300000024,100.51269500000035,131.6665039999998,117.43603499999972,112.43603499999972,109.48730499999965,109.74365200000011,122.69238299999961,118.20507799999996,127.94873000000007,117.56396500000028,120.76904300000024,114.10253900000043
100,107.56396500000028,99.48730499999965,90.76904300000024,118.7177729999994,107.30761700000039,110.0,103.46142599999985,103.3334960000002,115.0,108.0771479999994,113.84619099999964,106.79492200000004,110.38476599999922,113.9741210000002
101,97.56396500000028,88.20507799999996,82.30761700000039,105.12841800000024,94.23095699999976,108.20507799999996,97.56396500000028,95.38476599999922,103.9741210000002,101.15380900000036,100.89746099999957,97.82031300000017,101.2822270000006,114.23095699999976
102,95.51269500000035,85.0,79.48730499999965,99.35888699999941,88.46142599999985,108.58984400000008,97.43603499999972,92.69238299999961,98.46142599999985,103.3334960000002,97.17968800000017,96.0258789999998,98.84619099999964,114.48730499999965
103,101.41015599999992,92.30761700000039,82.56396500000028,102.94873000000007,94.35888699999941,111.15380900000036,103.84619099999964,98.20507799999996,102.56396500000028,113.0771479999994,104.48730499999965,101.6665039999998,104.23095699999976,114.35888699999941
104,109.61523400000078,104.35888699999941,87.69238299999961,110.25634799999989,106.53857400000015,114.23095699999976,112.30761700000039,108.9741210000002,112.94873000000007,122.94873000000007,116.6665039999998,109.48730499999965,113.84619099999964,113.9741210000002
105,113.3334960000002,111.9228520000006,90.38476599999922,113.46142599999985,115.0,115.89746099999957,116.2822270000006,117.94873000000007,122.05126999999993,125.76904300000024,125.12841800000024,113.20507799999996,121.2822270000006,113.46142599999985
106,110.51269500000035,109.87158199999976,88.58984400000008,109.48730499999965,113.58984400000008,115.51269500000035,113.3334960000002,119.74365200000011,124.35888699999941,120.89746099999957,125.25634799999989,110.89746099999957,122.17968800000017,113.0771479999994
107,105.25634799999989,101.41015599999992,85.12841800000024,102.30761700000039,105.64111300000059,113.9741210000002,106.6665039999998,115.0,121.15380900000036,114.23095699999976,119.74365200000011,105.76904300000024,117.56396500000028,113.20507799999996
108,103.84619099999964,95.51269500000035,84.87158199999976,98.46142599999985,99.87158199999976,113.0771479999994,103.20507799999996,109.87158199999976,118.20507799999996,112.69238299999961,115.25634799999989,103.7177729999994,112.05126999999993,113.84619099999964
109,108.7177729999994,97.94873000000007,90.12841800000024,101.53857400000015,102.56396500000028,113.7177729999994,106.9228520000006,109.74365200000011,120.64111300000059,117.69238299999961,116.15380900000036,107.43603499999972,110.89746099999957,114.35888699999941
110,116.79492200000004,106.9228520000006,98.46142599999985,108.20507799999996,110.89746099999957,115.12841800000024,115.51269500000035,114.48730499999965,127.30761700000039,124.48730499999965,121.0258789999998,114.35888699999941,114.74365200000011,114.35888699999941
111,121.41015599999992,113.84619099999964,104.23095699999976,111.53857400000015,116.15380900000036,116.2822270000006,122.30761700000039,119.23095699999976,132.05126999999993,127.05126999999993,124.61523400000078,119.48730499999965,119.61523400000078,113.7177729999994
112,118.9741210000002,112.56396500000028,103.58984400000008,107.69238299999961,112.56396500000028,116.0258789999998,122.43603499999972,118.58984400000008,129.7436520000001,122.82031300000017,123.20507799999996,119.61523400000078,121.2822270000006,113.20507799999996
113,111.79492200000004,104.23095699999976,97.69238299999961,99.74365200000011,102.43603499999972,114.35888699999941,116.53857400000015,112.56396500000028,121.2822270000006,114.35888699999941,117.94873000000007,115.51269500000035,118.84619099999964,113.20507799999996
114,106.0258789999998,95.89746099999957,91.6665039999998,94.10253900000043,95.0,112.17968800000017,109.48730499999965,105.76904300000024,112.69238299999961,107.05126999999993,113.0771479999994,111.0258789999998,114.87158199999976,113.20507799999996
115,106.53857400000015,93.9741210000002,90.25634799999989,94.74365200000011,97.56396500000028,111.2822270000006,106.15380900000036,103.46142599999985,109.74365200000011,104.61523400000078,112.56396500000028,109.87158199999976,112.69238299999961,112.94873000000007
116,113.20507799999996,99.48730499999965,94.10253900000043,99.87158199999976,109.61523400000078,112.94873000000007,108.0771479999994,107.56396500000028,113.84619099999964,107.82031300000017,116.6665039999998,112.69238299999961,113.20507799999996,112.43603499999972
117,120.64111300000059,107.56396500000028,100.0,103.3334960000002,122.56396500000028,115.64111300000059,113.0771479999994,115.25634799999989,121.0258789999998,113.58984400000008,122.30761700000039,116.6665039999998,113.84619099999964,112.30761700000039
118,122.43603499999972,111.6665039999998,103.3334960000002,100.0,126.0258789999998,117.30761700000039,116.6665039999998,120.89746099999957,124.61523400000078,117.17968800000017,124.61523400000078,118.3334960000002,111.6665039999998,112.69238299999961
119,116.41015599999992,108.20507799999996,101.79492200000004,90.25634799999989,116.0258789999998,116.53857400000015,116.0258789999998,120.76904300000024,121.0258789999998,115.12841800000024,120.0,115.76904300000024,105.89746099999957,113.3334960000002
120,106.9228520000006,100.0,97.17968800000017,81.15380900000036,99.87158199999976,114.48730499999965,112.30761700000039,115.64111300000059,112.82031300000017,108.3334960000002,110.25634799999989,110.76904300000024,99.61523400000078,113.84619099999964
121,101.53857400000015,94.23095699999976,94.61523400000078,80.38476599999922,90.0,113.20507799999996,110.64111300000059,110.64111300000059,106.53857400000015,101.6665039999998,101.41015599999992,107.43603499999972,96.2822270000006,114.48730499999965
122,104.87158199999976,96.41015599999992,97.30761700000039,90.64111300000059,93.46142599999985,113.84619099999964,114.10253900000043,110.25634799999989,107.43603499999972,100.51269500000035,100.12841800000024,108.20507799999996,97.69238299999961,115.12841800000024
123,113.9741210000002,105.38476599999922,103.84619099999964,106.2822270000006,105.76904300000024,115.76904300000024,121.53857400000015,115.0,114.48730499999965,105.64111300000059,107.05126999999993,112.30761700000039,102.17968800000017,115.12841800000024
124,121.0258789999998,113.84619099999964,108.7177729999994,117.43603499999972,115.89746099999957,116.79492200000004,128.46142599999985,120.12841800000024,121.6665039999998,112.30761700000039,116.2822270000006,115.76904300000024,104.74365200000011,113.84619099999964
125,119.61523400000078,113.9741210000002,107.56396500000028,117.69238299999961,115.64111300000059,116.0258789999998,130.0,120.76904300000024,122.69238299999961,114.10253900000043,119.48730499999965,115.38476599999922,101.6665039999998,112.05126999999993
126,109.48730499999965,104.35888699999941,100.25634799999989,107.17968800000017,106.15380900000036,113.7177729999994,125.25634799999989,115.76904300000024,116.53857400000015,108.58984400000008,112.69238299999961,110.89746099999957,92.56396500000028,110.76904300000024
127,96.9228520000006,90.64111300000059,91.6665039999998,92.17968800000017,95.64111300000059,111.53857400000015,117.05126999999993,108.7177729999994,108.0771479999994,100.12841800000024,100.12841800000024,104.87158199999976,82.56396500000028,110.89746099999957
128,89.10253900000043,80.64111300000059,86.2822270000006,80.12841800000024,91.15380900000036,110.89746099999957,110.38476599999922,104.87158199999976,103.58984400000008,94.87158199999976,89.74365200000011,100.76904300000024,77.56396500000028,112.17968800000017
129,88.7177729999994,78.0771479999994,85.64111300000059,74.23095699999976,93.7177729999994,111.6665039999998,108.3334960000002,106.6665039999998,105.89746099999957,96.9228520000006,87.43603499999972,100.25634799999989,79.61523400000078,113.9741210000002
130,93.58984400000008,81.53857400000015,87.69238299999961,73.7177729999994,98.7177729999994,112.94873000000007,110.38476599999922,111.6665039999998,112.05126999999993,104.87158199999976,91.9228520000006,102.56396500000028,86.0258789999998,115.12841800000024
131,99.23095699999976,87.05126999999993,89.87158199999976,76.15380900000036,101.41015599999992,113.20507799999996,113.9741210000002,116.0258789999998,116.41015599999992,113.0771479999994,98.0771479999994,105.12841800000024,91.6665039999998,114.61523400000078
132,102.94873000000007,92.05126999999993,91.6665039999998,80.12841800000024,100.89746099999957,112.17968800000017,117.05126999999993,117.56396500000028,116.53857400000015,116.0258789999998,101.6665039999998,106.53857400000015,93.7177729999994,112.43603499999972
133,106.2822270000006,96.6665039999998,94.74365200000011,85.12841800000024,101.15380900000036,110.51269500000035,119.87158199999976,117.94873000000007,115.25634799999989,113.0771479999994,103.46142599999985,107.56396500000028,93.9741210000002,110.25634799999989
134,112.43603499999972,102.17968800000017,100.51269500000035,91.0258789999998,106.2822270000006,110.51269500000035,124.74365200000011,120.38476599999922,118.0771479999994,110.12841800000024,107.17968800000017,110.25634799999989,96.6665039999998,110.0
135,121.41015599999992,107.43603499999972,107.82031300000017,95.51269500000035,115.51269500000035,112.56396500000028,131.6665039999998,126.6665039999998,127.05126999999993,112.43603499999972,114.23095699999976,115.12841800000024,103.9741210000002,111.9228520000006
136,128.58984400000008,109.10253900000043,112.94873000000007,95.12841800000024,122.43603499999972,115.25634799999989,137.3076170000004,134.10253900000043,137.94873000000007,119.35888699999941,121.2822270000006,119.87158199999976,112.56396500000028,113.9741210000002
137,127.94873000000007,104.10253900000043,112.56396500000028,87.56396500000028,120.12841800000024,115.76904300000024,137.3076170000004,137.3076170000004,142.94873000000007,124.61523400000078,122.17968800000017,121.2822270000006,116.0258789999998,114.10253900000043
138,118.3334960000002,93.46142599999985,106.53857400000015,74.61523400000078,107.43603499999972,113.46142599999985,130.51269500000035,132.56396500000028,136.9228520000006,123.0771479999994,114.48730499999965,118.0771479999994,110.0,112.17968800000017
139,105.25634799999989,82.30761700000039,98.7177729999994,62.69238299999961,92.05126999999993,110.51269500000035,120.76904300000024,121.9228520000006,123.3334960000002,116.15380900000036,103.0771479999994,112.56396500000028,97.82031300000017,109.87158199999976
140,96.79492200000004,76.6665039999998,94.87158199999976,58.974121000000196,84.74365200000011,108.9741210000002,113.58984400000008,111.79492200000004,111.41015599999992,110.12841800000024,97.17968800000017,108.9741210000002,87.69238299999961,108.7177729999994
141,96.79492200000004,78.7177729999994,97.17968800000017,64.10253900000043,90.12841800000024,109.74365200000011,111.79492200000004,108.20507799999996,107.94873000000007,109.10253900000043,101.53857400000015,109.61523400000078,86.15380900000036,109.48730499999965
142,101.9228520000006,85.64111300000059,102.94873000000007,71.9228520000006,103.20507799999996,111.53857400000015,113.9741210000002,111.6665039999998,112.43603499999972,111.2822270000006,112.05126999999993,113.3334960000002,92.56396500000028,111.2822270000006
143,106.2822270000006,92.56396500000028,106.9228520000006,75.25634799999989,114.10253900000043,112.82031300000017,117.56396500000028,117.43603499999972,118.46142599999985,112.17968800000017,119.61523400000078,116.79492200000004,100.64111300000059,112.56396500000028
144,106.79492200000004,96.15380900000036,106.15380900000036,72.82031300000017,116.79492200000004,112.43603499999972,120.89746099999957,120.12841800000024,120.89746099999957,108.58984400000008,118.58984400000008,117.94873000000007,103.9741210000002,112.56396500000028
145,105.12841800000024,96.2822270000006,102.56396500000028,69.23095699999976,112.82031300000017,111.2822270000006,124.23095699999976,118.58984400000008,119.48730499999965,102.82031300000017,111.2822270000006,117.56396500000028,101.15380900000036,111.2822270000006
146,104.48730499999965,94.61523400000078,100.25634799999989,69.74365200000011,107.82031300000017,110.76904300000024,127.69238299999961,115.76904300000024,117.30761700000039,99.87158199999976,104.61523400000078,116.9228520000006,96.15380900000036,110.25634799999989
147,105.64111300000059,93.0771479999994,101.6665039999998,76.0258789999998,105.76904300000024,111.6665039999998,130.12841800000024,115.12841800000024,117.30761700000039,102.17968800000017,102.94873000000007,116.15380900000036,93.7177729999994,110.25634799999989
148,105.89746099999957,92.05126999999993,104.61523400000078,84.23095699999976,106.0258789999998,113.20507799999996,129.61523400000078,117.17968800000017,118.9741210000002,106.79492200000004,103.9741210000002,114.48730499999965,94.10253900000043,111.2822270000006
149,102.30761700000039,90.12841800000024,105.25634799999989,87.56396500000028,104.35888699999941,113.84619099999964,125.12841800000024,118.9741210000002,119.23095699999976,108.0771479999994,102.43603499999972,111.0258789999998,93.46142599999985,112.43603499999972
150,94.10253900000043,85.89746099999957,101.15380900000036,82.56396500000028,97.43603499999972,112.94873000000007,117.43603499999972,116.9228520000006,114.87158199999976,103.46142599999985,95.76904300000024,106.15380900000036,87.17968800000017,113.20507799999996
151,84.87158199999976,79.87158199999976,93.84619099999964,71.41015599999992,86.9228520000006,110.76904300000024,109.87158199999976,110.38476599999922,106.41015599999992,94.48730499999965,86.53857400000015,101.2822270000006,76.53857400000015,113.7177729999994
152,79.61523400000078,74.87158199999976,87.56396500000028,61.666503999999804,79.35888699999941,108.58984400000008,106.0258789999998,102.56396500000028,98.0771479999994,86.9228520000006,80.89746099999957,98.46142599999985,67.82031300000017,113.84619099999964
153,81.2822270000006,73.0771479999994,86.2822270000006,59.74365200000011,80.64111300000059,108.3334960000002,107.56396500000028,98.7177729999994,94.74365200000011,85.38476599999922,83.0771479999994,98.84619099999964,68.0771479999994,113.46142599999985
154,87.94873000000007,74.74365200000011,90.51269500000035,66.53857400000015,90.76904300000024,110.64111300000059,112.82031300000017,101.0258789999998,98.20507799999996,91.0258789999998,91.53857400000015,101.9228520000006,78.3334960000002,113.20507799999996
155,94.35888699999941,78.20507799999996,97.30761700000039,76.6665039999998,103.46142599999985,114.35888699999941,118.0771479999994,107.05126999999993,105.38476599999922,100.38476599999922,100.51269500000035,105.76904300000024,92.30761700000039,113.0771479999994
156,96.15380900000036,81.15380900000036,101.9228520000006,83.9741210000002,111.79492200000004,116.9228520000006,120.51269500000035,111.9228520000006,111.53857400000015,107.56396500000028,104.23095699999976,107.69238299999961,101.0258789999998,113.0771479999994
157,93.58984400000008,82.94873000000007,101.9228520000006,86.9228520000006,113.7177729999994,116.41015599999992,120.89746099999957,113.20507799999996,113.84619099999964,109.35888699999941,102.69238299999961,106.79492200000004,100.76904300000024,113.0771479999994
158,90.25634799999989,84.87158199999976,98.84619099999964,88.46142599999985,112.30761700000039,114.23095699999976,121.53857400000015,111.9228520000006,113.84619099999964,107.69238299999961,100.0,104.35888699999941,94.87158199999976,113.0771479999994
159,90.12841800000024,88.84619099999964,96.41015599999992,91.53857400000015,112.17968800000017,112.94873000000007,123.9741210000002,111.0258789999998,114.35888699999941,106.9228520000006,100.38476599999922,102.43603499999972,90.51269500000035,113.3334960000002
160,94.10253900000043,95.12841800000024,96.79492200000004,95.76904300000024,114.23095699999976,114.48730499999965,127.17968800000017,112.30761700000039,116.79492200000004,110.12841800000024,104.23095699999976,102.43603499999972,92.05126999999993,113.58984400000008
161,99.74365200000011,102.17968800000017,99.35888699999941,97.82031300000017,116.15380900000036,117.05126999999993,128.7177729999994,114.35888699999941,119.10253900000043,116.0258789999998,108.20507799999996,103.9741210000002,98.20507799999996,113.58984400000008
162,103.84619099999964,106.15380900000036,101.15380900000036,96.15380900000036,114.10253900000043,117.82031300000017,127.43603499999972,115.12841800000024,118.7177729999994,119.87158199999976,108.84619099999964,105.25634799999989,104.48730499999965,113.3334960000002
163,104.23095699999976,103.84619099999964,100.64111300000059,92.30761700000039,107.56396500000028,115.38476599999922,123.84619099999964,113.20507799999996,115.0,118.3334960000002,105.76904300000024,105.64111300000059,106.41015599999992,113.0771479999994
164,102.05126999999993,95.38476599999922,98.20507799999996,90.38476599999922,100.25634799999989,110.76904300000024,119.61523400000078,109.87158199999976,109.87158199999976,111.2822270000006,102.69238299999961,105.25634799999989,103.20507799999996,112.69238299999961
165,99.87158199999976,85.51269500000035,96.15380900000036,92.30761700000039,97.69238299999961,106.53857400000015,116.53857400000015,107.56396500000028,106.79492200000004,103.3334960000002,103.7177729999994,105.25634799999989,98.0771479999994,111.9228520000006
166,99.23095699999976,80.64111300000059,96.2822270000006,96.9228520000006,102.17968800000017,104.74365200000011,115.51269500000035,108.0771479999994,107.82031300000017,99.61523400000078,109.48730499999965,106.2822270000006,95.76904300000024,111.2822270000006
167,100.12841800000024,83.0771479999994,98.7177729999994,101.41015599999992,110.89746099999957,106.0258789999998,116.15380900000036,111.0258789999998,111.79492200000004,103.0771479999994,116.6665039999998,108.20507799999996,98.46142599999985,111.53857400000015
168,101.41015599999992,89.61523400000078,101.9228520000006,103.9741210000002,117.94873000000007,108.84619099999964,117.05126999999993,114.35888699999941,116.2822270000006,111.79492200000004,121.15380900000036,109.87158199999976,104.74365200000011,113.20507799999996
169,101.79492200000004,94.87158199999976,104.23095699999976,103.9741210000002,119.61523400000078,110.89746099999957,117.17968800000017,115.76904300000024,118.3334960000002,121.15380900000036,121.79492200000004,110.0,110.89746099999957,115.25634799999989
170,100.25634799999989,96.0258789999998,104.10253900000043,102.17968800000017,116.2822270000006,110.76904300000024,116.2822270000006,114.74365200000011,117.17968800000017,125.89746099999957,119.48730499999965,107.69238299999961,113.7177729999994,116.53857400000015
171,96.9228520000006,94.10253900000043,101.41015599999992,99.35888699999941,111.6665039999998,108.7177729999994,114.74365200000011,112.30761700000039,114.10253900000043,123.58984400000008,115.89746099999957,103.7177729999994,112.17968800000017,116.41015599999992
172,93.84619099999964,92.17968800000017,98.20507799999996,96.79492200000004,109.61523400000078,106.79492200000004,112.94873000000007,110.12841800000024,111.53857400000015,116.53857400000015,112.69238299999961,100.0,107.82031300000017,115.25634799999989
173,93.46142599999985,92.82031300000017,97.30761700000039,96.2822270000006,111.15380900000036,107.05126999999993,112.05126999999993,110.12841800000024,111.53857400000015,110.89746099999957,111.2822270000006,98.84619099999964,104.35888699999941,113.9741210000002
174,97.56396500000028,96.53857400000015,100.64111300000059,99.87158199999976,115.25634799999989,109.23095699999976,113.20507799999996,112.82031300000017,115.0,112.69238299999961,113.46142599999985,101.41015599999992,104.87158199999976,113.46142599999985
175,105.25634799999989,102.30761700000039,107.43603499999972,107.69238299999961,119.35888699999941,110.89746099999957,118.0771479999994,117.17968800000017,121.2822270000006,122.43603499999972,118.84619099999964,107.17968800000017,110.0,114.23095699999976
176,113.0771479999994,107.94873000000007,114.35888699999941,117.30761700000039,121.53857400000015,110.51269500000035,125.89746099999957,121.79492200000004,128.3334960000002,135.2563479999999,125.76904300000024,113.7177729999994,116.79492200000004,115.89746099999957
177,116.9228520000006,111.0258789999998,117.56396500000028,124.48730499999965,121.2822270000006,108.84619099999964,133.9741210000002,124.87158199999976,133.46142599999985,143.58984400000008,131.2822270000006,117.56396500000028,121.15380900000036,117.56396500000028
178,114.35888699999941,110.76904300000024,115.64111300000059,125.64111300000059,119.23095699999976,107.69238299999961,137.94873000000007,125.0,134.87158199999976,143.0771479999994,132.6923829999996,116.79492200000004,119.61523400000078,118.20507799999996
179,107.05126999999993,107.69238299999961,109.48730499999965,119.87158199999976,116.9228520000006,108.58984400000008,135.6411130000006,121.9228520000006,132.17968800000017,134.23095699999976,128.58984400000008,111.6665039999998,112.56396500000028,117.17968800000017
180,99.10253900000043,103.58984400000008,102.43603499999972,110.89746099999957,115.51269500000035,111.41015599999992,127.94873000000007,116.9228520000006,126.2822270000006,122.30761700000039,120.64111300000059,104.74365200000011,103.3334960000002,115.25634799999989
181,94.23095699999976,99.74365200000011,97.43603499999972,103.7177729999994,115.12841800000024,114.23095699999976,118.3334960000002,112.05126999999993,119.35888699999941,113.20507799999996,112.82031300000017,99.48730499999965,95.89746099999957,113.3334960000002
182,93.46142599999985,96.53857400000015,96.0258789999998,102.17968800000017,114.48730499999965,115.25634799999989,111.0258789999998,109.48730499999965,114.35888699999941,111.15380900000036,109.23095699999976,97.94873000000007,92.94873000000007,112.05126999999993
183,96.2822270000006,94.87158199999976,98.0771479999994,106.6665039999998,112.82031300000017,114.61523400000078,108.9741210000002,110.64111300000059,113.3334960000002,115.64111300000059,111.79492200000004,100.51269500000035,95.0,112.05126999999993
184,101.53857400000015,95.51269500000035,103.3334960000002,114.87158199999976,110.89746099999957,113.9741210000002,113.20507799999996,115.64111300000059,117.30761700000039,123.0771479999994,119.61523400000078,106.0258789999998,101.41015599999992,113.7177729999994
185,107.43603499999972,99.74365200000011,110.64111300000059,123.9741210000002,110.89746099999957,114.48730499999965,121.41015599999992,122.82031300000017,125.51269500000035,128.9741210000002,129.23095699999976,112.30761700000039,110.89746099999957,116.2822270000006
186,111.79492200000004,106.79492200000004,117.05126999999993,131.41015599999992,113.20507799999996,116.0258789999998,128.84619099999964,129.48730499999965,134.3588869999994,131.41015599999992,136.41015599999992,117.17968800000017,120.64111300000059,118.20507799999996
187,113.0771479999994,114.35888699999941,119.74365200000011,135.0,116.15380900000036,117.43603499999972,131.79492200000004,132.43603499999972,139.7436520000001,131.41015599999992,138.7177729999994,118.7177729999994,126.53857400000015,118.20507799999996
188,111.79492200000004,119.48730499999965,117.94873000000007,134.23095699999976,118.0771479999994,117.43603499999972,129.3588869999994,130.2563479999999,139.10253900000043,131.0258789999998,136.2822270000006,117.05126999999993,126.53857400000015,116.2822270000006
189,109.48730499999965,121.0258789999998,114.10253900000043,131.41015599999992,118.58984400000008,115.51269500000035,124.61523400000078,124.23095699999976,133.7177729999994,131.41015599999992,131.53857400000015,114.23095699999976,121.9228520000006,113.84619099999964
190,108.0771479999994,119.48730499999965,111.2822270000006,129.61523400000078,119.10253900000043,111.9228520000006,121.15380900000036,118.46142599999985,127.56396500000028,132.3076170000004,127.43603499999972,112.17968800000017,117.05126999999993,112.56396500000028
191,108.3334960000002,115.64111300000059,111.0258789999998,130.6411130000006,120.12841800000024,108.58984400000008,120.76904300000024,116.0258789999998,124.10253900000043,132.3076170000004,125.38476599999922,112.05126999999993,115.12841800000024,113.0771479999994
192,108.9741210000002,110.25634799999989,111.79492200000004,132.94873000000007,119.35888699999941,107.43603499999972,122.05126999999993,117.05126999999993,123.46142599999985,130.12841800000024,124.61523400000078,113.0771479999994,115.76904300000024,114.48730499999965
193,107.82031300000017,104.61523400000078,110.76904300000024,133.3334960000002,114.23095699999976,108.84619099999964,121.9228520000006,118.3334960000002,122.82031300000017,125.0,123.46142599999985,113.46142599999985,115.76904300000024,115.64111300000059
194,103.9741210000002,100.25634799999989,107.05126999999993,129.7436520000001,105.64111300000059,111.0258789999998,119.35888699999941,117.17968800000017,120.25634799999989,118.20507799999996,121.15380900000036,111.9228520000006,112.69238299999961,115.38476599999922
195,99.61523400000078,98.7177729999994,102.56396500000028,124.10253900000043,98.58984400000008,112.05126999999993,116.0258789999998,114.10253900000043,116.9228520000006,113.20507799999996,118.9741210000002,108.46142599999985,107.17968800000017,114.10253900000043
196,97.82031300000017,99.74365200000011,100.51269500000035,120.64111300000059,98.7177729999994,111.6665039999998,114.61523400000078,112.43603499999972,115.89746099999957,113.46142599999985,119.35888699999941,105.12841800000024,102.94873000000007,112.82031300000017
197,99.61523400000078,101.0258789999998,102.69238299999961,122.43603499999972,106.15380900000036,110.89746099999957,116.41015599999992,113.9741210000002,118.58984400000008,118.46142599999985,122.05126999999993,104.10253900000043,102.05126999999993,112.82031300000017
198,101.79492200000004,99.48730499999965,107.17968800000017,128.20507799999996,114.61523400000078,111.15380900000036,118.9741210000002,116.6665039999998,121.41015599999992,122.43603499999972,123.20507799999996,105.0,102.69238299999961,114.48730499999965
199,99.87158199999976,94.23095699999976,108.7177729999994,133.0771479999994,116.53857400000015,112.30761700000039,118.3334960000002,116.53857400000015,119.23095699999976,119.10253900000043,118.46142599999985,105.12841800000024,100.89746099999957,116.6665039999998
200,93.0771479999994,87.94873000000007,104.74365200000011,133.3334960000002,110.12841800000024,113.20507799999996,112.94873000000007,111.53857400000015,110.38476599999922,107.82031300000017,108.84619099999964,102.69238299999961,95.25634799999989,117.94873000000007
201,85.89746099999957,86.41015599999992,98.0771479999994,130.12841800000024,101.6665039999998,113.20507799999996,106.6665039999998,104.74365200000011,100.38476599999922,95.89746099999957,101.2822270000006,99.10253900000043,89.74365200000011,117.17968800000017
202,84.87158199999976,93.0771479999994,95.12841800000024,128.0771479999994,100.0,112.05126999999993,105.25634799999989,101.53857400000015,97.94873000000007,92.82031300000017,103.0771479999994,98.20507799999996,90.25634799999989,115.0
203,92.43603499999972,104.61523400000078,99.10253900000043,129.87158199999976,107.82031300000017,110.25634799999989,112.05126999999993,105.38476599999922,107.17968800000017,102.82031300000017,115.12841800000024,102.05126999999993,99.61523400000078,112.30761700000039
204,103.58984400000008,112.82031300000017,107.43603499999972,134.48730499999965,118.46142599999985,109.23095699999976,123.46142599999985,113.84619099999964,122.69238299999961,119.87158199999976,130.6411130000006,108.58984400000008,113.3334960000002,110.64111300000059
205,110.0,110.64111300000059,113.46142599999985,137.56396500000028,122.43603499999972,109.87158199999976,131.53857400000015,121.0258789999998,133.9741210000002,132.56396500000028,138.84619099999964,113.20507799999996,121.9228520000006,111.0258789999998
206,107.17968800000017,98.46142599999985,112.43603499999972,136.9228520000006,116.2822270000006,112.17968800000017,130.2563479999999,122.56396500000028,133.7177729999994,132.82031300000017,134.61523400000078,112.69238299999961,119.10253900000043,113.3334960000002
207,98.7177729999994,84.87158199999976,106.0258789999998,134.10253900000043,105.25634799999989,115.0,121.0258789999998,119.10253900000043,124.35888699999941,122.30761700000039,121.9228520000006,107.56396500000028,106.79492200000004,115.76904300000024
208,92.17968800000017,79.48730499999965,100.64111300000059,133.7177729999994,98.9741210000002,117.30761700000039,111.53857400000015,115.25634799999989,115.25634799999989,111.15380900000036,111.15380900000036,102.56396500000028,94.74365200000011,116.41015599999992
209,92.82031300000017,85.76904300000024,101.15380900000036,138.3334960000002,102.82031300000017,118.46142599999985,109.23095699999976,115.0,114.35888699999941,109.10253900000043,109.48730499999965,102.56396500000028,91.9228520000006,114.61523400000078
210,99.23095699999976,98.58984400000008,107.56396500000028,146.15380900000036,113.58984400000008,117.82031300000017,115.89746099999957,118.46142599999985,122.43603499999972,117.94873000000007,116.53857400000015,108.3334960000002,99.74365200000011,112.30761700000039
211,105.89746099999957,108.84619099999964,115.38476599999922,153.0771479999994,122.82031300000017,115.89746099999957,126.6665039999998,122.05126999999993,132.94873000000007,130.12841800000024,125.38476599999922,116.15380900000036,111.53857400000015,111.2822270000006
212,108.3334960000002,110.89746099999957,120.0,156.15380900000036,124.35888699999941,113.9741210000002,133.9741210000002,122.69238299999961,138.20507799999996,136.79492200000004,129.10253900000043,120.89746099999957,118.84619099999964,112.43603499999972
213,106.41015599999992,106.15380900000036,120.0,156.53857400000015,119.23095699999976,113.0771479999994,133.84619099999964,120.25634799999989,135.38476599999922,134.10253900000043,126.2822270000006,119.87158199999976,118.0771479999994,114.87158199999976
214,103.58984400000008,101.15380900000036,116.2822270000006,156.6665039999998,113.0771479999994,113.7177729999994,127.30761700000039,117.82031300000017,127.56396500000028,125.64111300000059,120.38476599999922,114.10253900000043,111.2822270000006,117.30761700000039
215,102.69238299999961,100.76904300000024,111.41015599999992,157.56396500000028,111.41015599999992,115.25634799999989,119.48730499999965,117.30761700000039,120.12841800000024,118.0771479999994,115.89746099999957,107.05126999999993,103.46142599999985,118.7177729999994
216,102.56396500000028,103.9741210000002,107.17968800000017,157.82031300000017,113.9741210000002,116.53857400000015,114.23095699999976,117.82031300000017,116.2822270000006,114.87158199999976,113.58984400000008,101.9228520000006,98.3334960000002,117.94873000000007
217,100.12841800000024,105.25634799999989,103.9741210000002,155.2563479999999,116.53857400000015,116.79492200000004,112.82031300000017,116.0258789999998,115.12841800000024,114.48730499999965,111.15380900000036,100.25634799999989,96.0258789999998,115.25634799999989
218,94.48730499999965,100.76904300000024,101.2822270000006,150.2563479999999,115.0,115.76904300000024,113.7177729999994,110.89746099999957,114.10253900000043,113.3334960000002,107.05126999999993,100.51269500000035,94.74365200000011,112.17968800000017
219,88.84619099999964,92.69238299999961,99.10253900000043,146.0258789999998,109.23095699999976,113.84619099999964,114.87158199999976,105.25634799999989,112.56396500000028,109.87158199999976,102.94873000000007,100.64111300000059,93.0771479999994,110.76904300000024
220,87.94873000000007,87.82031300000017,98.46142599999985,146.9228520000006,103.3334960000002,111.53857400000015,116.0258789999998,103.20507799999996,111.53857400000015,106.9228520000006,102.43603499999972,99.87158199999976,92.94873000000007,111.2822270000006
221,93.0771479999994,91.2822270000006,99.87158199999976,153.9741210000002,101.53857400000015,109.87158199999976,117.30761700000039,106.6665039999998,112.82031300000017,107.69238299999961,107.05126999999993,98.7177729999994,96.53857400000015,112.94873000000007
222,100.51269500000035,100.51269500000035,101.6665039999998,163.20507799999996,103.9741210000002,109.74365200000011,118.58984400000008,113.0771479999994,115.76904300000024,112.05126999999993,113.84619099999964,98.46142599999985,102.94873000000007,114.23095699999976
223,103.9741210000002,107.56396500000028,101.41015599999992,167.82031300000017,107.05126999999993,110.89746099999957,118.84619099999964,117.43603499999972,117.94873000000007,116.53857400000015,117.05126999999993,98.9741210000002,108.20507799999996,114.23095699999976
224,100.0,106.0258789999998,97.94873000000007,163.58984400000008,107.30761700000039,112.43603499999972,117.43603499999972,117.05126999999993,117.82031300000017,116.6665039999998,113.58984400000008,99.61523400000078,107.82031300000017,112.56396500000028
225,91.15380900000036,96.6665039999998,93.58984400000008,153.20507799999996,104.61523400000078,112.56396500000028,115.25634799999989,112.94873000000007,115.64111300000059,112.05126999999993,105.76904300000024,99.87158199999976,101.41015599999992,110.76904300000024
226,83.58984400000008,86.53857400000015,91.2822270000006,144.10253900000043,101.6665039999998,111.41015599999992,113.9741210000002,109.10253900000043,113.84619099999964,106.2822270000006,98.9741210000002,99.87158199999976,93.0771479999994,110.12841800000024
227,81.2822270000006,82.56396500000028,92.43603499999972,142.56396500000028,101.41015599999992,110.76904300000024,115.0,108.84619099999964,113.7177729999994,104.10253900000043,97.94873000000007,99.61523400000078,88.0771479999994,111.53857400000015
228,83.3334960000002,86.2822270000006,95.38476599999922,149.23095699999976,105.25634799999989,112.17968800000017,117.56396500000028,112.17968800000017,114.74365200000011,107.30761700000039,102.43603499999972,99.23095699999976,89.48730499999965,114.35888699999941
229,86.41015599999992,94.23095699999976,97.43603499999972,158.20507799999996,111.53857400000015,114.87158199999976,119.48730499999965,115.89746099999957,115.38476599999922,112.43603499999972,107.94873000000007,98.9741210000002,95.25634799999989,116.53857400000015
230,87.69238299999961,101.6665039999998,96.9228520000006,162.6923829999996,116.9228520000006,116.15380900000036,119.23095699999976,117.05126999999993,114.74365200000011,115.51269500000035,110.0,98.7177729999994,100.89746099999957,117.17968800000017
231,87.56396500000028,105.76904300000024,95.51269500000035,161.2822270000006,118.46142599999985,115.0,117.30761700000039,115.25634799999989,113.7177729999994,115.38476599999922,107.56396500000028,98.7177729999994,103.58984400000008,116.41015599999992
232,88.46142599999985,107.30761700000039,96.0258789999998,157.56396500000028,116.15380900000036,111.6665039999998,116.41015599999992,112.94873000000007,113.84619099999964,114.87158199999976,103.3334960000002,99.23095699999976,103.58984400000008,115.64111300000059
233,91.79492200000004,108.58984400000008,98.84619099999964,156.6665039999998,112.94873000000007,108.0771479999994,117.94873000000007,113.46142599999985,115.89746099999957,116.41015599999992,101.0258789999998,100.12841800000024,102.43603499999972,115.64111300000059
234,95.38476599999922,110.0,101.6665039999998,159.48730499999965,111.2822270000006,105.89746099999957,120.89746099999957,116.6665039999998,118.3334960000002,119.10253900000043,101.79492200000004,101.41015599999992,100.51269500000035,116.79492200000004
235,95.64111300000059,108.58984400000008,101.53857400000015,162.6923829999996,109.74365200000011,106.2822270000006,122.17968800000017,119.35888699999941,117.94873000000007,118.20507799999996,103.20507799999996,102.05126999999993,96.2822270000006,118.58984400000008
236,90.64111300000059,101.9228520000006,97.69238299999961,161.41015599999992,105.38476599999922,108.58984400000008,120.0,117.94873000000007,112.94873000000007,110.64111300000059,102.30761700000039,101.15380900000036,89.48730499999965,119.87158199999976
237,83.20507799999996,91.6665039999998,92.30761700000039,154.61523400000078,97.43603499999972,111.0258789999998,115.12841800000024,112.43603499999972,105.12841800000024,98.46142599999985,98.84619099999964,98.9741210000002,82.17968800000017,119.74365200000011
238,78.9741210000002,83.3334960000002,88.9741210000002,146.41015599999992,89.10253900000043,111.41015599999992,110.25634799999989,106.15380900000036,99.10253900000043,87.82031300000017,96.15380900000036,97.05126999999993,78.7177729999994,118.0771479999994
239,82.56396500000028,82.17968800000017,90.76904300000024,143.58984400000008,86.0258789999998,109.74365200000011,108.7177729999994,103.0771479999994,98.58984400000008,85.51269500000035,97.56396500000028,97.17968800000017,82.30761700000039,115.89746099999957
240,92.69238299999961,88.84619099999964,97.30761700000039,148.7177729999994,91.41015599999992,107.94873000000007,111.41015599999992,104.61523400000078,103.84619099999964,93.3334960000002,103.7177729999994,99.87158199999976,92.94873000000007,113.9741210000002
241,103.0771479999994,98.46142599999985,104.61523400000078,158.84619099999964,101.79492200000004,107.94873000000007,116.41015599999992,108.46142599999985,110.89746099999957,106.15380900000036,110.89746099999957,103.46142599999985,106.15380900000036,112.30761700000039
242,107.43603499999972,105.25634799999989,107.56396500000028,167.94873000000007,110.64111300000059,109.35888699999941,120.12841800000024,111.0258789999998,115.0,115.89746099999957,114.35888699999941,105.76904300000024,114.61523400000078,110.64111300000059
243,103.84619099999964,106.2822270000006,104.23095699999976,171.2822270000006,112.30761700000039,110.38476599999922,120.0,109.87158199999976,113.3334960000002,116.41015599999992,111.53857400000015,105.64111300000059,113.9741210000002,109.61523400000078
244,96.0258789999998,103.58984400000008,97.82031300000017,168.3334960000002,107.17968800000017,109.87158199999976,116.2822270000006,105.51269500000035,106.79492200000004,108.7177729999994,104.74365200000011,103.46142599999985,105.89746099999957,110.12841800000024
245,89.61523400000078,100.76904300000024,92.43603499999972,162.56396500000028,100.25634799999989,108.46142599999985,110.76904300000024,100.76904300000024,99.35888699999941,98.3334960000002,98.3334960000002,100.76904300000024,95.89746099999957,112.30761700000039
246,88.20507799999996,100.51269500000035,90.89746099999957,158.3334960000002,96.79492200000004,107.82031300000017,106.15380900000036,98.58984400000008,95.51269500000035,91.79492200000004,95.51269500000035,99.23095699999976,89.74365200000011,115.12841800000024
247,90.89746099999957,102.56396500000028,92.69238299999961,158.20507799999996,98.7177729999994,108.7177729999994,105.12841800000024,100.0,97.69238299999961,92.82031300000017,96.79492200000004,99.23095699999976,89.87158199999976,117.17968800000017
248,94.48730499999965,104.74365200000011,95.38476599999922,161.0258789999998,103.84619099999964,110.51269500000035,108.0771479999994,103.20507799999996,104.35888699999941,100.0,100.12841800000024,100.25634799999989,95.0,117.94873000000007
249,95.51269500000035,104.87158199999976,96.2822270000006,163.46142599999985,107.56396500000028,111.2822270000006,112.56396500000028,105.25634799999989,111.15380900000036,108.84619099999964,102.43603499999972,101.0258789999998,100.89746099999957,117.69238299999961
250,92.43603499999972,101.9228520000006,94.48730499999965,162.56396500000028,106.9228520000006,110.51269500000035,115.64111300000059,104.35888699999941,113.84619099999964,114.48730499999965,101.6665039999998,100.76904300000024,103.84619099999964,116.6665039999998
251,87.05126999999993,97.05126999999993,91.79492200000004,158.9741210000002,103.0771479999994,109.87158199999976,116.15380900000036,102.17968800000017,111.79492200000004,114.74365200000011,98.58984400000008,99.87158199999976,102.69238299999961,115.51269500000035
252,83.46142599999985,92.94873000000007,90.89746099999957,156.41015599999992,100.0,111.2822270000006,115.89746099999957,102.30761700000039,108.46142599999985,110.76904300000024,96.2822270000006,99.61523400000078,99.61523400000078,114.23095699999976
253,85.51269500000035,92.17968800000017,93.3334960000002,157.6923829999996,100.38476599999922,114.87158199999976,117.30761700000039,106.53857400000015,107.56396500000028,105.25634799999989,97.94873000000007,100.38476599999922,97.94873000000007,113.0771479999994
254,92.82031300000017,95.38476599999922,98.20507799999996,162.94873000000007,103.9741210000002,118.0771479999994,120.76904300000024,113.3334960000002,110.25634799999989,101.41015599999992,103.7177729999994,101.6665039999998,100.0,112.05126999999993
255,101.2822270000006,100.38476599999922,102.56396500000028,169.10253900000043,107.69238299999961,118.3334960000002,124.10253900000043,118.3334960000002,114.10253900000043,100.51269500000035,110.25634799999989,102.43603499999972,105.12841800000024,111.0258789999998
256,106.15380900000036,104.48730499999965,104.35888699999941,172.56396500000028,109.35888699999941,115.38476599999922,124.61523400000078,118.7177729999994,115.89746099999957,102.05126999999993,113.84619099999964,102.56396500000028,110.51269500000035,111.15380900000036
257,106.15380900000036,105.38476599999922,103.84619099999964,171.9228520000006,109.23095699999976,111.15380900000036,121.41015599999992,114.87158199999976,114.10253900000043,104.74365200000011,113.3334960000002,102.94873000000007,112.56396500000028,113.0771479999994
258,103.46142599999985,103.7177729999994,102.69238299999961,168.3334960000002,108.3334960000002,108.20507799999996,116.6665039999998,109.61523400000078,110.25634799999989,107.43603499999972,109.74365200000011,103.9741210000002,109.61523400000078,116.2822270000006
259,100.89746099999957,101.41015599999992,102.30761700000039,164.48730499999965,106.2822270000006,107.82031300000017,112.69238299999961,105.76904300000024,106.53857400000015,108.3334960000002,105.0,104.48730499999965,102.30761700000039,119.74365200000011
260,99.48730499999965,100.51269500000035,102.82031300000017,162.05126999999993,102.94873000000007,109.48730499999965,110.51269500000035,104.35888699999941,104.10253900000043,106.41015599999992,100.51269500000035,103.58984400000008,93.46142599999985,121.6665039999998
261,98.58984400000008,101.15380900000036,103.3334960000002,160.89746099999957,99.74365200000011,111.15380900000036,109.35888699999941,104.48730499999965,103.0771479999994,101.9228520000006,97.30761700000039,101.79492200000004,86.79492200000004,121.15380900000036
262,97.69238299999961,101.79492200000004,103.46142599999985,160.76904300000024,99.23095699999976,111.53857400000015,107.94873000000007,105.25634799999989,103.20507799999996,98.20507799999996,97.30761700000039,100.89746099999957,85.38476599999922,118.7177729999994
263,97.82031300000017,101.0258789999998,103.9741210000002,160.76904300000024,102.30761700000039,111.15380900000036,106.9228520000006,105.64111300000059,104.35888699999941,98.46142599999985,100.89746099999957,102.17968800000017,90.64111300000059,116.41015599999992
264,98.9741210000002,99.23095699999976,105.64111300000059,160.51269500000035,106.53857400000015,111.15380900000036,107.17968800000017,105.25634799999989,106.2822270000006,102.94873000000007,107.30761700000039,105.12841800000024,100.89746099999957,116.41015599999992
265,100.76904300000024,98.58984400000008,107.69238299999961,160.38476599999922,108.7177729999994,111.79492200000004,108.84619099999964,104.23095699999976,108.58984400000008,108.0771479999994,113.20507799999996,108.0771479999994,111.41015599999992,118.3334960000002
266,102.17968800000017,101.53857400000015,108.7177729999994,161.0258789999998,107.17968800000017,112.05126999999993,111.2822270000006,103.0771479999994,110.51269500000035,110.38476599999922,116.2822270000006,109.10253900000043,117.94873000000007,120.38476599999922
267,102.94873000000007,108.58984400000008,107.94873000000007,163.20507799999996,104.35888699999941,111.41015599999992,113.7177729999994,102.69238299999961,111.9228520000006,109.10253900000043,116.41015599999992,107.56396500000028,119.23095699999976,120.12841800000024
268,103.58984400000008,117.17968800000017,107.17968800000017,165.76904300000024,104.10253900000043,110.64111300000059,115.51269500000035,104.10253900000043,112.56396500000028,106.6665039999998,115.51269500000035,104.61523400000078,117.30761700000039,117.43603499999972
269,104.48730499999965,122.82031300000017,107.82031300000017,167.17968800000017,108.0771479999994,111.41015599999992,116.41015599999992,107.30761700000039,112.94873000000007,106.53857400000015,115.0,103.20507799999996,115.64111300000059,114.23095699999976
270,105.38476599999922,122.30761700000039,109.74365200000011,166.2822270000006,113.7177729999994,113.84619099999964,116.53857400000015,110.89746099999957,113.3334960000002,109.87158199999976,115.25634799999989,104.61523400000078,115.38476599999922,113.0771479999994
271,104.74365200000011,116.0258789999998,110.25634799999989,163.20507799999996,116.9228520000006,116.15380900000036,115.12841800000024,112.43603499999972,113.20507799999996,114.48730499999965,115.38476599999922,106.9228520000006,115.51269500000035,114.61523400000078
272,101.15380900000036,106.9228520000006,106.9228520000006,158.46142599999985,114.87158199999976,116.0258789999998,110.76904300000024,110.25634799999989,111.15380900000036,115.64111300000059,113.58984400000008,106.41015599999992,113.58984400000008,117.69238299999961
273,94.87158199999976,99.48730499999965,100.12841800000024,152.82031300000017,108.20507799999996,113.46142599999985,103.9741210000002,105.25634799999989,106.79492200000004,110.25634799999989,108.84619099999964,101.15380900000036,109.35888699999941,120.0
274,88.46142599999985,96.6665039999998,92.82031300000017,148.58984400000008,101.2822270000006,110.12841800000024,98.3334960000002,100.89746099999957,102.56396500000028,101.2822270000006,101.9228520000006,93.46142599999985,104.61523400000078,120.0
275,85.38476599999922,97.82031300000017,89.35888699999941,147.43603499999972,97.69238299999961,108.84619099999964,97.94873000000007,100.25634799999989,101.6665039999998,95.12841800000024,95.25634799999989,87.82031300000017,102.30761700000039,117.56396500000028
276,86.41015599999992,98.58984400000008,91.15380900000036,148.58984400000008,97.30761700000039,110.51269500000035,102.56396500000028,103.20507799999996,104.35888699999941,96.15380900000036,91.41015599999992,87.69238299999961,102.82031300000017,114.61523400000078
277,89.23095699999976,95.12841800000024,96.15380900000036,148.58984400000008,96.6665039999998,113.3334960000002,107.69238299999961,106.2822270000006,107.17968800000017,101.53857400000015,90.76904300000024,92.30761700000039,103.84619099999964,113.0771479999994
278,90.12841800000024,88.0771479999994,100.12841800000024,145.89746099999957,93.58984400000008,114.61523400000078,108.84619099999964,106.2822270000006,106.79492200000004,104.87158199999976,91.9228520000006,98.20507799999996,102.56396500000028,113.9741210000002
279,87.94873000000007,82.82031300000017,100.89746099999957,142.56396500000028,90.38476599999922,113.20507799999996,105.89746099999957,103.7177729999994,103.20507799999996,101.79492200000004,93.9741210000002,101.9228520000006,98.84619099999964,115.76904300000024
280,85.89746099999957,84.87158199999976,99.35888699999941,143.58984400000008,91.79492200000004,111.0258789999998,102.69238299999961,101.9228520000006,100.76904300000024,93.84619099999964,96.79492200000004,102.56396500000028,95.89746099999957,116.6665039999998
281,87.82031300000017,93.58984400000008,98.58984400000008,150.38476599999922,99.74365200000011,110.64111300000059,103.3334960000002,103.58984400000008,102.82031300000017,87.82031300000017,100.38476599999922,101.6665039999998,96.53857400000015,115.64111300000059
282,94.23095699999976,102.82031300000017,100.25634799999989,159.23095699999976,109.87158199999976,112.94873000000007,108.20507799999996,107.82031300000017,108.58984400000008,88.7177729999994,103.84619099999964,101.0258789999998,100.38476599999922,113.46142599999985
283,101.6665039999998,105.64111300000059,102.94873000000007,163.3334960000002,114.48730499999965,116.41015599999992,112.94873000000007,110.51269500000035,113.20507799999996,96.15380900000036,105.89746099999957,101.15380900000036,104.23095699999976,111.6665039999998
284,104.61523400000078,99.48730499999965,103.46142599999985,159.3588869999994,110.12841800000024,118.46142599999985,113.0771479999994,108.84619099999964,112.56396500000028,104.35888699999941,105.64111300000059,101.15380900000036,104.35888699999941,111.53857400000015
285,100.76904300000024,88.3334960000002,100.89746099999957,150.2563479999999,100.38476599999922,118.0771479999994,108.0771479999994,103.7177729999994,106.41015599999992,107.94873000000007,103.58984400000008,100.51269500000035,100.0,113.3334960000002
286,93.0771479999994,79.35888699999941,97.56396500000028,143.20507799999996,93.46142599999985,115.76904300000024,101.79492200000004,99.10253900000043,99.23095699999976,105.38476599999922,100.64111300000059,99.48730499999965,93.84619099999964,116.41015599999992
287,87.17968800000017,77.82031300000017,96.6665039999998,144.3588869999994,94.48730499999965,113.20507799999996,99.48730499999965,97.94873000000007,95.51269500000035,99.10253900000043,98.0771479999994,98.84619099999964,89.61523400000078,118.7177729999994
288,86.2822270000006,83.84619099999964,99.35888699999941,152.82031300000017,101.53857400000015,111.53857400000015,102.56396500000028,99.61523400000078,96.15380900000036,92.69238299999961,95.89746099999957,99.48730499999965,89.10253900000043,118.84619099999964
289,88.7177729999994,91.6665039999998,102.69238299999961,161.41015599999992,106.41015599999992,111.2822270000006,107.17968800000017,100.38476599999922,97.69238299999961,86.53857400000015,92.94873000000007,101.0258789999998,90.64111300000059,117.05126999999993
290,89.87158199999976,94.10253900000043,102.56396500000028,161.53857400000015,102.17968800000017,111.53857400000015,107.94873000000007,97.05126999999993,95.38476599999922,78.7177729999994,87.94873000000007,101.9228520000006,90.12841800000024,115.0
291,87.30761700000039,89.10253900000043,97.05126999999993,151.0258789999998,89.48730499999965,111.6665039999998,103.20507799999996,90.64111300000059,88.46142599999985,69.10253900000043,81.9228520000006,100.76904300000024,86.0258789999998,114.35888699999941
292,83.58984400000008,80.76904300000024,89.61523400000078,137.05126999999993,77.05126999999993,111.79492200000004,97.43603499999972,86.53857400000015,81.2822270000006,61.53857400000015,78.0771479999994,98.3334960000002,80.89746099999957,115.25634799999989
293,83.20507799999996,76.53857400000015,85.0,130.51269500000035,74.87158199999976,112.56396500000028,97.05126999999993,88.7177729999994,80.12841800000024,62.30761700000039,79.61523400000078,96.9228520000006,79.10253900000043,116.2822270000006
294,88.3334960000002,80.51269500000035,86.53857400000015,136.79492200000004,86.41015599999992,114.48730499999965,104.23095699999976,96.9228520000006,87.17968800000017,72.94873000000007,86.15380900000036,97.82031300000017,82.94873000000007,116.41015599999992
295,96.53857400000015,90.12841800000024,93.3334960000002,151.53857400000015,105.89746099999957,116.53857400000015,114.23095699999976,106.0258789999998,98.84619099999964,88.20507799999996,93.84619099999964,100.51269500000035,90.64111300000059,115.12841800000024
296,103.0771479999994,98.58984400000008,100.89746099999957,164.10253900000043,122.56396500000028,117.56396500000028,120.0,111.0258789999998,108.3334960000002,99.35888699999941,98.9741210000002,103.20507799999996,97.56396500000028,113.0771479999994
297,105.12841800000024,100.89746099999957,104.61523400000078,166.53857400000015,127.56396500000028,117.17968800000017,118.0771479999994,110.0,111.2822270000006,101.6665039999998,100.0,103.9741210000002,99.61523400000078,111.53857400000015
298,103.0771479999994,95.89746099999957,102.17968800000017,158.46142599999985,119.74365200000011,115.89746099999957,110.64111300000059,105.51269500000035,108.0771479999994,97.05126999999993,97.69238299999961,102.05126999999993,95.38476599999922,111.6665039999998
299,99.23095699999976,87.30761700000039,95.38476599999922,146.2822270000006,105.0,114.61523400000078,102.69238299999961,100.89746099999957,102.56396500000028,90.89746099999957,93.84619099999964,98.3334960000002,87.43603499999972,113.7177729999994
300,96.9228520000006,80.38476599999922,88.7177729999994,138.3334960000002,92.69238299999961,113.58984400000008,97.82031300000017,98.9741210000002,98.7177729999994,88.7177729999994,90.38476599999922,94.61523400000078,81.15380900000036,116.15380900000036
301,97.69238299999961,79.10253900000043,86.15380900000036,138.3334960000002,89.35888699999941,112.94873000000007,96.6665039999998,99.87158199999976,98.58984400000008,91.79492200000004,89.35888699999941,92.43603499999972,81.0258789999998,116.9228520000006
302,100.12841800000024,83.3334960000002,88.0771479999994,144.23095699999976,94.48730499999965,112.94873000000007,97.30761700000039,102.17968800000017,101.53857400000015,97.30761700000039,90.76904300000024,92.56396500000028,87.43603499999972,115.64111300000059
303,101.41015599999992,88.46142599999985,92.43603499999972,150.12841800000024,101.6665039999998,113.58984400000008,97.30761700000039,103.3334960000002,104.10253900000043,100.51269500000035,93.58984400000008,94.61523400000078,96.41015599999992,113.7177729999994
304,100.12841800000024,89.87158199999976,96.2822270000006,151.41015599999992,104.10253900000043,114.23095699999976,96.0258789999998,102.30761700000039,103.9741210000002,98.9741210000002,96.15380900000036,97.05126999999993,102.69238299999961,112.69238299999961
305,98.46142599999985,86.79492200000004,98.9741210000002,149.10253900000043,101.41015599999992,113.9741210000002,95.64111300000059,100.38476599999922,101.79492200000004,95.38476599999922,99.10253900000043,98.84619099999964,104.48730499999965,112.69238299999961
306,100.38476599999922,84.10253900000043,101.41015599999992,147.3076170000004,98.3334960000002,113.46142599999985,98.3334960000002,100.38476599999922,101.41015599999992,95.38476599999922,104.61523400000078,100.51269500000035,105.25634799999989,112.94873000000007
307,108.0771479999994,87.43603499999972,105.25634799999989,150.38476599999922,100.76904300000024,113.9741210000002,104.74365200000011,104.48730499999965,106.2822270000006,102.05126999999993,113.84619099999964,102.82031300000017,109.23095699999976,113.20507799999996
308,119.23095699999976,98.9741210000002,110.76904300000024,158.0771479999994,110.12841800000024,115.89746099999957,112.56396500000028,112.30761700000039,116.0258789999998,113.0771479999994,124.74365200000011,106.53857400000015,118.20507799999996,113.3334960000002
309,128.20507799999996,114.61523400000078,116.41015599999992,167.05126999999993,122.43603499999972,118.46142599999985,118.20507799999996,120.25634799999989,126.0258789999998,122.94873000000007,132.56396500000028,111.0258789999998,129.23095699999976,113.20507799999996
310,131.0258789999998,126.9228520000006,120.0,172.94873000000007,131.15380900000036,119.74365200000011,119.35888699999941,123.58984400000008,130.51269500000035,127.05126999999993,133.3334960000002,114.48730499999965,136.6665039999998,112.56396500000028
311,128.0771479999994,131.0258789999998,120.89746099999957,174.10253900000043,131.53857400000015,118.46142599999985,116.9228520000006,120.25634799999989,126.9228520000006,125.12841800000024,127.69238299999961,115.25634799999989,136.6665039999998,111.6665039999998
312,122.43603499999972,126.9228520000006,119.61523400000078,172.17968800000017,123.58984400000008,114.87158199999976,113.0771479999994,111.53857400000015,117.43603499999972,120.12841800000024,120.0,113.0771479999994,130.0,111.41015599999992
313,117.69238299999961,118.58984400000008,117.05126999999993,169.23095699999976,112.43603499999972,111.0258789999998,109.61523400000078,101.9228520000006,107.05126999999993,114.87158199999976,115.0,109.10253900000043,120.64111300000059,112.82031300000017
314,114.74365200000011,110.25634799999989,114.35888699999941,167.05126999999993,103.9741210000002,108.9741210000002,106.79492200000004,95.64111300000059,99.87158199999976,110.38476599999922,114.10253900000043,104.74365200000011,113.58984400000008,115.64111300000059
315,113.0771479999994,105.25634799999989,112.17968800000017,166.15380900000036,102.94873000000007,109.48730499999965,104.87158199999976,94.74365200000011,97.69238299999961,106.79492200000004,115.51269500000035,101.79492200000004,111.9228520000006,118.58984400000008
316,111.6665039999998,104.23095699999976,110.38476599999922,166.79492200000004,108.84619099999964,112.17968800000017,104.35888699999941,98.0771479999994,99.35888699999941,105.25634799999989,116.41015599999992,100.89746099999957,114.74365200000011,120.38476599999922
317,109.87158199999976,106.2822270000006,108.58984400000008,168.0771479999994,117.05126999999993,115.25634799999989,105.51269500000035,102.30761700000039,102.17968800000017,106.41015599999992,114.35888699999941,101.2822270000006,118.46142599999985,120.0
318,107.43603499999972,109.23095699999976,106.2822270000006,168.0771479999994,121.15380900000036,116.9228520000006,107.30761700000039,104.48730499999965,103.7177729999994,108.84619099999964,109.23095699999976,101.41015599999992,119.10253900000043,117.56396500000028
319,105.12841800000024,111.2822270000006,104.23095699999976,165.76904300000024,118.58984400000008,116.2822270000006,108.20507799999996,103.84619099999964,103.20507799999996,109.61523400000078,103.0771479999994,101.0258789999998,115.38476599999922,114.48730499999965
320,103.58984400000008,111.2822270000006,102.94873000000007,162.3076170000004,112.05126999999993,113.9741210000002,107.82031300000017,101.9228520000006,101.0258789999998,106.79492200000004,99.10253900000043,100.51269500000035,109.10253900000043,112.30761700000039
321,102.56396500000028,108.0771479999994,101.79492200000004,159.3588869999994,105.38476599999922,111.53857400000015,105.89746099999957,100.0,98.0771479999994,100.89746099999957,98.20507799999996,100.38476599999922,103.20507799999996,112.05126999999993
322,100.25634799999989,102.05126999999993,100.12841800000024,158.20507799999996,100.38476599999922,110.25634799999989,103.46142599999985,98.3334960000002,95.25634799999989,93.58984400000008,98.7177729999994,100.12841800000024,99.10253900000043,113.0771479999994
323,96.53857400000015,95.76904300000024,97.69238299999961,158.9741210000002,97.05126999999993,110.76904300000024,102.17968800000017,97.30761700000039,93.46142599999985,87.56396500000028,98.0771479999994,99.10253900000043,96.6665039999998,114.23095699999976
324,93.7177729999994,93.58984400000008,96.2822270000006,161.6665039999998,95.25634799999989,112.43603499999972,103.3334960000002,98.3334960000002,94.74365200000011,86.41015599999992,96.15380900000036,97.69238299999961,95.76904300000024,114.48730499999965
325,94.23095699999976,97.69238299999961,96.9228520000006,165.12841800000024,96.0258789999998,114.48730499999965,106.0258789999998,102.17968800000017,100.38476599999922,92.17968800000017,94.74365200000011,97.05126999999993,96.6665039999998,113.3334960000002
326,97.94873000000007,105.51269500000035,98.3334960000002,167.56396500000028,99.61523400000078,115.64111300000059,107.43603499999972,107.69238299999961,109.10253900000043,102.56396500000028,95.89746099999957,96.9228520000006,98.9741210000002,112.17968800000017
327,101.41015599999992,111.2822270000006,99.10253900000043,167.05126999999993,104.61523400000078,115.64111300000059,105.76904300000024,111.79492200000004,116.79492200000004,111.9228520000006,99.74365200000011,97.05126999999993,101.9228520000006,112.43603499999972
328,101.6665039999998,110.76904300000024,98.7177729999994,165.0,109.23095699999976,114.87158199999976,101.9228520000006,113.3334960000002,119.74365200000011,116.2822270000006,104.87158199999976,97.17968800000017,104.74365200000011,114.74365200000011
329,99.23095699999976,104.87158199999976,98.20507799999996,164.23095699999976,112.56396500000028,114.61523400000078,99.61523400000078,113.9741210000002,117.94873000000007,116.15380900000036,109.48730499999965,98.20507799999996,107.69238299999961,117.69238299999961
330,97.30761700000039,99.48730499999965,99.35888699999941,166.79492200000004,115.0,115.12841800000024,101.2822270000006,116.15380900000036,115.12841800000024,115.89746099999957,113.0771479999994,100.38476599999922,111.6665039999998,119.23095699999976
331,98.84619099999964,100.38476599999922,103.46142599999985,172.05126999999993,117.30761700000039,115.38476599999922,106.79492200000004,120.76904300000024,115.51269500000035,119.23095699999976,116.41015599999992,103.3334960000002,117.05126999999993,118.46142599999985
332,103.9741210000002,109.10253900000043,109.74365200000011,177.94873000000007,119.61523400000078,114.48730499999965,113.58984400000008,125.76904300000024,120.12841800000024,126.0258789999998,120.64111300000059,106.2822270000006,123.3334960000002,116.79492200000004
333,110.25634799999989,120.76904300000024,115.64111300000059,182.05126999999993,120.64111300000059,112.82031300000017,118.7177729999994,127.82031300000017,126.15380900000036,132.3076170000004,125.38476599999922,108.58984400000008,128.20507799999996,116.0258789999998
334,115.0,128.0771479999994,118.20507799999996,183.20507799999996,118.84619099999964,110.76904300000024,120.25634799999989,125.0,129.23095699999976,133.84619099999964,128.9741210000002,110.12841800000024,130.38476599999922,116.2822270000006
335,117.05126999999993,128.0771479999994,117.56396500000028,181.53857400000015,114.10253900000043,109.23095699999976,118.20507799999996,119.48730499999965,127.82031300000017,130.51269500000035,130.0,111.15380900000036,130.2563479999999,117.05126999999993
336,117.69238299999961,123.58984400000008,116.15380900000036,178.84619099999964,108.58984400000008,108.46142599999985,113.9741210000002,115.25634799999989,123.7177729999994,126.9228520000006,128.84619099999964,112.05126999999993,130.2563479999999,117.30761700000039
337,118.0771479999994,120.0,116.15380900000036,177.56396500000028,105.51269500000035,108.46142599999985,110.25634799999989,115.0,120.12841800000024,127.43603499999972,126.9228520000006,112.82031300000017,132.05126999999993,116.6665039999998
338,118.0771479999994,119.23095699999976,117.30761700000039,179.23095699999976,106.79492200000004,108.46142599999985,107.94873000000007,116.41015599999992,117.56396500000028,131.0258789999998,124.10253900000043,112.56396500000028,133.84619099999964,114.87158199999976
339,116.0258789999998,119.35888699999941,117.05126999999993,182.82031300000017,111.6665039999998,108.3334960000002,106.53857400000015,115.0,113.7177729999994,131.9228520000006,119.23095699999976,109.87158199999976,131.41015599999992,112.69238299999961
340,110.76904300000024,116.53857400000015,113.20507799999996,185.12841800000024,116.41015599999992,108.58984400000008,104.48730499999965,107.56396500000028,106.6665039999998,124.87158199999976,111.79492200000004,105.25634799999989,122.30761700000039,111.41015599999992
341,103.3334960000002,110.51269500000035,106.79492200000004,183.20507799999996,117.56396500000028,110.12841800000024,101.79492200000004,96.41015599999992,96.9228520000006,110.0,103.58984400000008,100.25634799999989,109.74365200000011,111.9228520000006
342,97.05126999999993,104.35888699999941,100.76904300000024,176.9228520000006,115.38476599999922,112.43603499999972,99.87158199999976,86.79492200000004,88.20507799999996,93.84619099999964,97.82031300000017,97.05126999999993,100.0,113.84619099999964
343,95.12841800000024,101.9228520000006,97.43603499999972,168.84619099999964,113.20507799999996,114.48730499999965,100.12841800000024,84.10253900000043,83.7177729999994,85.51269500000035,96.79492200000004,96.6665039999998,98.46142599999985,115.38476599999922
344,97.94873000000007,104.35888699999941,97.43603499999972,162.6923829999996,114.10253900000043,115.25634799999989,102.94873000000007,88.84619099999964,84.61523400000078,88.84619099999964,99.74365200000011,98.3334960000002,104.48730499999965,115.25634799999989
345,102.56396500000028,108.58984400000008,98.7177729999994,160.2563479999999,117.05126999999993,115.25634799999989,106.79492200000004,96.6665039999998,88.9741210000002,99.35888699999941,102.82031300000017,100.64111300000059,111.9228520000006,113.7177729999994
346,104.61523400000078,110.51269500000035,99.74365200000011,161.15380900000036,117.82031300000017,115.12841800000024,110.38476599999922,102.05126999999993,93.0771479999994,107.30761700000039,103.0771479999994,101.9228520000006,113.84619099999964,112.05126999999993
347,102.30761700000039,108.58984400000008,100.12841800000024,163.20507799999996,113.46142599999985,115.12841800000024,112.69238299999961,102.56396500000028,94.48730499999965,105.51269500000035,99.35888699999941,101.2822270000006,107.56396500000028,111.0258789999998
348,97.82031300000017,104.87158199999976,100.89746099999957,165.51269500000035,106.15380900000036,115.51269500000035,113.84619099999964,100.0,93.58984400000008,95.25634799999989,94.23095699999976,99.48730499999965,97.69238299999961,110.12841800000024
349,96.0258789999998,103.58984400000008,103.20507799999996,168.7177729999994,101.6665039999998,116.15380900000036,114.10253900000043,98.58984400000008,93.7177729999994,85.64111300000059,91.9228520000006,98.7177729999994,92.56396500000028,109.35888699999941
350,99.74365200000011,107.56396500000028,106.9228520000006,173.46142599999985,104.10253900000043,116.79492200000004,114.23095699999976,101.0258789999998,97.69238299999961,85.38476599999922,95.89746099999957,100.64111300000059,97.56396500000028,109.74365200000011
351,107.82031300000017,115.0,109.74365200000011,178.3334960000002,111.53857400000015,116.79492200000004,114.48730499999965,107.17968800000017,105.12841800000024,96.41015599999992,105.25634799999989,104.23095699999976,110.12841800000024,111.41015599999992
352,115.76904300000024,120.25634799999989,108.9741210000002,180.51269500000035,117.30761700000039,116.41015599999992,114.48730499999965,114.10253900000043,112.43603499999972,111.79492200000004,114.61523400000078,107.05126999999993,121.0258789999998,113.58984400000008
353,119.23095699999976,119.61523400000078,104.35888699999941,178.0771479999994,117.05126999999993,115.89746099999957,113.7177729999994,118.46142599999985,115.76904300000024,121.79492200000004,118.20507799999996,107.30761700000039,123.46142599999985,115.12841800000024
354,118.0771479999994,115.12841800000024,99.48730499999965,172.3076170000004,113.3334960000002,115.64111300000059,112.69238299999961,119.48730499999965,115.38476599999922,122.69238299999961,115.38476599999922,105.64111300000059,118.58984400000008,114.87158199999976
355,116.0258789999998,113.46142599999985,99.10253900000043,167.56396500000028,112.56396500000028,115.64111300000059,112.82031300000017,119.48730499999965,114.48730499999965,118.20507799999996,111.41015599999992,104.10253900000043,114.10253900000043,112.82031300000017
356,116.53857400000015,118.58984400000008,104.61523400000078,167.56396500000028,118.3334960000002,115.51269500000035,115.0,120.64111300000059,115.76904300000024,114.61523400000078,111.9228520000006,104.87158199999976,116.0258789999998,110.0
357,119.35888699999941,126.9228520000006,112.43603499999972,172.3076170000004,127.43603499999972,114.74365200000011,117.30761700000039,122.69238299999961,118.84619099999964,114.48730499999965,117.17968800000017,107.69238299999961,124.10253900000043,108.0771479999994
358,120.89746099999957,131.0258789999998,116.9228520000006,177.3076170000004,132.43603499999972,112.69238299999961,116.9228520000006,123.0771479999994,120.76904300000024,115.89746099999957,122.69238299999961,110.25634799999989,131.79492200000004,108.7177729999994
359,117.94873000000007,126.2822270000006,115.0,177.17968800000017,127.82031300000017,109.61523400000078,112.56396500000028,120.12841800000024,119.10253900000043,115.76904300000024,123.20507799999996,110.38476599999922,132.94873000000007,111.41015599999992
360,110.89746099999957,115.12841800000024,108.0771479999994,170.38476599999922,114.48730499999965,107.17968800000017,106.15380900000036,114.10253900000043,113.7177729999994,112.43603499999972,117.17968800000017,107.17968800000017,126.15380900000036,114.35888699999941
361,103.0771479999994,103.46142599999985,100.25634799999989,160.89746099999957,98.9741210000002,106.9228520000006,100.38476599999922,107.30761700000039,106.53857400000015,106.6665039999998,107.30761700000039,101.9228520000006,114.74365200000011,115.51269500000035
362,98.20507799999996,96.79492200000004,95.25634799999989,155.0,89.61523400000078,109.10253900000043,96.6665039999998,101.9228520000006,100.0,100.64111300000059,99.10253900000043,97.43603499999972,104.23095699999976,114.61523400000078
363,98.58984400000008,96.79492200000004,94.74365200000011,156.41015599999992,90.25634799999989,112.30761700000039,94.74365200000011,99.48730499999965,96.2822270000006,96.53857400000015,96.53857400000015,96.0258789999998,99.35888699999941,112.17968800000017
364,104.35888699999941,103.20507799999996,98.46142599999985,164.23095699999976,98.58984400000008,114.74365200000011,95.38476599999922,100.38476599999922,96.79492200000004,95.89746099999957,101.15380900000036,98.84619099999964,101.9228520000006,109.87158199999976
365,113.0771479999994,113.7177729999994,104.23095699999976,174.23095699999976,108.46142599999985,115.38476599999922,99.35888699999941,103.9741210000002,101.15380900000036,98.84619099999964,110.12841800000024,104.48730499999965,109.74365200000011,108.9741210000002
366,120.38476599999922,123.7177729999994,109.23095699999976,181.53857400000015,114.35888699999941,114.87158199999976,106.41015599999992,108.20507799999996,106.0258789999998,103.58984400000008,117.69238299999961,109.87158199999976,117.17968800000017,110.12841800000024
367,122.05126999999993,128.46142599999985,110.38476599999922,182.94873000000007,114.48730499999965,114.35888699999941,112.94873000000007,109.74365200000011,107.43603499999972,106.6665039999998,118.58984400000008,111.79492200000004,119.10253900000043,112.43603499999972
368,116.6665039999998,126.41015599999992,107.69238299999961,179.10253900000043,111.6665039999998,114.74365200000011,115.12841800000024,107.17968800000017,104.23095699999976,105.76904300000024,111.6665039999998,109.48730499999965,114.61523400000078,114.35888699999941
369,108.58984400000008,121.15380900000036,103.9741210000002,173.9741210000002,109.74365200000011,115.51269500000035,112.05126999999993,102.43603499999972,99.35888699999941,102.05126999999993,101.41015599999992,105.0,107.94873000000007,114.74365200000011
370,104.10253900000043,117.69238299999961,103.58984400000008,173.0771479999994,111.15380900000036,116.0258789999998,107.56396500000028,99.61523400000078,97.30761700000039,99.23095699999976,95.76904300000024,101.41015599999992,105.12841800000024,113.46142599999985
371,106.53857400000015,118.46142599999985,108.20507799999996,178.0771479999994,114.61523400000078,116.2822270000006,106.15380900000036,101.41015599999992,100.76904300000024,100.51269500000035,98.7177729999994,100.64111300000059,108.7177729999994,111.9228520000006
372,112.94873000000007,122.05126999999993,114.74365200000011,186.0258789999998,117.94873000000007,116.53857400000015,109.10253900000043,106.79492200000004,107.43603499999972,105.76904300000024,107.43603499999972,102.82031300000017,116.0258789999998,110.89746099999957
373,117.05126999999993,124.87158199999976,118.46142599999985,191.15380900000036,119.48730499999965,116.2822270000006,113.7177729999994,112.30761700000039,112.94873000000007,111.6665039999998,114.35888699999941,105.64111300000059,121.0258789999998,111.2822270000006
374,114.48730499999965,124.48730499999965,116.79492200000004,189.61523400000078,119.74365200000011,115.12841800000024,116.15380900000036,114.74365200000011,113.58984400000008,114.35888699999941,113.58984400000008,106.9228520000006,119.48730499999965,112.82031300000017
375,105.89746099999957,120.51269500000035,110.51269500000035,182.3076170000004,118.9741210000002,112.94873000000007,114.61523400000078,112.69238299999961,109.10253900000043,111.53857400000015,105.25634799999989,105.25634799999989,111.53857400000015,114.74365200000011
376,96.15380900000036,115.38476599999922,103.0771479999994,174.23095699999976,116.9228520000006,110.38476599999922,110.51269500000035,106.9228520000006,102.69238299999961,104.10253900000043,94.48730499999965,101.6665039999998,102.17968800000017,116.0258789999998
377,91.0258789999998,112.69238299999961,98.46142599999985,170.2563479999999,113.7177729999994,108.58984400000008,106.9228520000006,100.64111300000059,97.94873000000007,96.2822270000006,87.56396500000028,98.20507799999996,97.17968800000017,115.64111300000059
378,92.69238299999961,113.9741210000002,98.9741210000002,171.53857400000015,109.35888699999941,108.0771479999994,106.15380900000036,97.30761700000039,96.9228520000006,93.0771479999994,87.43603499999972,97.05126999999993,99.35888699999941,113.9741210000002
379,98.3334960000002,116.79492200000004,103.3334960000002,175.38476599999922,104.87158199999976,108.58984400000008,107.69238299999961,98.46142599999985,98.7177729999994,96.0258789999998,92.69238299999961,98.20507799999996,106.2822270000006,112.30761700000039
380,103.3334960000002,117.56396500000028,107.94873000000007,178.0771479999994,101.2822270000006,108.58984400000008,108.46142599999985,102.82031300000017,100.89746099999957,102.30761700000039,99.48730499999965,100.25634799999989,113.20507799999996,111.9228520000006
381,105.0,115.25634799999989,110.0,178.0771479999994,100.76904300000024,107.82031300000017,106.9228520000006,107.69238299999961,102.30761700000039,108.20507799999996,104.61523400000078,102.05126999999993,116.79492200000004,112.56396500000028
382,105.51269500000035,113.58984400000008,110.12841800000024,178.20507799999996,105.38476599999922,107.30761700000039,104.61523400000078,111.6665039999998,104.35888699999941,112.94873000000007,108.20507799999996,103.9741210000002,118.58984400000008,113.58984400000008
383,108.84619099999964,118.3334960000002,111.53857400000015,182.17968800000017,115.64111300000059,108.9741210000002,105.25634799999989,114.61523400000078,109.10253900000043,117.05126999999993,112.17968800000017,107.43603499999972,122.17968800000017,114.23095699999976
