,EEG.AF3,EEG.F7,EEG.F3,EEG.FC5,EEG.T7,EEG.P7,EEG.O1,EEG.O2,EEG.P8,EEG.T8,EEG.FC6,EEG.F4,EEG.F8,EEG.AF4
0,185.38476599999922,183.46142599999985,180.2563479999999,164.3588869999994,101.15380900000036,119.10253900000043,197.3076170000004,188.0771479999994,155.0,77.05126999999993,154.23095699999976,152.17968800000017,96.0258789999998,171.53857400000015
1,193.84619099999964,203.7177729999994,184.7436520000001,166.6665039999998,117.69238299999961,122.30761700000039,194.3588869999994,192.3076170000004,160.2563479999999,121.53857400000015,149.23095699999976,153.7177729999994,119.35888699999941,181.6665039999998
2,181.41015599999992,203.84619099999964,174.10253900000043,155.0,119.61523400000078,121.15380900000036,168.20507799999996,173.84619099999964,144.10253900000043,127.94873000000007,144.3588869999994,147.17968800000017,123.7177729999994,174.48730499999965
3,155.0,178.20507799999996,155.76904300000024,135.6411130000006,99.87158199999976,114.35888699999941,137.56396500000028,143.20507799999996,115.76904300000024,92.56396500000028,141.6665039999998,136.15380900000036,103.3334960000002,152.82031300000017
4,131.79492200000004,145.0,142.3076170000004,121.2822270000006,80.64111300000059,104.87158199999976,122.43603499999972,119.23095699999976,96.9228520000006,48.589844000000085,139.87158199999976,127.56396500000028,75.25634799999989,131.0258789999998
5,126.53857400000015,132.3076170000004,141.41015599999992,118.84619099999964,92.56396500000028,97.82031300000017,128.84619099999964,114.87158199999976,103.9741210000002,35.897460999999566,133.9741210000002,124.61523400000078,63.0771479999994,123.84619099999964
6,137.94873000000007,151.6665039999998,148.7177729999994,120.76904300000024,139.87158199999976,96.9228520000006,144.48730499999965,126.2822270000006,132.43603499999972,62.30761700000039,117.43603499999972,125.38476599999922,73.9741210000002,132.43603499999972
7,148.7177729999994,184.3588869999994,151.79492200000004,110.0,188.46142599999985,101.41015599999992,149.87158199999976,136.53857400000015,156.2822270000006,96.0258789999998,87.17968800000017,123.58984400000008,89.48730499999965,141.9228520000006
8,139.23095699999976,195.2563479999999,139.61523400000078,74.48730499999965,193.3334960000002,106.6665039999998,131.53857400000015,127.69238299999961,147.56396500000028,97.94873000000007,45.0,113.84619099999964,81.79492200000004,133.3334960000002
9,102.69238299999961,163.84619099999964,110.12841800000024,18.333496000000196,140.6411130000006,107.94873000000007,90.38476599999922,93.7177729999994,99.10253900000043,59.23095699999976,-3.5898440000000846,95.12841800000024,38.7177729999994,98.3334960000002
10,51.53857400000015,101.79492200000004,72.43603499999972,-39.74365200000011,60.0,103.46142599999985,41.410155999999915,45.25634799999989,33.589844000000085,8.589844000000085,-50.38452099999995,71.79492200000004,-23.71801800000003,48.20507799999996
11,8.205077999999958,43.46142599999985,41.153809000000365,-81.02563499999997,-0.38476599999921746,95.25634799999989,4.743652000000111,2.8203130000001693,-13.974365000000034,-16.153809000000365,-86.41015600000037,51.666503999999804,-74.10253899999998,5.512695000000349
12,-12.307617000000391,17.30761700000039,24.74365200000011,-101.79492200000004,-13.333252000000357,86.53857400000015,-8.076904000000013,-18.58984399999963,-24.74365200000011,-2.3076170000003913,-107.56420900000057,40.25634799999989,-91.53857400000015,-15.0
13,-16.153809000000365,22.05126999999993,18.333496000000196,-115.51293900000019,7.179688000000169,78.84619099999964,-5.512939000000188,-22.30761700000039,-11.923095999999987,28.205077999999958,-121.28198199999997,34.74365200000011,-83.71801800000003,-19.230713000000378
14,-25.89746100000002,28.205077999999958,7.179688000000169,-141.15380900000036,18.974121000000196,71.53857400000015,-9.61547900000005,-28.58984399999963,-9.358886999999868,36.410155999999915,-143.076904,25.897460999999566,-81.41015600000037,-30.0
15,-58.71801800000003,2.9487300000000687,-18.461425999999847,-185.38452099999995,-14.61547900000005,63.7177729999994,-35.0,-55.76928699999962,-41.53857400000015,-2.4360349999997197,-184.4870609999998,7.692382999999609,-112.94872999999961,-65.64111300000013
16,-109.61547900000005,-61.025634999999966,-52.435790999999426,-236.66674799999964,-93.58984399999963,56.53857400000015,-73.58984399999963,-100.64111300000013,-102.94872999999961,-80.1281740000004,-240.5129390000002,-15.769286999999622,-179.23071300000038,-121.92309599999999
17,-154.61547900000005,-136.923096,-77.82055700000001,-277.179443,-179.23071300000038,53.20507799999996,-102.05127000000039,-140.76928699999962,-163.58984399999963,-160.38452099999995,-293.20507799999996,-33.07690400000001,-252.3076170000004,-174.7436520000001
18,-173.46142599999985,-185.76928699999962,-83.33325200000036,-300.2563479999999,-223.076904,55.25634799999989,-105.51293900000019,-155.38452099999995,-193.46142599999985,-204.7436520000001,-326.28198199999997,-36.28198199999997,-298.076904,-200.2563479999999
19,-166.923096,-188.33325200000036,-74.61547900000005,-315.38452099999995,-207.6923829999996,61.153809000000365,-91.79492200000004,-144.4870609999998,-186.66674799999964,-200.76928699999962,-337.3076170000004,-28.974365000000034,-303.46142599999985,-195.76928699999962
20,-153.71801800000003,-158.33325200000036,-68.07690400000001,-338.84619099999964,-162.56420900000057,67.56396500000028,-82.17944299999999,-127.17944299999999,-163.33325200000036,-166.28198199999997,-336.79492200000004,-22.69238299999961,-283.076904,-179.35888699999987
21,-151.923096,-129.10253899999998,-74.61547900000005,-376.79492200000004,-136.28198199999997,72.05126999999993,-90.25634799999989,-123.58984399999963,-150.0,-130.2563479999999,-336.923096,-26.666747999999643,-262.5642090000006,-172.3076170000004
22,-164.10253899999998,-124.8718259999996,-90.51293900000019,-418.58984399999963,-152.43579099999943,74.61523400000078,-111.15380900000036,-138.076904,-157.179443,-109.10253899999998,-342.3076170000004,-39.35888699999987,-256.66674799999964,-181.66674799999964
23,-178.20507799999996,-143.58984399999963,-101.92309599999999,-443.71801800000003,-191.79492200000004,76.9228520000006,-127.69238299999961,-158.33325200000036,-173.20507799999996,-101.28198199999997,-348.33325200000036,-50.76928699999962,-262.3076170000004,-196.79492200000004
24,-180.76928699999962,-163.97436500000003,-99.35888699999987,-440.5129390000002,-214.35888699999987,79.23095699999976,-127.17944299999999,-168.84619099999964,-178.46142599999985,-97.30761700000039,-350.0,-52.051270000000386,-266.66674799999964,-202.6923829999996
25,-170.89746100000002,-167.9487299999996,-86.28198199999997,-416.28198199999997,-198.84619099999964,80.76904300000024,-111.79492200000004,-164.61547900000005,-165.0,-91.02563499999997,-350.1281740000004,-43.974365000000034,-262.179443,-195.2563479999999
26,-161.53857400000015,-156.53857400000015,-76.53857400000015,-394.102539,-158.97436500000003,80.12841800000024,-97.17944299999999,-155.76928699999962,-143.71801800000003,-85.1281740000004,-359.102539,-37.30761700000039,-254.23071300000038,-185.89746100000002
27,-167.56420900000057,-146.28198199999997,-82.94872999999961,-395.1281740000004,-127.69238299999961,77.05126999999993,-100.38452099999995,-157.0512700000004,-133.97436500000003,-87.05127000000039,-385.0,-42.69238299999961,-255.1281740000004,-190.64111300000013
28,-191.923096,-151.41015600000037,-106.28198199999997,-421.79492200000004,-126.66674799999964,73.20507799999996,-126.15380900000036,-174.4870609999998,-146.15380900000036,-101.53857400000015,-422.820557,-61.41015600000037,-271.41015600000037,-214.23071300000038
29,-222.0512700000004,-171.15380900000036,-133.84619099999964,-456.79492200000004,-152.43579099999943,70.76904300000024,-162.179443,-200.0,-173.33325200000036,-126.02563499999997,-454.61547900000005,-83.07690400000001,-297.6923829999996,-244.4870609999998
30,-241.41015600000037,-193.33325200000036,-149.8718259999996,-479.102539,-184.8718259999996,70.89746099999957,-188.20507799999996,-218.84619099999964,-198.97436500000003,-153.076904,-464.8718259999996,-94.48706099999981,-321.923096,-264.2307130000004
31,-243.84619099999964,-207.0512700000004,-148.46142599999985,-482.3076170000004,-206.53857400000015,72.69238299999961,-191.66674799999964,-222.820557,-210.89746100000002,-175.0,-454.7436520000001,-90.64111300000013,-335.7692869999996,-265.897461
32,-237.56420900000057,-211.41015600000037,-137.9487299999996,-478.46142599999985,-215.64111300000013,73.20507799999996,-177.3076170000004,-216.79492200000004,-209.35888699999987,-189.23071300000038,-442.9487299999996,-79.23071300000038,-340.1281740000004,-257.9487299999996
33,-236.41015600000037,-213.97436500000003,-132.3076170000004,-484.2307130000004,-222.179443,70.25634799999989,-161.66674799999964,-212.3076170000004,-203.58984399999963,-197.43579099999943,-449.4870609999998,-72.82055700000001,-342.179443,-255.76928699999962
34,-245.2563479999999,-220.38452099999995,-138.20507799999996,-504.61547900000005,-233.58984399999963,65.0,-156.923096,-216.28198199999997,-201.923096,-202.179443,-477.4357909999994,-77.56420900000057,-346.41015600000037,-266.02563499999997
35,-255.76928699999962,-227.56420900000057,-149.10253899999998,-527.820557,-244.7436520000001,62.05126999999993,-161.79492200000004,-223.58984399999963,-204.8718259999996,-202.56420900000057,-509.35888699999987,-87.43579099999943,-350.2563479999999,-280.2563479999999
36,-256.15380900000036,-226.53857400000015,-153.58984399999963,-537.4357909999994,-242.6923829999996,65.0,-166.923096,-224.23071300000038,-207.179443,-194.4870609999998,-522.9487299999996,-92.43579099999943,-346.66674799999964,-284.61547900000005
37,-243.84619099999964,-214.10253899999998,-146.923096,-528.205078,-222.43579099999943,72.56396500000028,-167.9487299999996,-215.5129390000002,-204.35888699999987,-176.66674799999964,-509.8718259999996,-88.84619099999964,-333.97436500000003,-274.102539
38,-227.56420900000057,-196.66674799999964,-134.4870609999998,-508.20507799999996,-194.7436520000001,79.87158199999976,-166.79492200000004,-204.61547900000005,-196.66674799999964,-155.5129390000002,-480.2563479999999,-81.15380900000036,-317.820557,-256.15380900000036
39,-215.38452099999995,-183.58984399999963,-122.82055700000001,-488.20507799999996,-177.43579099999943,82.56396500000028,-163.71801800000003,-198.20507799999996,-186.66674799999964,-141.41015600000037,-450.897461,-75.0,-304.7436520000001,-240.5129390000002
40,-208.076904,-177.6923829999996,-114.10253899999998,-472.5642090000006,-180.2563479999999,80.12841800000024,-154.35888699999987,-194.35888699999987,-176.02563499999997,-140.2563479999999,-433.58984399999963,-70.89746100000002,-295.897461,-230.38452099999995
41,-202.3076170000004,-175.64111300000013,-108.07690400000001,-460.38452099999995,-198.84619099999964,75.51269500000035,-137.3076170000004,-187.6923829999996,-167.0512700000004,-149.61547900000005,-431.53857400000015,-66.41015600000037,-288.97436500000003,-223.97436500000003
42,-197.6923829999996,-173.20507799999996,-105.38452099999995,-452.0512700000004,-218.84619099999964,72.43603499999972,-120.89746100000002,-177.9487299999996,-162.43579099999943,-162.56420900000057,-442.4357909999994,-61.025634999999966,-283.33325200000036,-220.2563479999999
43,-196.28198199999997,-168.84619099999964,-107.05127000000039,-449.61547900000005,-226.15380900000036,73.3334960000002,-116.28198199999997,-171.15380900000036,-163.20507799999996,-172.820557,-460.0,-57.30761700000039,-280.64111300000013,-219.35888699999987
44,-197.9487299999996,-162.6923829999996,-110.89746100000002,-453.46142599999985,-214.7436520000001,78.3334960000002,-126.53857400000015,-171.923096,-166.15380900000036,-176.53857400000015,-476.53857400000015,-56.79492200000004,-280.7692869999996,-220.38452099999995
45,-199.61547900000005,-156.79492200000004,-112.94872999999961,-461.28198199999997,-190.64111300000013,84.61523400000078,-143.20507799999996,-178.58984399999963,-167.0512700000004,-172.179443,-487.6923829999996,-58.974365000000034,-281.28198199999997,-221.02563499999997
46,-200.2563479999999,-154.4870609999998,-112.05127000000039,-469.35888699999987,-168.58984399999963,88.7177729999994,-155.38452099999995,-186.66674799999964,-166.41015600000037,-160.5129390000002,-494.7436520000001,-62.051270000000386,-280.64111300000013,-221.02563499999997
47,-201.53857400000015,-158.33325200000036,-111.02563499999997,-474.8718259999996,-161.79492200000004,88.58984400000008,-158.076904,-192.3076170000004,-168.84619099999964,-145.38452099999995,-502.0512700000004,-65.51293900000019,-280.7692869999996,-222.6923829999996
48,-204.35888699999987,-165.5129390000002,-112.82055700000001,-475.7692869999996,-171.53857400000015,85.38476599999922,-153.84619099999964,-194.35888699999987,-176.15380900000036,-132.3076170000004,-510.1281740000004,-68.84619099999964,-282.9487299999996,-226.923096
49,-206.02563499999997,-167.820557,-115.64111300000013,-471.66674799999964,-184.61547900000005,82.56396500000028,-147.3076170000004,-192.6923829999996,-182.179443,-126.15380900000036,-513.3332520000004,-70.51293900000019,-285.2563479999999,-230.5129390000002
50,-203.33325200000036,-159.23071300000038,-115.38452099999995,-464.7436520000001,-186.02563499999997,82.43603499999972,-141.923096,-187.43579099999943,-176.923096,-128.84619099999964,-506.02563499999997,-69.35888699999987,-282.9487299999996,-228.84619099999964
51,-196.02563499999997,-142.179443,-110.38452099999995,-457.820557,-171.923096,84.74365200000011,-138.58984399999963,-179.4870609999998,-158.076904,-138.58984399999963,-489.2307130000004,-65.51293900000019,-273.58984399999963,-220.5129390000002
52,-187.9487299999996,-127.30761700000039,-103.58984399999963,-451.53857400000015,-154.8718259999996,86.9228520000006,-136.41015600000037,-171.02563499999997,-136.66674799999964,-150.38452099999995,-470.38452099999995,-61.025634999999966,-260.5129390000002,-209.7436520000001
53,-184.35888699999987,-125.51293900000019,-99.74365200000011,-446.02563499999997,-152.820557,86.9228520000006,-133.97436500000003,-165.0,-130.0,-159.10253899999998,-458.71801800000003,-58.07690400000001,-251.15380900000036,-203.58984399999963
54,-187.179443,-138.20507799999996,-100.76928699999962,-442.4357909999994,-171.53857400000015,84.87158199999976,-130.89746100000002,-162.9487299999996,-146.79492200000004,-160.5129390000002,-457.9487299999996,-57.564209000000574,-251.02563499999997,-205.0
55,-191.923096,-154.7436520000001,-103.58984399999963,-440.0,-194.4870609999998,82.94873000000007,-127.17944299999999,-162.56420900000057,-175.1281740000004,-152.43579099999943,-462.0512700000004,-57.435790999999426,-257.0512700000004,-209.61547900000005
56,-189.10253899999998,-158.33325200000036,-101.53857400000015,-433.97436500000003,-195.5129390000002,82.82031300000017,-121.28198199999997,-157.43579099999943,-188.71801800000003,-133.58984399999963,-457.820557,-54.23071300000038,-257.5642090000006,-207.6923829999996
57,-172.9487299999996,-140.76928699999962,-90.64111300000013,-419.102539,-163.33325200000036,84.48730499999965,-112.43579099999943,-144.61547900000005,-168.71801800000003,-107.69238299999961,-435.64111300000013,-46.153809000000365,-243.46142599999985,-192.6923829999996
58,-149.4870609999998,-110.76928699999962,-75.25634799999989,-396.66674799999964,-116.53857400000015,86.15380900000036,-101.92309599999999,-128.20507799999996,-122.69238299999961,-85.76928699999962,-401.79492200000004,-35.64111300000013,-218.58984399999963,-169.7436520000001
59,-133.076904,-88.33325200000036,-64.74365200000011,-377.179443,-90.89746100000002,86.6665039999998,-93.71801800000003,-118.20507799999996,-80.25634799999989,-79.61547900000005,-375.897461,-28.846190999999635,-197.9487299999996,-153.33325200000036
60,-134.35888699999987,-88.33325200000036,-66.15380900000036,-372.179443,-108.20507799999996,85.89746099999957,-92.43579099999943,-121.92309599999999,-68.58984399999963,-91.28198199999997,-373.84619099999964,-30.25634799999989,-195.1281740000004,-154.61547900000005
61,-150.76928699999962,-108.07690400000001,-78.07690400000001,-384.102539,-156.02563499999997,84.35888699999941,-98.33325200000036,-137.3076170000004,-91.02563499999997,-109.61547900000005,-393.46142599999985,-39.74365200000011,-209.10253899999998,-171.79492200000004
62,-168.71801800000003,-130.76928699999962,-90.89746100000002,-403.46142599999985,-196.923096,83.0771479999994,-106.79492200000004,-153.84619099999964,-126.92309599999999,-120.64111300000013,-416.79492200000004,-50.89746100000002,-227.6923829999996,-191.28198199999997
63,-174.7436520000001,-139.10253899999998,-95.1281740000004,-416.02563499999997,-198.33325200000036,82.56396500000028,-110.51293900000019,-159.7436520000001,-148.84619099999964,-119.74365200000011,-425.7692869999996,-55.76928699999962,-238.20507799999996,-198.58984399999963
64,-165.64111300000013,-128.076904,-88.07690400000001,-413.33325200000036,-157.6923829999996,83.7177729999994,-105.64111300000013,-150.2563479999999,-143.33325200000036,-112.82055700000001,-415.38452099999995,-50.51293900000019,-236.66674799999964,-190.0
65,-149.4870609999998,-106.92309599999999,-75.1281740000004,-398.97436500000003,-103.46142599999985,86.15380900000036,-96.02563499999997,-131.41015600000037,-118.33325200000036,-108.58984399999963,-395.5129390000002,-38.71801800000003,-228.076904,-174.10253899999998
66,-138.33325200000036,-90.76928699999962,-65.51293900000019,-384.35888699999987,-72.82055700000001,88.84619099999964,-90.25634799999989,-115.64111300000013,-95.38452099999995,-111.41015600000037,-380.1281740000004,-28.461425999999847,-220.38452099999995,-163.71801800000003
67,-138.20507799999996,-87.94872999999961,-64.10253899999998,-378.20507799999996,-82.94872999999961,90.0,-92.56420900000057,-112.17944299999999,-90.64111300000013,-118.20507799999996,-375.38452099999995,-25.89746100000002,-216.923096,-164.23071300000038
68,-143.58984399999963,-94.61547900000005,-68.20507799999996,-379.4870609999998,-117.94872999999961,89.10253900000043,-98.33325200000036,-119.8718259999996,-101.53857400000015,-119.48706099999981,-375.38452099999995,-29.487060999999812,-213.33325200000036,-169.61547900000005
69,-143.97436500000003,-99.8718259999996,-70.1281740000004,-379.4870609999998,-144.35888699999987,87.56396500000028,-98.20507799999996,-127.94872999999961,-111.66674799999964,-105.89746100000002,-368.97436500000003,-32.17944299999999,-201.66674799999964,-168.58984399999963
70,-133.076904,-96.92309599999999,-64.8718259999996,-370.7692869999996,-139.35888699999987,87.05126999999993,-86.66674799999964,-126.15380900000036,-107.05127000000039,-77.56420900000057,-350.38452099999995,-28.461425999999847,-178.33325200000036,-154.7436520000001
71,-115.64111300000013,-88.71801800000003,-53.974365000000034,-355.38452099999995,-108.07690400000001,88.20507799999996,-67.82055700000001,-112.17944299999999,-88.84619099999964,-47.435790999999426,-325.5129390000002,-18.974365000000034,-148.97436500000003,-133.33325200000036
72,-102.69238299999961,-84.48706099999981,-43.846190999999635,-343.46142599999985,-75.76928699999962,90.51269500000035,-52.051270000000386,-93.33325200000036,-70.64111300000013,-31.153809000000365,-306.923096,-9.358886999999868,-124.74365200000011,-116.28198199999997
73,-103.20507799999996,-91.02563499999997,-41.28198199999997,-345.5129390000002,-64.8718259999996,92.82031300000017,-48.71801800000003,-80.25634799999989,-65.0,-33.58984399999963,-304.35888699999987,-6.281981999999971,-113.20507799999996,-113.58984399999963
74,-118.33325200000036,-108.84619099999964,-49.35888699999987,-363.97436500000003,-78.46142599999985,93.7177729999994,-60.51293900000019,-80.76928699999962,-73.46142599999985,-46.41015600000037,-316.28198199999997,-12.179442999999992,-114.48706099999981,-126.53857400000015
75,-141.28198199999997,-132.179443,-65.25634799999989,-389.7436520000001,-101.92309599999999,91.79492200000004,-81.02563499999997,-93.84619099999964,-87.05127000000039,-57.30761700000039,-331.66674799999964,-24.358886999999868,-122.30761700000039,-147.820557
76,-160.64111300000013,-152.6923829999996,-81.28198199999997,-408.97436500000003,-117.56420900000057,87.56396500000028,-97.69238299999961,-110.76928699999962,-95.1281740000004,-60.89746100000002,-338.46142599999985,-35.89746100000002,-128.71801800000003,-165.76928699999962
77,-167.6923829999996,-162.43579099999943,-88.33325200000036,-411.28198199999997,-116.15380900000036,83.46142599999985,-99.61547900000005,-119.74365200000011,-91.79492200000004,-58.846190999999635,-331.66674799999964,-40.25634799999989,-127.69238299999961,-171.53857400000015
78,-159.10253899999998,-156.923096,-82.17944299999999,-395.897461,-98.58984399999963,83.0771479999994,-85.0,-113.71801800000003,-77.17944299999999,-52.435790999999426,-314.102539,-35.1281740000004,-116.41015600000037,-162.43579099999943
79,-139.10253899999998,-137.3076170000004,-65.89746100000002,-369.8718259999996,-72.43579099999943,87.05126999999993,-62.30761700000039,-95.0,-56.28198199999997,-40.1281740000004,-292.0512700000004,-23.846190999999635,-96.92309599999999,-142.9487299999996
80,-117.30761700000039,-112.30761700000039,-48.58984399999963,-344.61547900000005,-50.76928699999962,93.0771479999994,-44.8718259999996,-73.58984399999963,-36.92309599999999,-22.051270000000386,-271.53857400000015,-12.564209000000574,-76.41015600000037,-122.43579099999943
81,-104.23071300000038,-95.1281740000004,-39.8718259999996,-331.28198199999997,-47.948729999999614,97.17968800000017,-41.025634999999966,-60.64111300000013,-27.435790999999426,-5.897461000000021,-256.923096,-6.666747999999643,-65.1281740000004,-110.64111300000013
82,-105.0,-95.51293900000019,-43.46142599999985,-334.61547900000005,-70.38452099999995,97.05126999999993,-48.846190999999635,-59.8718259999996,-32.051270000000386,-3.077147999999397,-251.79492200000004,-6.794922000000042,-68.97436500000003,-111.92309599999999
83,-115.1281740000004,-111.79492200000004,-54.10253899999998,-349.61547900000005,-108.71801800000003,92.82031300000017,-58.846190999999635,-65.89746100000002,-45.76928699999962,-17.179442999999992,-255.2563479999999,-10.0,-83.46142599999985,-122.30761700000039
84,-125.0,-131.15380900000036,-62.17944299999999,-364.8718259999996,-140.2563479999999,87.05126999999993,-62.82055700000001,-69.8718259999996,-57.82055700000001,-38.46142599999985,-262.179443,-12.307617000000391,-96.02563499999997,-132.43579099999943
85,-127.05127000000039,-139.23071300000038,-61.92309599999999,-370.897461,-144.23071300000038,82.69238299999961,-60.38452099999995,-68.58984399999963,-59.35888699999987,-50.38452099999995,-267.4357909999994,-12.692382999999609,-96.15380900000036,-134.8718259999996
86,-121.28198199999997,-130.38452099999995,-55.1281740000004,-365.2563479999999,-116.66674799999964,81.6665039999998,-56.53857400000015,-64.8718259999996,-50.1281740000004,-42.82055700000001,-268.71801800000003,-12.564209000000574,-83.33325200000036,-129.10253899999998
87,-111.53857400000015,-109.35888699999987,-47.435790999999426,-350.7692869999996,-70.64111300000013,84.35888699999941,-54.8718259999996,-63.07690400000001,-36.025634999999966,-17.948729999999614,-264.7436520000001,-12.179442999999992,-65.51293900000019,-118.97436500000003
88,-100.51293900000019,-85.51293900000019,-41.66674799999964,-331.41015600000037,-26.923095999999987,89.61523400000078,-53.58984399999963,-62.564209000000574,-23.076904000000013,12.692382999999609,-253.58984399999963,-9.487060999999812,-50.1281740000004,-107.69238299999961
89,-88.46142599999985,-66.53857400000015,-36.66674799999964,-311.15380900000036,-1.6665039999998044,95.0,-48.46142599999985,-59.10253899999998,-13.974365000000034,36.666503999999804,-235.1281740000004,-3.2050779999999577,-40.0,-96.41015600000037
90,-76.53857400000015,-56.153809000000365,-30.512939000000188,-295.2563479999999,0.38476599999921746,97.69238299999961,-38.20507799999996,-50.76928699999962,-8.974365000000034,45.897460999999566,-214.35888699999987,4.358886999999413,-33.71801800000003,-86.02563499999997
91,-68.71801800000003,-54.35888699999987,-24.10253899999998,-288.076904,-13.58984399999963,96.2822270000006,-27.179442999999992,-40.76928699999962,-7.307617000000391,40.51269500000035,-200.38452099999995,8.717772999999397,-30.769286999999622,-79.23071300000038
92,-68.46142599999985,-58.07690400000001,-21.28198199999997,-290.897461,-30.769286999999622,91.79492200000004,-21.794922000000042,-34.74365200000011,-8.205077999999958,27.56396500000028,-199.4870609999998,6.922852000000603,-31.666747999999643,-78.46142599999985
93,-75.76928699999962,-64.48706099999981,-24.8718259999996,-299.7436520000001,-41.025634999999966,86.9228520000006,-25.769286999999622,-36.53857400000015,-11.28198199999997,16.025878999999804,-208.84619099999964,0.256347999999889,-36.79492200000004,-84.10253899999998
94,-86.66674799999964,-71.66674799999964,-34.10253899999998,-308.97436500000003,-43.20507799999996,84.10253900000043,-36.153809000000365,-44.74365200000011,-16.153809000000365,9.743652000000111,-219.23071300000038,-7.307617000000391,-45.1281740000004,-93.20507799999996
95,-95.0,-78.33325200000036,-44.48706099999981,-313.58984399999963,-42.17944299999999,84.74365200000011,-45.25634799999989,-53.58984399999963,-21.41015600000037,7.307617000000391,-222.179443,-11.923095999999987,-52.564209000000574,-100.76928699999962
96,-95.89746100000002,-82.05127000000039,-49.74365200000011,-311.02563499999997,-41.41015600000037,88.7177729999994,-45.76928699999962,-56.41015600000037,-23.333252000000357,7.43603499999972,-214.8718259999996,-12.307617000000391,-54.35888699999987,-101.79492200000004
97,-88.46142599999985,-79.35888699999987,-46.41015600000037,-302.3076170000004,-38.974365000000034,94.74365200000011,-37.051270000000386,-50.38452099999995,-19.358886999999868,11.666503999999804,-200.38452099999995,-9.61547900000005,-48.33325200000036,-94.8718259999996
98,-77.17944299999999,-70.89746100000002,-37.30761700000039,-291.28198199999997,-32.30761700000039,100.25634799999989,-25.512939000000188,-39.8718259999996,-11.153809000000365,20.128418000000238,-185.0,-6.794922000000042,-37.30761700000039,-83.71801800000003
99,-69.35888699999987,-61.41015600000037,-29.230713000000378,-282.6923829999996,-24.487060999999812,102.82031300000017,-19.10253899999998,-32.564209000000574,-4.230713000000378,27.69238299999961,-174.23071300000038,-5.897461000000021,-27.948729999999614,-74.8718259999996
100,-68.58984399999963,-56.53857400000015,-27.051270000000386,-278.076904,-22.30761700000039,102.17968800000017,-20.25634799999989,-32.82055700000001,-3.2050779999999577,29.230956999999762,-169.7436520000001,-6.025634999999966,-23.974365000000034,-72.43579099999943
101,-71.53857400000015,-57.051270000000386,-28.974365000000034,-274.4870609999998,-27.30761700000039,100.0,-24.487060999999812,-37.948729999999614,-6.923095999999987,25.128418000000238,-167.3076170000004,-4.102538999999979,-23.846190999999635,-74.23071300000038
102,-71.15380900000036,-58.71801800000003,-29.74365200000011,-267.179443,-33.07690400000001,98.7177729999994,-25.512939000000188,-41.153809000000365,-10.256347999999889,21.794922000000042,-160.76928699999962,1.4101559999999154,-22.564209000000574,-74.48706099999981
103,-64.23071300000038,-56.92309599999999,-26.025634999999966,-255.5129390000002,-31.666747999999643,98.84619099999964,-21.41015600000037,-38.58984399999963,-10.512939000000188,23.717772999999397,-148.20507799999996,8.205077999999958,-18.076904000000013,-70.76928699999962
104,-54.61547900000005,-52.17944299999999,-19.74365200000011,-243.076904,-23.461425999999847,99.35888699999941,-15.1281740000004,-32.30761700000039,-9.61547900000005,28.974121000000196,-134.23071300000038,11.922852000000603,-13.205077999999958,-65.76928699999962
105,-48.20507799999996,-47.564209000000574,-15.1281740000004,-233.71801800000003,-15.512939000000188,99.61523400000078,-10.0,-26.153809000000365,-11.153809000000365,33.0771479999994,-123.71801800000003,10.384765999999217,-11.025634999999966,-63.58984399999963
106,-45.76928699999962,-44.10253899999998,-13.076904000000013,-226.923096,-12.307617000000391,99.61523400000078,-6.025634999999966,-21.666747999999643,-13.71801800000003,34.61523400000078,-115.64111300000013,6.666503999999804,-10.256347999999889,-63.71801800000003
107,-43.974365000000034,-39.61547900000005,-11.28198199999997,-218.71801800000003,-11.538574000000153,99.35888699999941,-0.769043000000238,-16.41015600000037,-12.820557000000008,37.05126999999993,-104.48706099999981,6.282227000000603,-6.153809000000365,-61.153809000000365
108,-38.71801800000003,-32.69238299999961,-7.051270000000386,-206.15380900000036,-7.692382999999609,98.9741210000002,6.794922000000042,-8.205077999999958,-5.512939000000188,44.61523400000078,-86.15380900000036,12.43603499999972,4.102539000000434,-52.564209000000574
109,-30.641113000000132,-25.38452099999995,-0.12841800000023795,-190.64111300000013,1.6665039999998044,98.46142599999985,15.0,2.6923829999996087,6.410155999999915,57.17968800000017,-62.564209000000574,23.077147999999397,17.43603499999972,-39.48706099999981
110,-23.461425999999847,-21.666747999999643,7.051269999999931,-176.41015600000037,11.922852000000603,98.3334960000002,21.538574000000153,13.589844000000085,16.538574000000153,69.74365200000011,-39.8718259999996,33.0771479999994,27.69238299999961,-27.948729999999614
111,-20.769286999999622,-25.0,11.153809000000365,-166.79492200000004,15.897460999999566,98.46142599999985,24.358886999999413,21.153809000000365,18.974121000000196,74.74365200000011,-24.358886999999868,37.56396500000028,29.871581999999762,-23.461425999999847
112,-22.564209000000574,-33.58984399999963,11.153809000000365,-161.53857400000015,10.128418000000238,97.82031300000017,23.589844000000085,23.846190999999635,13.077147999999397,69.10253900000043,-17.179442999999992,35.76904300000024,24.358886999999413,-26.41015600000037
113,-24.487060999999812,-40.64111300000013,10.128418000000238,-155.76928699999962,0.256347999999889,96.2822270000006,22.43603499999972,23.974121000000196,4.487304999999651,59.102539000000434,-13.461425999999847,31.538574000000153,17.69238299999961,-30.512939000000188
114,-18.846190999999635,-37.17944299999999,14.358886999999413,-142.3076170000004,-1.6665039999998044,95.38476599999922,26.410155999999915,26.922852000000603,3.077147999999397,57.69238299999961,-3.9741210000001956,31.282227000000603,19.74365200000011,-26.666747999999643
115,-0.38476599999921746,-18.205077999999958,28.461425999999847,-116.02563499999997,14.230956999999762,96.9228520000006,39.87158199999976,38.846190999999635,16.410155999999915,74.23095699999976,18.846190999999635,39.74365200000011,37.05126999999993,-8.71801800000003
116,29.615234000000783,13.077147999999397,52.30761700000039,-78.71801800000003,46.79492200000004,101.15380900000036,63.0771479999994,61.9228520000006,43.974121000000196,104.74365200000011,54.48730499999965,56.9228520000006,66.9228520000006,21.666503999999804
117,63.0771479999994,46.153809000000365,79.23095699999976,-39.48706099999981,82.82031300000017,106.41015599999992,91.6665039999998,91.9228520000006,77.94873000000007,135.12841800000024,94.48730499999965,77.82031300000017,99.23095699999976,55.25634799999989
118,89.35888699999941,70.25634799999989,100.89746099999957,-7.820557000000008,108.0771479999994,110.89746099999957,118.20507799999996,120.25634799999989,106.79492200000004,152.56396500000028,128.46142599999985,94.61523400000078,123.46142599999985,81.2822270000006
119,103.58984400000008,82.69238299999961,113.0771479999994,12.948730000000069,118.58984400000008,114.10253900000043,136.9228520000006,140.2563479999999,123.20507799999996,155.89746099999957,151.53857400000015,103.3334960000002,136.2822270000006,95.51269500000035
120,110.12841800000024,90.38476599999922,118.9741210000002,29.615234000000783,124.61523400000078,117.05126999999993,147.3076170000004,152.6923829999996,128.58984400000008,155.38476599999922,167.94873000000007,106.79492200000004,143.46142599999985,103.3334960000002
121,119.74365200000011,104.35888699999941,127.43603499999972,53.20507799999996,141.0258789999998,121.2822270000006,155.0,164.48730499999965,132.82031300000017,163.58984400000008,187.05126999999993,112.30761700000039,155.38476599999922,115.51269500000035
122,140.76904300000024,129.87158199999976,144.61523400000078,89.35888699999941,173.3334960000002,127.17968800000017,167.05126999999993,182.82031300000017,146.2822270000006,184.23095699999976,215.0,125.25634799999989,177.94873000000007,139.23095699999976
123,170.89746099999957,161.15380900000036,168.58984400000008,132.56396500000028,211.0258789999998,133.58984400000008,185.2563479999999,207.82031300000017,171.6665039999998,209.48730499999965,249.3588869999994,143.7177729999994,207.56396500000028,171.15380900000036
124,198.84619099999964,185.38476599999922,190.0,169.3588869999994,235.38476599999922,138.20507799999996,203.84619099999964,231.6665039999998,200.6411130000006,225.76904300000024,280.2563479999999,159.3588869999994,233.20507799999996,199.87158199999976
125,213.3334960000002,193.0771479999994,200.0,188.0771479999994,235.6411130000006,139.23095699999976,214.61523400000078,244.3588869999994,219.61523400000078,224.3588869999994,298.5898440000001,165.0,244.7436520000001,214.48730499999965
126,211.79492200000004,185.6411130000006,196.53857400000015,187.3076170000004,219.87158199999976,136.79492200000004,213.7177729999994,242.6923829999996,221.15380900000036,209.87158199999976,302.4360349999997,160.2563479999999,241.53857400000015,213.20507799999996
127,202.56396500000028,174.87158199999976,186.2822270000006,176.53857400000015,208.58984400000008,133.3334960000002,205.2563479999999,232.6923829999996,210.0,197.3076170000004,299.3588869999994,152.05126999999993,232.94873000000007,203.46142599999985
128,197.43603499999972,173.3334960000002,179.7436520000001,169.3588869999994,218.20507799999996,131.6665039999998,197.56396500000028,224.87158199999976,199.23095699999976,200.76904300000024,299.48730499999965,148.58984400000008,230.76904300000024,197.17968800000017
129,202.94873000000007,184.7436520000001,182.82031300000017,172.6923829999996,247.17968800000017,132.94873000000007,197.05126999999993,226.15380900000036,200.2563479999999,221.53857400000015,308.7177729999994,152.43603499999972,239.7436520000001,201.0258789999998
130,215.51269500000035,201.0258789999998,192.56396500000028,182.3076170000004,276.15380900000036,135.6411130000006,203.46142599999985,234.23095699999976,212.43603499999972,246.53857400000015,323.0771479999994,159.48730499999965,253.46142599999985,212.3076170000004
131,224.7436520000001,210.12841800000024,200.0,187.82031300000017,284.87158199999976,137.05126999999993,210.2563479999999,240.2563479999999,225.12841800000024,258.7177729999994,333.46142599999985,163.3334960000002,260.89746099999957,221.0258789999998
132,223.9741210000002,206.53857400000015,198.46142599999985,184.23095699999976,269.7436520000001,135.38476599999922,211.53857400000015,237.82031300000017,227.43603499999972,252.3076170000004,334.10253900000043,160.6411130000006,257.3076170000004,220.6411130000006
133,216.15380900000036,196.53857400000015,190.2563479999999,177.3076170000004,247.05126999999993,131.53857400000015,207.43603499999972,229.48730499999965,219.23095699999976,237.43603499999972,329.23095699999976,154.48730499999965,248.84619099999964,213.9741210000002
134,211.15380900000036,191.41015599999992,184.3588869999994,177.94873000000007,238.46142599999985,128.84619099999964,203.46142599999985,224.7436520000001,210.2563479999999,229.7436520000001,328.9741210000002,150.89746099999957,246.41015599999992,210.38476599999922
135,215.76904300000024,196.53857400000015,187.17968800000017,191.0258789999998,251.0258789999998,129.48730499999965,205.0,230.51269500000035,210.89746099999957,236.15380900000036,339.7436520000001,154.10253900000043,254.48730499999965,216.79492200000004
136,226.53857400000015,207.43603499999972,196.53857400000015,210.0,271.6665039999998,132.17968800000017,211.53857400000015,244.10253900000043,221.2822270000006,248.9741210000002,356.79492200000004,162.3076170000004,266.6665039999998,229.48730499999965
137,232.43603499999972,213.46142599999985,203.0771479999994,221.53857400000015,278.9741210000002,133.84619099999964,216.79492200000004,254.3588869999994,231.15380900000036,253.84619099999964,368.7177729999994,168.84619099999964,271.0258789999998,237.6923829999996
138,225.6411130000006,208.58984400000008,199.3588869999994,217.05126999999993,261.9228520000006,131.79492200000004,214.61523400000078,251.6665039999998,229.61523400000078,243.0771479999994,367.3076170000004,167.82031300000017,261.6665039999998,233.0771479999994
139,210.38476599999922,196.53857400000015,187.3076170000004,200.12841800000024,230.2563479999999,126.15380900000036,206.2822270000006,237.43603499999972,216.15380900000036,222.3076170000004,355.2563479999999,160.38476599999922,245.0,218.84619099999964
140,200.38476599999922,189.10253900000043,177.6923829999996,185.0,207.3076170000004,120.0,199.7436520000001,223.9741210000002,202.17968800000017,207.43603499999972,344.6152340000008,153.9741210000002,235.2563479999999,207.94873000000007
141,207.3076170000004,195.2563479999999,181.0258789999998,185.2563479999999,211.15380900000036,116.79492200000004,202.56396500000028,223.7177729999994,201.9228520000006,211.9228520000006,346.79492200000004,155.51269500000035,242.94873000000007,211.9228520000006
142,229.48730499999965,213.7177729999994,197.3076170000004,202.05126999999993,239.7436520000001,117.69238299999961,214.48730499999965,238.3334960000002,218.58984400000008,235.89746099999957,363.0771479999994,164.7436520000001,265.2563479999999,230.51269500000035
143,251.79492200000004,232.6923829999996,215.2563479999999,223.20507799999996,272.17968800000017,120.25634799999989,226.9228520000006,256.79492200000004,241.79492200000004,263.9741210000002,382.82031300000017,174.48730499999965,287.6923829999996,251.2822270000006
144,258.20507799999996,239.61523400000078,221.79492200000004,232.56396500000028,285.89746099999957,121.9228520000006,230.12841800000024,264.48730499999965,256.15380900000036,277.17968800000017,391.79492200000004,176.6665039999998,295.89746099999957,260.0
145,244.48730499999965,230.51269500000035,211.9228520000006,222.56396500000028,273.9741210000002,121.53857400000015,220.38476599999922,254.87158199999976,253.46142599999985,268.0771479999994,383.5898440000001,168.9741210000002,287.05126999999993,251.41015599999992
146,220.76904300000024,213.3334960000002,192.82031300000017,199.48730499999965,249.23095699999976,120.38476599999922,202.56396500000028,234.10253900000043,238.0771479999994,246.53857400000015,364.7436520000001,156.15380900000036,270.51269500000035,232.56396500000028
147,203.0771479999994,200.2563479999999,177.05126999999993,178.58984400000008,232.17968800000017,120.38476599999922,186.2822270000006,215.2563479999999,221.41015599999992,230.38476599999922,349.10253900000043,146.53857400000015,259.48730499999965,216.6665039999998
148,201.9228520000006,199.87158199999976,174.48730499999965,172.56396500000028,233.46142599999985,121.9228520000006,180.12841800000024,209.61523400000078,213.20507799999996,230.6411130000006,346.9228520000006,145.89746099999957,260.76904300000024,213.58984400000008
149,216.79492200000004,211.9228520000006,185.76904300000024,182.94873000000007,248.58984400000008,123.9741210000002,187.6923829999996,218.7177729999994,216.79492200000004,244.3588869999994,358.7177729999994,154.61523400000078,272.05126999999993,224.3588869999994
150,237.43603499999972,229.87158199999976,203.3334960000002,200.51269500000035,264.6152340000008,124.48730499999965,205.0,236.0258789999998,229.61523400000078,259.87158199999976,376.2822270000006,167.94873000000007,285.76904300000024,242.56396500000028
151,252.05126999999993,244.61523400000078,216.6665039999998,213.0771479999994,270.3847659999992,122.69238299999961,222.05126999999993,250.38476599999922,243.9741210000002,266.53857400000015,389.10253900000043,178.9741210000002,294.3588869999994,257.94873000000007
152,253.20507799999996,249.3588869999994,219.10253900000043,213.3334960000002,262.94873000000007,119.87158199999976,228.58984400000008,253.84619099999964,250.6411130000006,261.15380900000036,389.87158199999976,182.17968800000017,293.7177729999994,262.6923829999996
153,242.17968800000017,241.9228520000006,211.41015599999992,202.3076170000004,247.3076170000004,118.0771479999994,220.2563479999999,245.12841800000024,243.58984400000008,247.3076170000004,378.0771479999994,176.6665039999998,284.6152340000008,255.12841800000024
154,226.53857400000015,226.53857400000015,199.87158199999976,187.3076170000004,232.6923829999996,118.20507799999996,202.6923829999996,229.7436520000001,224.87158199999976,232.3076170000004,360.0,167.05126999999993,271.4101559999999,240.51269500000035
155,215.6411130000006,212.17968800000017,191.2822270000006,176.0258789999998,227.82031300000017,118.9741210000002,186.53857400000015,216.53857400000015,204.3588869999994,222.43603499999972,344.6152340000008,159.23095699999976,260.76904300000024,227.43603499999972
156,214.61523400000078,207.94873000000007,188.9741210000002,171.9228520000006,235.0,118.9741210000002,180.89746099999957,212.56396500000028,194.61523400000078,220.51269500000035,339.10253900000043,157.05126999999993,257.82031300000017,222.6923829999996
157,221.79492200000004,216.0258789999998,192.3076170000004,171.9228520000006,248.46142599999985,118.0771479999994,186.9228520000006,218.84619099999964,201.53857400000015,225.12841800000024,344.23095699999976,159.7436520000001,262.94873000000007,227.17968800000017
158,230.2563479999999,229.3588869999994,197.43603499999972,169.87158199999976,257.82031300000017,117.43603499999972,198.84619099999964,229.61523400000078,219.7436520000001,231.9228520000006,354.23095699999976,163.84619099999964,270.6411130000006,236.0258789999998
159,232.94873000000007,237.56396500000028,199.87158199999976,161.41015599999992,256.15380900000036,118.0771479999994,207.17968800000017,236.53857400000015,235.89746099999957,235.51269500000035,360.2563479999999,165.89746099999957,273.84619099999964,241.2822270000006
160,227.56396500000028,235.2563479999999,198.0771479999994,147.82031300000017,245.38476599999922,119.61523400000078,205.89746099999957,234.23095699999976,238.7177729999994,233.46142599999985,357.17968800000017,164.61523400000078,269.48730499999965,238.3334960000002
161,218.58984400000008,225.51269500000035,193.58984400000008,134.7436520000001,233.58984400000008,120.89746099999957,196.41015599999992,224.3588869999994,227.82031300000017,227.43603499999972,346.9228520000006,161.0258789999998,260.51269500000035,229.48730499999965
162,213.20507799999996,217.3076170000004,190.38476599999922,127.56396500000028,228.3334960000002,121.15380900000036,186.0258789999998,214.3588869999994,212.6923829999996,222.43603499999972,338.0771479999994,157.6923829999996,253.9741210000002,222.43603499999972
163,216.15380900000036,217.05126999999993,191.2822270000006,127.69238299999961,230.2563479999999,120.76904300000024,182.43603499999972,211.15380900000036,205.0,222.94873000000007,338.46142599999985,157.05126999999993,255.51269500000035,223.9741210000002
164,225.2563479999999,223.84619099999964,195.89746099999957,131.41015599999992,234.61523400000078,120.38476599999922,186.79492200000004,216.41015599999992,208.46142599999985,229.10253900000043,348.20507799999996,159.61523400000078,263.9741210000002,233.58984400000008
165,233.3334960000002,231.0258789999998,200.38476599999922,131.79492200000004,236.15380900000036,119.61523400000078,193.7177729999994,224.87158199999976,217.43603499999972,235.51269500000035,359.87158199999976,163.46142599999985,272.94873000000007,243.84619099999964
166,234.3588869999994,232.82031300000017,200.76904300000024,124.48730499999965,233.9741210000002,118.3334960000002,197.17968800000017,229.87158199999976,222.82031300000017,236.15380900000036,363.9741210000002,165.38476599999922,275.2563479999999,247.3076170000004
167,228.46142599999985,229.7436520000001,197.05126999999993,110.64111300000059,231.53857400000015,117.94873000000007,196.15380900000036,228.7177729999994,221.0258789999998,230.38476599999922,357.6923829999996,164.7436520000001,270.12841800000024,243.0771479999994
168,221.79492200000004,227.6923829999996,192.56396500000028,95.89746099999957,233.3334960000002,119.61523400000078,193.46142599999985,225.12841800000024,215.6411130000006,222.56396500000028,345.89746099999957,163.0771479999994,263.20507799999996,236.41015599999992
169,220.12841800000024,230.89746099999957,191.2822270000006,86.15380900000036,239.87158199999976,122.69238299999961,192.6923829999996,223.9741210000002,212.82031300000017,219.10253900000043,335.89746099999957,162.43603499999972,261.15380900000036,233.46142599999985
170,224.23095699999976,237.6923829999996,193.84619099999964,83.7177729999994,246.79492200000004,124.61523400000078,194.87158199999976,226.79492200000004,215.2563479999999,222.3076170000004,331.79492200000004,163.3334960000002,265.3847659999992,236.15380900000036
171,228.58984400000008,241.6665039999998,197.82031300000017,86.41015599999992,247.3076170000004,124.23095699999976,198.20507799999996,230.2563479999999,219.7436520000001,228.20507799999996,331.15380900000036,164.3588869999994,270.2563479999999,240.2563479999999
172,226.6665039999998,236.53857400000015,198.3334960000002,88.0771479999994,237.6923829999996,122.69238299999961,199.23095699999976,228.7177729999994,220.0,228.58984400000008,327.6923829999996,164.10253900000043,267.94873000000007,239.7436520000001
173,216.2822270000006,221.79492200000004,193.46142599999985,83.0771479999994,221.53857400000015,122.17968800000017,195.76904300000024,220.38476599999922,212.43603499999972,217.56396500000028,317.82031300000017,161.6665039999998,255.89746099999957,231.2822270000006
174,203.46142599999985,205.12841800000024,185.6411130000006,71.79492200000004,208.84619099999964,123.58984400000008,189.7436520000001,209.3588869999994,200.6411130000006,198.58984400000008,305.6411130000006,158.3334960000002,239.7436520000001,218.58984400000008
175,198.46142599999985,198.3334960000002,181.6665039999998,61.79492200000004,208.9741210000002,126.2822270000006,186.53857400000015,204.48730499999965,193.20507799999996,185.0,300.6411130000006,156.9228520000006,231.0258789999998,211.0258789999998
176,207.05126999999993,208.3334960000002,186.15380900000036,61.153809000000365,223.46142599999985,128.20507799999996,191.53857400000015,211.53857400000015,197.3076170000004,190.0,309.7436520000001,159.48730499999965,237.94873000000007,215.89746099999957
177,224.61523400000078,230.12841800000024,197.05126999999993,69.87158199999976,243.0771479999994,127.43603499999972,203.46142599999985,226.9228520000006,211.79492200000004,213.84619099999964,329.23095699999976,164.7436520000001,257.4360349999997,231.9228520000006
178,237.94873000000007,248.20507799999996,205.76904300000024,77.82031300000017,253.9741210000002,123.84619099999964,213.84619099999964,239.23095699999976,226.41015599999992,240.38476599999922,345.3847659999992,168.46142599999985,276.15380900000036,247.94873000000007
179,236.9228520000006,249.10253900000043,204.23095699999976,74.23095699999976,248.20507799999996,119.10253900000043,213.58984400000008,238.58984400000008,229.87158199999976,249.7436520000001,345.0,166.6665039999998,280.3847659999992,252.05126999999993
180,222.56396500000028,232.94873000000007,192.56396500000028,57.82031300000017,229.3588869999994,115.76904300000024,200.89746099999957,225.51269500000035,219.23095699999976,235.0,327.94873000000007,159.7436520000001,267.82031300000017,241.15380900000036
181,207.17968800000017,213.3334960000002,180.12841800000024,38.974121000000196,211.9228520000006,115.25634799999989,184.48730499999965,211.0258789999998,203.0771479999994,208.46142599999985,308.46142599999985,152.94873000000007,249.23095699999976,224.87158199999976
182,203.7177729999994,206.2822270000006,177.56396500000028,31.282227000000603,209.3588869999994,117.05126999999993,176.6665039999998,207.3076170000004,194.7436520000001,191.53857400000015,303.20507799999996,152.17968800000017,239.48730499999965,217.43603499999972
183,215.0,216.6665039999998,187.05126999999993,38.333496000000196,224.23095699999976,119.10253900000043,183.0771479999994,216.79492200000004,201.2822270000006,196.53857400000015,316.0258789999998,158.3334960000002,245.51269500000035,224.87158199999976
184,231.53857400000015,234.48730499999965,200.38476599999922,50.897460999999566,244.61523400000078,119.35888699999941,197.3076170000004,230.12841800000024,217.3076170000004,215.89746099999957,333.9741210000002,166.41015599999992,260.6411130000006,239.87158199999976
185,238.84619099999964,242.94873000000007,205.76904300000024,53.7177729999994,252.82031300000017,117.94873000000007,206.53857400000015,234.10253900000043,229.10253900000043,229.10253900000043,339.10253900000043,169.23095699999976,270.12841800000024,247.94873000000007
186,230.51269500000035,233.20507799999996,198.58984400000008,38.974121000000196,239.10253900000043,116.2822270000006,202.17968800000017,223.20507799999996,225.89746099999957,221.41015599999992,323.7177729999994,164.3588869999994,264.3588869999994,240.51269500000035
187,212.82031300000017,211.2822270000006,185.51269500000035,13.333496000000196,211.0258789999998,115.89746099999957,187.56396500000028,205.12841800000024,209.48730499999965,197.6923829999996,298.20507799999996,156.0258789999998,247.17968800000017,222.43603499999972
188,199.87158199999976,193.20507799999996,178.20507799999996,-7.435790999999426,188.7177729999994,116.2822270000006,173.84619099999964,193.3334960000002,192.82031300000017,177.56396500000028,281.15380900000036,151.53857400000015,231.2822270000006,207.82031300000017
189,201.15380900000036,191.9228520000006,183.46142599999985,-11.153809000000365,188.84619099999964,116.79492200000004,171.2822270000006,196.2822270000006,188.84619099999964,178.58984400000008,284.23095699999976,155.0,228.7177729999994,208.58984400000008
190,215.12841800000024,207.17968800000017,197.43603499999972,1.2822270000006029,211.2822270000006,117.43603499999972,181.0258789999998,210.76904300000024,200.0,201.0258789999998,304.10253900000043,164.10253900000043,240.51269500000035,223.9741210000002
191,230.2563479999999,225.6411130000006,209.61523400000078,16.282227000000603,239.10253900000043,119.10253900000043,194.23095699999976,225.2563479999999,215.51269500000035,227.43603499999972,324.87158199999976,171.9228520000006,257.17968800000017,241.2822270000006
192,234.3588869999994,231.79492200000004,210.6411130000006,18.589844000000085,251.79492200000004,121.2822270000006,199.61523400000078,229.3588869999994,221.79492200000004,237.05126999999993,331.15380900000036,172.56396500000028,265.51269500000035,246.41015599999992
193,224.23095699999976,219.87158199999976,200.2563479999999,3.2050779999999577,241.9228520000006,121.79492200000004,192.6923829999996,221.2822270000006,213.7177729999994,222.6923829999996,318.9741210000002,165.51269500000035,259.10253900000043,235.0
194,208.20507799999996,199.23095699999976,186.79492200000004,-20.641113000000132,219.3588869999994,119.74365200000011,179.7436520000001,208.9741210000002,198.9741210000002,196.6665039999998,298.5898440000001,156.2822270000006,242.94873000000007,216.79492200000004
195,198.7177729999994,185.51269500000035,180.6411130000006,-37.69238299999961,202.43603499999972,117.30761700000039,171.53857400000015,202.05126999999993,190.51269500000035,179.87158199999976,284.3588869999994,151.79492200000004,228.7177729999994,206.15380900000036
196,201.2822270000006,186.79492200000004,185.12841800000024,-40.38452099999995,201.2822270000006,117.43603499999972,172.94873000000007,203.58984400000008,193.3334960000002,182.56396500000028,283.0771479999994,154.61523400000078,224.3588869999994,209.48730499999965
197,211.79492200000004,198.0771479999994,194.48730499999965,-33.974365000000034,211.0258789999998,120.38476599999922,179.7436520000001,208.7177729999994,201.2822270000006,196.2822270000006,289.48730499999965,160.6411130000006,229.3588869999994,220.89746099999957
198,221.41015599999992,208.58984400000008,201.0258789999998,-28.974365000000034,219.10253900000043,124.35888699999941,184.61523400000078,210.89746099999957,203.58984400000008,204.61523400000078,293.46142599999985,164.61523400000078,236.6665039999998,229.3588869999994
199,225.2563479999999,212.17968800000017,201.41015599999992,-31.28198199999997,218.46142599999985,127.05126999999993,185.51269500000035,208.9741210000002,197.94873000000007,199.23095699999976,291.0258789999998,164.7436520000001,240.6411130000006,230.0
200,225.12841800000024,211.53857400000015,199.10253900000043,-38.58984399999963,213.58984400000008,127.82031300000017,186.0258789999998,206.9228520000006,191.53857400000015,186.6665039999998,286.6665039999998,163.9741210000002,241.0258789999998,226.2822270000006
201,225.0,211.79492200000004,198.3334960000002,-45.25634799999989,212.56396500000028,127.05126999999993,190.0,208.7177729999994,193.20507799999996,179.48730499999965,286.15380900000036,164.48730499999965,239.87158199999976,225.0
202,225.2563479999999,213.46142599999985,199.48730499999965,-49.10253899999998,217.05126999999993,124.87158199999976,195.2563479999999,212.43603499999972,203.20507799999996,183.20507799999996,288.5898440000001,165.76904300000024,238.0771479999994,227.3076170000004
203,222.43603499999972,211.9228520000006,199.23095699999976,-53.07690400000001,220.2563479999999,121.6665039999998,195.51269500000035,212.3076170000004,211.9228520000006,192.05126999999993,288.46142599999985,164.61523400000078,234.10253900000043,228.58984400000008
204,213.7177729999994,203.20507799999996,194.7436520000001,-61.153809000000365,215.6411130000006,118.58984400000008,186.9228520000006,205.2563479999999,209.87158199999976,196.53857400000015,282.82031300000017,159.7436520000001,226.9228520000006,223.58984400000008
205,202.17968800000017,190.51269500000035,187.6923829999996,-72.30761700000039,204.23095699999976,117.17968800000017,172.94873000000007,194.7436520000001,196.6665039999998,192.43603499999972,275.76904300000024,153.20507799999996,218.20507799999996,213.3334960000002
206,194.3588869999994,181.79492200000004,182.94873000000007,-80.89746100000002,195.0,118.7177729999994,162.43603499999972,188.20507799999996,182.43603499999972,183.7177729999994,274.48730499999965,149.3588869999994,212.3076170000004,205.12841800000024
207,195.6411130000006,183.46142599999985,183.9741210000002,-81.28198199999997,195.89746099999957,122.56396500000028,163.0771479999994,191.0258789999998,178.9741210000002,177.56396500000028,280.76904300000024,150.6411130000006,212.6923829999996,205.12841800000024
208,204.48730499999965,194.3588869999994,189.87158199999976,-74.10253899999998,207.56396500000028,126.9228520000006,174.61523400000078,202.3076170000004,189.3588869999994,178.20507799999996,288.46142599999985,155.89746099999957,219.3588869999994,213.3334960000002
209,214.10253900000043,207.43603499999972,196.2822270000006,-65.76928699999962,224.23095699999976,129.61523400000078,189.7436520000001,215.51269500000035,206.2822270000006,183.7177729999994,289.6152340000008,161.15380900000036,228.9741210000002,223.46142599999985
210,218.20507799999996,215.2563479999999,198.84619099999964,-62.564209000000574,237.94873000000007,129.7436520000001,199.48730499999965,223.20507799999996,218.0771479999994,189.23095699999976,282.17968800000017,163.20507799999996,236.79492200000004,228.58984400000008
211,215.12841800000024,214.3588869999994,196.2822270000006,-67.17944299999999,243.0771479999994,127.30761700000039,198.9741210000002,222.3076170000004,218.3334960000002,191.2822270000006,271.0258789999998,161.6665039999998,239.10253900000043,226.53857400000015
212,207.3076170000004,206.0258789999998,190.0,-77.69238299999961,237.6923829999996,123.46142599999985,189.48730499999965,214.3588869999994,208.46142599999985,188.46142599999985,262.3076170000004,157.82031300000017,234.10253900000043,219.7436520000001
213,197.94873000000007,194.61523400000078,182.3076170000004,-90.25634799999989,223.46142599999985,119.48730499999965,177.3076170000004,203.0771479999994,195.6411130000006,182.56396500000028,258.46142599999985,153.3334960000002,223.20507799999996,211.6665039999998
214,190.76904300000024,185.6411130000006,176.15380900000036,-101.28198199999997,205.38476599999922,117.43603499999972,169.7436520000001,193.20507799999996,187.56396500000028,176.6665039999998,257.94873000000007,149.3588869999994,211.15380900000036,205.12841800000024
215,188.0771479999994,182.82031300000017,173.7177729999994,-108.20507799999996,190.6411130000006,117.69238299999961,171.0258789999998,188.7177729999994,187.17968800000017,173.58984400000008,259.10253900000043,147.05126999999993,203.58984400000008,202.17968800000017
216,190.76904300000024,186.9228520000006,176.15380900000036,-110.1281740000004,185.12841800000024,119.48730499999965,179.48730499999965,191.41015599999992,192.43603499999972,174.23095699999976,261.2822270000006,147.94873000000007,204.3588869999994,203.7177729999994
217,198.0771479999994,195.12841800000024,182.3076170000004,-107.56420900000057,191.0258789999998,120.64111300000059,189.48730499999965,200.2563479999999,198.58984400000008,178.7177729999994,265.3847659999992,152.43603499999972,213.3334960000002,209.61523400000078
218,207.6923829999996,203.46142599999985,190.12841800000024,-102.30761700000039,204.61523400000078,120.51269500000035,195.6411130000006,211.0258789999998,202.56396500000028,186.6665039999998,271.79492200000004,158.84619099999964,225.89746099999957,217.82031300000017
219,215.89746099999957,207.82031300000017,196.0258789999998,-97.82055700000001,217.94873000000007,119.48730499999965,195.6411130000006,218.46142599999985,203.9741210000002,196.0258789999998,278.7177729999994,164.48730499999965,236.0258789999998,224.61523400000078
220,218.3334960000002,205.38476599999922,197.17968800000017,-98.07690400000001,221.9228520000006,118.7177729999994,190.2563479999999,218.7177729999994,203.3334960000002,201.6665039999998,282.05126999999993,166.0258789999998,238.3334960000002,225.76904300000024
221,212.17968800000017,195.6411130000006,192.43603499999972,-105.1281740000004,212.6923829999996,118.3334960000002,182.17968800000017,211.41015599999992,199.61523400000078,198.20507799999996,277.4360349999997,162.05126999999993,231.2822270000006,218.46142599999985
222,198.7177729999994,181.9228520000006,183.7177729999994,-117.30761700000039,194.3588869999994,117.94873000000007,174.48730499999965,199.48730499999965,192.05126999999993,184.7436520000001,264.48730499999965,153.7177729999994,218.20507799999996,204.48730499999965
223,184.23095699999976,170.76904300000024,175.51269500000035,-129.10253899999998,178.0771479999994,117.30761700000039,170.0,188.46142599999985,183.0771479999994,167.82031300000017,248.7177729999994,145.0,206.15380900000036,190.2563479999999
224,176.79492200000004,168.46142599999985,171.79492200000004,-133.84619099999964,173.7177729999994,117.30761700000039,170.0,184.10253900000043,178.20507799999996,157.17968800000017,238.9741210000002,140.2563479999999,202.05126999999993,183.46142599999985
225,180.6411130000006,177.17968800000017,173.58984400000008,-128.20507799999996,183.0771479999994,118.46142599999985,173.84619099999964,188.20507799999996,181.6665039999998,158.46142599999985,240.12841800000024,141.41015599999992,208.84619099999964,188.58984400000008
226,192.6923829999996,192.43603499999972,178.3334960000002,-116.15380900000036,198.7177729999994,120.0,178.9741210000002,197.17968800000017,192.17968800000017,169.87158199999976,250.0,146.9228520000006,223.3334960000002,202.56396500000028
227,205.12841800000024,206.41015599999992,182.3076170000004,-105.38452099999995,210.38476599999922,120.51269500000035,182.82031300000017,204.61523400000078,203.7177729999994,183.3334960000002,261.6665039999998,153.7177729999994,238.20507799999996,217.3076170000004
228,211.15380900000036,213.46142599999985,183.20507799999996,-101.41015600000037,212.82031300000017,119.61523400000078,184.10253900000043,206.15380900000036,209.3588869999994,190.51269500000035,269.48730499999965,158.9741210000002,247.82031300000017,226.15380900000036
229,210.38476599999922,213.9741210000002,182.17968800000017,-103.71801800000003,208.7177729999994,118.46142599999985,182.94873000000007,201.41015599999992,205.89746099999957,188.20507799999996,272.82031300000017,161.41015599999992,251.6665039999998,228.20507799999996
230,208.0771479999994,212.94873000000007,182.56396500000028,-106.53857400000015,204.61523400000078,118.46142599999985,180.2563479999999,194.7436520000001,197.17968800000017,179.7436520000001,274.87158199999976,161.41015599999992,253.9741210000002,228.84619099999964
231,210.76904300000024,216.15380900000036,186.6665039999998,-104.35888699999987,205.51269500000035,120.38476599999922,178.20507799999996,192.17968800000017,190.89746099999957,173.20507799999996,278.9741210000002,160.89746099999957,259.48730499999965,234.3588869999994
232,220.38476599999922,225.0,193.3334960000002,-96.53857400000015,211.41015599999992,123.3334960000002,178.58984400000008,196.2822270000006,192.94873000000007,175.2563479999999,285.2563479999999,161.6665039999998,269.48730499999965,245.51269500000035
233,232.17968800000017,235.76904300000024,198.84619099999964,-87.69238299999961,217.17968800000017,125.64111300000059,181.2822270000006,204.23095699999976,201.53857400000015,185.0,290.76904300000024,164.10253900000043,280.0,257.3076170000004
234,238.9741210000002,242.05126999999993,199.23095699999976,-83.46142599999985,217.05126999999993,125.38476599999922,184.48730499999965,209.3588869999994,208.7177729999994,194.48730499999965,291.0258789999998,166.0258789999998,285.0,262.4360349999997
235,236.2822270000006,238.84619099999964,193.0771479999994,-87.17944299999999,208.84619099999964,122.17968800000017,185.2563479999999,206.9228520000006,207.56396500000028,194.87158199999976,283.9741210000002,165.38476599999922,281.9228520000006,257.94873000000007
236,225.89746099999957,227.56396500000028,183.3334960000002,-97.69238299999961,195.51269500000035,117.94873000000007,181.9228520000006,197.56396500000028,197.94873000000007,183.58984400000008,272.4360349999997,161.79492200000004,273.9741210000002,247.43603499999972
237,214.48730499999965,215.0,175.0,-110.89746100000002,182.94873000000007,115.0,175.89746099999957,187.17968800000017,186.41015599999992,167.82031300000017,263.46142599999985,157.05126999999993,268.20507799999996,239.23095699999976
238,208.84619099999964,209.23095699999976,171.6665039999998,-121.66674799999964,176.2822270000006,115.0,170.12841800000024,181.79492200000004,179.87158199999976,157.43603499999972,262.94873000000007,154.3588869999994,270.89746099999957,239.7436520000001
239,212.05126999999993,213.20507799999996,173.9741210000002,-126.02563499999997,178.3334960000002,117.17968800000017,167.56396500000028,183.58984400000008,180.2563479999999,158.7177729999994,272.17968800000017,155.6411130000006,283.0771479999994,250.12841800000024
240,222.56396500000028,223.84619099999964,180.2563479999999,-122.30761700000039,190.0,119.74365200000011,169.7436520000001,190.76904300000024,185.38476599999922,170.0,286.15380900000036,160.6411130000006,301.15380900000036,265.51269500000035
241,235.38476599999922,235.2563479999999,188.0771479999994,-112.17944299999999,208.58984400000008,121.0258789999998,176.41015599999992,199.48730499999965,191.15380900000036,184.87158199999976,298.46142599999985,167.3076170000004,318.46142599999985,278.9741210000002
242,243.9741210000002,241.2822270000006,193.20507799999996,-101.66674799999964,225.76904300000024,120.51269500000035,183.9741210000002,205.0,194.61523400000078,194.7436520000001,304.10253900000043,171.79492200000004,328.20507799999996,284.6152340000008
243,242.3076170000004,237.05126999999993,191.2822270000006,-99.10253899999998,229.61523400000078,118.84619099999964,186.15380900000036,203.20507799999996,193.3334960000002,193.0771479999994,301.2822270000006,171.2822270000006,326.15380900000036,280.0
244,229.48730499999965,221.53857400000015,181.0258789999998,-108.33325200000036,213.58984400000008,117.17968800000017,179.87158199999976,193.3334960000002,187.05126999999993,180.51269500000035,291.6665039999998,165.2563479999999,313.3334960000002,267.3076170000004
245,212.43603499999972,199.7436520000001,167.82031300000017,-124.48706099999981,184.61523400000078,116.2822270000006,168.84619099999964,180.12841800000024,178.9741210000002,164.7436520000001,280.12841800000024,157.43603499999972,297.4360349999997,253.58984400000008
246,202.43603499999972,182.17968800000017,160.38476599999922,-135.89746100000002,160.38476599999922,115.89746099999957,162.17968800000017,171.6665039999998,175.12841800000024,156.6665039999998,273.46142599999985,153.3334960000002,289.6152340000008,247.05126999999993
247,207.17968800000017,178.84619099999964,164.3588869999994,-132.820557,156.9228520000006,115.51269500000035,166.6665039999998,174.23095699999976,179.7436520000001,162.3076170000004,275.76904300000024,156.41015599999992,295.89746099999957,252.43603499999972
248,224.61523400000078,192.05126999999993,177.3076170000004,-115.25634799999989,177.43603499999972,115.64111300000059,180.12841800000024,187.17968800000017,191.2822270000006,178.0771479999994,286.15380900000036,165.38476599999922,313.20507799999996,267.5639650000003
249,243.84619099999964,214.61523400000078,191.0258789999998,-94.61547900000005,208.84619099999964,116.79492200000004,193.0771479999994,202.94873000000007,203.0771479999994,194.23095699999976,298.46142599999985,175.0,330.89746099999957,283.7177729999994
250,252.43603499999972,233.46142599999985,196.53857400000015,-85.89746100000002,230.89746099999957,118.58984400000008,196.2822270000006,211.79492200000004,208.0771479999994,201.6665039999998,305.51269500000035,179.61523400000078,337.4360349999997,291.15380900000036
251,245.12841800000024,238.46142599999985,190.12841800000024,-95.89746100000002,229.7436520000001,119.87158199999976,187.43603499999972,208.58984400000008,203.84619099999964,197.6923829999996,303.20507799999996,176.6665039999998,328.3334960000002,284.87158199999976
252,227.05126999999993,227.94873000000007,176.0258789999998,-118.84619099999964,207.43603499999972,119.61523400000078,172.43603499999972,195.89746099999957,193.7177729999994,186.6665039999998,292.6923829999996,167.82031300000017,308.5898440000001,267.82031300000017
253,208.9741210000002,209.23095699999976,162.6923829999996,-141.02563499999997,179.87158199999976,118.3334960000002,160.12841800000024,181.6665039999998,184.10253900000043,175.76904300000024,278.84619099999964,157.82031300000017,288.3334960000002,249.10253900000043
254,200.12841800000024,192.56396500000028,156.41015599999992,-152.179443,164.87158199999976,117.30761700000039,156.2822270000006,172.6923829999996,179.23095699999976,169.61523400000078,267.3076170000004,151.15380900000036,275.51269500000035,236.6665039999998
255,201.41015599999992,184.3588869999994,157.43603499999972,-151.28198199999997,168.58984400000008,116.9228520000006,159.87158199999976,171.2822270000006,179.61523400000078,168.46142599999985,260.6411130000006,149.7436520000001,270.89746099999957,233.46142599999985
256,207.05126999999993,185.0,160.76904300000024,-145.1281740000004,182.17968800000017,117.17968800000017,165.2563479999999,174.7436520000001,181.9228520000006,170.38476599999922,258.84619099999964,152.17968800000017,270.2563479999999,236.0258789999998
257,210.12841800000024,190.89746099999957,162.3076170000004,-140.64111300000013,191.79492200000004,117.69238299999961,167.56396500000028,179.10253900000043,182.94873000000007,173.3334960000002,259.87158199999976,155.6411130000006,269.6152340000008,239.48730499999965
258,209.7436520000001,198.7177729999994,161.9228520000006,-138.97436500000003,191.2822270000006,118.3334960000002,167.43603499999972,182.94873000000007,183.46142599999985,177.56396500000028,262.4360349999997,158.7177729999994,268.9741210000002,242.3076170000004
259,209.87158199999976,206.6665039999998,162.82031300000017,-135.5129390000002,186.15380900000036,118.84619099999964,169.3588869999994,187.56396500000028,186.79492200000004,183.0771479999994,266.79492200000004,161.53857400000015,270.3847659999992,246.2822270000006
260,214.23095699999976,212.94873000000007,167.3076170000004,-127.30761700000039,185.12841800000024,119.23095699999976,176.15380900000036,192.94873000000007,193.46142599999985,187.6923829999996,272.3076170000004,164.23095699999976,273.84619099999964,251.6665039999998
261,220.38476599999922,214.48730499999965,172.17968800000017,-118.33325200000036,190.51269500000035,119.23095699999976,184.23095699999976,195.76904300000024,198.3334960000002,187.43603499999972,276.2822270000006,165.51269500000035,275.12841800000024,255.12841800000024
262,220.76904300000024,208.0771479999994,171.6665039999998,-116.92309599999999,197.17968800000017,118.84619099999964,186.41015599999992,191.2822270000006,194.7436520000001,179.23095699999976,274.48730499999965,163.84619099999964,268.9741210000002,251.41015599999992
263,210.51269500000035,194.10253900000043,163.20507799999996,-127.56420900000057,198.7177729999994,118.20507799999996,178.84619099999964,179.10253900000043,181.41015599999992,165.76904300000024,264.87158199999976,158.58984400000008,254.87158199999976,238.3334960000002
264,193.20507799999996,178.46142599999985,151.0258789999998,-144.8718259999996,195.0,117.69238299999961,165.51269500000035,165.89746099999957,165.51269500000035,153.7177729999994,250.89746099999957,151.53857400000015,239.48730499999965,220.76904300000024
265,178.9741210000002,169.10253900000043,142.43603499999972,-157.179443,190.51269500000035,117.30761700000039,155.6411130000006,160.6411130000006,156.9228520000006,150.0,239.23095699999976,146.2822270000006,231.2822270000006,207.17968800000017
266,175.2563479999999,169.61523400000078,141.9228520000006,-157.43579099999943,188.9741210000002,117.17968800000017,155.0,166.41015599999992,160.2563479999999,155.0,234.7436520000001,145.12841800000024,232.94873000000007,203.46142599999985
267,180.89746099999957,176.41015599999992,146.9228520000006,-147.820557,189.48730499999965,116.9228520000006,162.05126999999993,177.43603499999972,170.38476599999922,163.20507799999996,237.05126999999993,147.82031300000017,239.7436520000001,208.58984400000008
268,189.48730499999965,182.6923829999996,151.9228520000006,-137.6923829999996,189.10253900000043,117.05126999999993,170.89746099999957,185.51269500000035,178.84619099999964,168.3334960000002,242.17968800000017,152.05126999999993,244.61523400000078,216.9228520000006
269,195.51269500000035,185.6411130000006,153.3334960000002,-134.4870609999998,186.41015599999992,117.82031300000017,176.2822270000006,186.41015599999992,180.6411130000006,169.7436520000001,246.2822270000006,155.51269500000035,244.7436520000001,223.0771479999994
270,197.56396500000028,186.79492200000004,151.0258789999998,-138.97436500000003,182.17968800000017,118.3334960000002,175.6411130000006,182.05126999999993,177.3076170000004,170.6411130000006,247.94873000000007,156.79492200000004,242.56396500000028,225.12841800000024
271,196.53857400000015,188.3334960000002,147.43603499999972,-146.28198199999997,178.58984400000008,118.0771479999994,170.0,176.6665039999998,173.46142599999985,173.7177729999994,247.17968800000017,155.2563479999999,241.0258789999998,223.46142599999985
272,194.23095699999976,189.61523400000078,145.38476599999922,-150.2563479999999,176.9228520000006,117.30761700000039,162.43603499999972,173.3334960000002,172.56396500000028,177.56396500000028,244.87158199999976,151.79492200000004,241.0258789999998,220.0
273,192.05126999999993,189.61523400000078,146.9228520000006,-147.179443,178.20507799999996,116.53857400000015,158.20507799999996,173.3334960000002,175.51269500000035,178.9741210000002,243.0771479999994,148.84619099999964,241.15380900000036,217.43603499999972
274,191.79492200000004,188.9741210000002,152.3076170000004,-138.076904,183.3334960000002,116.79492200000004,160.76904300000024,177.43603499999972,181.41015599999992,177.05126999999993,243.7177729999994,149.3588869999994,241.0258789999998,217.3076170000004
275,195.0,190.89746099999957,159.3588869999994,-127.17944299999999,192.82031300000017,119.35888699999941,169.87158199999976,184.61523400000078,188.7177729999994,175.38476599999922,247.6923829999996,154.61523400000078,242.05126999999993,220.76904300000024
276,200.38476599999922,196.53857400000015,165.0,-119.48706099999981,205.76904300000024,124.10253900000043,179.61523400000078,192.56396500000028,195.12841800000024,177.6923829999996,252.82031300000017,161.41015599999992,245.12841800000024,225.76904300000024
277,203.46142599999985,201.2822270000006,165.2563479999999,-118.97436500000003,216.41015599999992,129.3588869999994,182.6923829999996,196.15380900000036,196.6665039999998,181.9228520000006,254.7436520000001,164.48730499999965,247.43603499999972,227.94873000000007
278,199.61523400000078,198.20507799999996,158.84619099999964,-126.28198199999997,216.6665039999998,131.53857400000015,176.15380900000036,191.9228520000006,190.76904300000024,181.53857400000015,250.6411130000006,160.0,243.9741210000002,223.46142599999985
279,189.61523400000078,185.51269500000035,149.10253900000043,-137.3076170000004,202.94873000000007,129.3588869999994,165.0,181.41015599999992,180.12841800000024,173.58984400000008,242.17968800000017,150.76904300000024,233.9741210000002,213.46142599999985
280,180.0,170.2563479999999,142.94873000000007,-145.2563479999999,182.05126999999993,124.87158199999976,158.9741210000002,172.17968800000017,172.05126999999993,163.7177729999994,235.76904300000024,143.84619099999964,223.46142599999985,204.87158199999976
281,177.05126999999993,163.46142599999985,144.3588869999994,-145.76928699999962,166.15380900000036,122.17968800000017,163.9741210000002,171.41015599999992,172.94873000000007,160.38476599999922,236.79492200000004,145.6411130000006,220.38476599999922,204.10253900000043
282,181.2822270000006,169.87158199999976,151.0258789999998,-141.28198199999997,164.23095699999976,123.58984400000008,176.53857400000015,179.87158199999976,182.05126999999993,166.2822270000006,243.46142599999985,154.87158199999976,226.53857400000015,210.76904300000024
283,187.43603499999972,183.84619099999964,156.15380900000036,-137.9487299999996,174.7436520000001,127.56396500000028,186.2822270000006,191.0258789999998,192.17968800000017,175.89746099999957,249.23095699999976,164.3588869999994,235.89746099999957,217.82031300000017
284,190.0,194.23095699999976,154.61523400000078,-139.8718259999996,188.9741210000002,130.51269500000035,185.76904300000024,196.9228520000006,196.0258789999998,181.2822270000006,247.6923829999996,166.53857400000015,239.87158199999976,218.3334960000002
285,187.43603499999972,193.58984400000008,147.6923829999996,-145.1281740000004,197.94873000000007,130.2563479999999,175.76904300000024,194.87158199999976,192.3076170000004,180.12841800000024,239.23095699999976,159.87158199999976,235.2563479999999,211.79492200000004
286,182.17968800000017,182.43603499999972,140.6411130000006,-148.71801800000003,197.05126999999993,126.15380900000036,164.23095699999976,187.17968800000017,184.61523400000078,176.0258789999998,229.23095699999976,149.87158199999976,224.61523400000078,202.82031300000017
287,177.3076170000004,167.3076170000004,137.6923829999996,-147.9487299999996,186.9228520000006,120.0,158.84619099999964,178.46142599999985,177.43603499999972,172.94873000000007,222.82031300000017,142.94873000000007,213.7177729999994,196.53857400000015
288,173.58984400000008,155.38476599999922,138.0771479999994,-145.38452099999995,172.17968800000017,115.38476599999922,160.89746099999957,171.6665039999998,172.17968800000017,171.41015599999992,220.51269500000035,142.05126999999993,206.0258789999998,193.58984400000008
289,170.0,150.2563479999999,138.46142599999985,-145.0,159.61523400000078,115.0,165.76904300000024,167.17968800000017,168.20507799999996,167.6923829999996,218.84619099999964,144.7436520000001,201.79492200000004,191.15380900000036
290,166.15380900000036,152.05126999999993,136.79492200000004,-146.923096,156.41015599999992,118.3334960000002,167.82031300000017,165.0,164.7436520000001,159.10253900000043,214.87158199999976,147.17968800000017,198.9741210000002,187.56396500000028
291,163.58984400000008,158.46142599999985,134.3588869999994,-146.79492200000004,165.6411130000006,122.82031300000017,165.51269500000035,167.05126999999993,163.20507799999996,148.0771479999994,209.7436520000001,147.6923829999996,197.05126999999993,184.10253900000043
292,165.76904300000024,167.82031300000017,135.12841800000024,-140.5129390000002,182.94873000000007,126.41015599999992,162.56396500000028,174.87158199999976,165.76904300000024,141.6665039999998,207.94873000000007,147.6923829999996,197.82031300000017,184.7436520000001
293,173.0771479999994,177.3076170000004,140.2563479999999,-129.61547900000005,197.43603499999972,127.94873000000007,163.3334960000002,186.6665039999998,172.17968800000017,146.0258789999998,211.9228520000006,148.7177729999994,202.6923829999996,190.76904300000024
294,181.0258789999998,183.20507799999996,145.76904300000024,-122.17944299999999,198.20507799999996,127.30761700000039,166.79492200000004,195.89746099999957,178.46142599999985,160.2563479999999,218.20507799999996,149.7436520000001,209.48730499999965,198.20507799999996
295,183.58984400000008,181.9228520000006,146.2822270000006,-125.38452099999995,183.3334960000002,125.12841800000024,168.46142599999985,195.2563479999999,179.87158199999976,175.6411130000006,220.76904300000024,148.7177729999994,213.3334960000002,200.38476599999922
296,178.9741210000002,174.87158199999976,141.2822270000006,-136.923096,163.0771479999994,122.69238299999961,165.76904300000024,185.2563479999999,176.41015599999992,183.3334960000002,217.94873000000007,145.51269500000035,211.9228520000006,195.89746099999957
297,173.0771479999994,169.48730499999965,136.15380900000036,-145.5129390000002,153.0771479999994,121.2822270000006,162.17968800000017,175.38476599999922,174.10253900000043,181.53857400000015,215.6411130000006,143.9741210000002,208.20507799999996,190.6411130000006
298,174.10253900000043,173.58984400000008,137.82031300000017,-141.02563499999997,161.6665039999998,121.41015599999992,163.58984400000008,176.15380900000036,180.2563479999999,176.9228520000006,221.6665039999998,148.46142599999985,207.94873000000007,192.56396500000028
299,183.58984400000008,187.05126999999993,147.3076170000004,-124.23071300000038,183.58984400000008,122.94873000000007,171.53857400000015,188.9741210000002,194.7436520000001,177.3076170000004,236.79492200000004,158.3334960000002,213.20507799999996,203.20507799999996
300,194.23095699999976,200.38476599999922,158.20507799999996,-106.66674799999964,203.0771479999994,124.48730499999965,180.38476599999922,203.58984400000008,208.46142599999985,183.46142599999985,252.3076170000004,167.56396500000028,219.7436520000001,215.0
301,195.76904300000024,202.43603499999972,161.15380900000036,-101.53857400000015,206.0258789999998,124.48730499999965,181.79492200000004,207.17968800000017,210.2563479999999,188.46142599999985,255.6411130000006,168.58984400000008,220.12841800000024,217.3076170000004
302,184.87158199999976,189.10253900000043,152.17968800000017,-112.17944299999999,191.15380900000036,122.43603499999972,172.56396500000028,195.12841800000024,196.6665039999998,185.6411130000006,241.41015599999992,159.23095699999976,211.53857400000015,205.2563479999999
303,167.82031300000017,168.0771479999994,136.0258789999998,-130.38452099999995,170.2563479999999,119.23095699999976,158.20507799999996,175.89746099999957,176.0258789999998,175.51269500000035,216.0258789999998,145.2563479999999,198.20507799999996,185.38476599999922
304,155.2563479999999,152.17968800000017,122.43603499999972,-144.35888699999987,157.6923829999996,116.79492200000004,147.6923829999996,162.17968800000017,160.76904300000024,163.7177729999994,192.82031300000017,135.38476599999922,187.82031300000017,169.7436520000001
305,152.6923829999996,148.9741210000002,118.0771479999994,-146.41015600000037,158.58984400000008,116.2822270000006,146.41015599999992,161.2822270000006,157.56396500000028,155.89746099999957,182.43603499999972,134.7436520000001,185.12841800000024,166.41015599999992
306,157.56396500000028,156.15380900000036,123.0771479999994,-137.820557,166.0258789999998,116.79492200000004,153.3334960000002,170.38476599999922,164.10253900000043,153.3334960000002,186.2822270000006,141.2822270000006,188.7177729999994,173.7177729999994
307,164.10253900000043,166.6665039999998,132.56396500000028,-124.48706099999981,171.0258789999998,117.17968800000017,163.20507799999996,181.15380900000036,173.46142599999985,155.6411130000006,197.82031300000017,148.3334960000002,194.3588869999994,184.3588869999994
308,169.23095699999976,174.7436520000001,141.15380900000036,-111.92309599999999,171.79492200000004,116.9228520000006,171.41015599999992,187.56396500000028,181.15380900000036,161.53857400000015,209.48730499999965,151.41015599999992,198.84619099999964,192.6923829999996
309,173.0771479999994,179.48730499999965,145.76904300000024,-103.58984399999963,172.94873000000007,117.17968800000017,176.15380900000036,189.10253900000043,186.2822270000006,168.84619099999964,216.2822270000006,150.38476599999922,201.79492200000004,197.3076170000004
310,176.53857400000015,181.6665039999998,145.89746099999957,-101.28198199999997,178.20507799999996,118.3334960000002,177.43603499999972,188.46142599999985,188.9741210000002,174.61523400000078,217.6923829999996,148.46142599999985,203.20507799999996,199.10253900000043
311,178.58984400000008,181.53857400000015,142.3076170000004,-105.38452099999995,184.87158199999976,119.87158199999976,176.41015599999992,188.3334960000002,188.7177729999994,175.89746099999957,215.51269500000035,147.94873000000007,203.0771479999994,198.58984400000008
312,177.82031300000017,178.7177729999994,137.43603499999972,-113.97436500000003,186.6665039999998,120.51269500000035,173.9741210000002,188.3334960000002,184.7436520000001,172.05126999999993,211.79492200000004,149.10253900000043,201.41015599999992,195.6411130000006
313,173.84619099999964,173.7177729999994,133.7177729999994,-123.07690400000001,179.48730499999965,119.48730499999965,171.0258789999998,187.17968800000017,177.43603499999972,165.51269500000035,208.3334960000002,150.12841800000024,198.46142599999985,191.0258789999998
314,168.0771479999994,168.58984400000008,132.6923829999996,-128.58984399999963,166.6665039999998,117.43603499999972,167.94873000000007,183.7177729999994,169.23095699999976,160.0,206.15380900000036,149.87158199999976,195.0,186.79492200000004
315,163.9741210000002,166.0258789999998,134.61523400000078,-128.71801800000003,156.2822270000006,116.53857400000015,165.89746099999957,179.87158199999976,163.9741210000002,159.61523400000078,206.15380900000036,148.58984400000008,192.3076170000004,184.87158199999976
316,165.0,168.46142599999985,138.7177729999994,-125.0,156.0258789999998,118.9741210000002,166.15380900000036,178.7177729999994,165.2563479999999,165.6411130000006,209.10253900000043,148.46142599999985,192.82031300000017,187.43603499999972
317,171.9228520000006,175.6411130000006,144.10253900000043,-121.02563499999997,166.9228520000006,124.10253900000043,169.61523400000078,182.56396500000028,173.20507799999996,176.15380900000036,214.23095699999976,151.0258789999998,197.6923829999996,194.23095699999976
318,181.79492200000004,185.12841800000024,149.61523400000078,-118.97436500000003,182.6923829999996,128.7177729999994,175.12841800000024,190.38476599999922,183.7177729999994,186.2822270000006,219.87158199999976,155.76904300000024,205.38476599999922,202.94873000000007
319,190.6411130000006,193.84619099999964,154.61523400000078,-118.07690400000001,195.38476599999922,129.23095699999976,180.38476599999922,198.3334960000002,191.6665039999998,191.9228520000006,224.7436520000001,160.89746099999957,213.20507799999996,211.15380900000036
320,196.41015599999992,199.87158199999976,158.58984400000008,-115.76928699999962,200.51269500000035,125.51269500000035,183.20507799999996,203.46142599999985,194.10253900000043,193.0771479999994,228.58984400000008,164.61523400000078,218.3334960000002,217.43603499999972
321,197.6923829999996,201.79492200000004,160.38476599999922,-111.92309599999999,198.58984400000008,120.12841800000024,182.05126999999993,203.7177729999994,191.41015599999992,192.43603499999972,230.76904300000024,165.76904300000024,218.7177729999994,220.6411130000006
322,192.82031300000017,197.56396500000028,157.56396500000028,-111.92309599999999,191.2822270000006,116.15380900000036,176.53857400000015,197.6923829999996,184.87158199999976,189.48730499999965,228.0771479999994,162.94873000000007,212.43603499999972,218.46142599999985
323,180.6411130000006,184.7436520000001,148.9741210000002,-122.05127000000039,178.9741210000002,115.12841800000024,166.6665039999998,185.12841800000024,174.7436520000001,178.84619099999964,216.79492200000004,155.6411130000006,198.84619099999964,207.94873000000007
324,163.3334960000002,164.61523400000078,136.2822270000006,-142.3076170000004,162.82031300000017,116.15380900000036,154.23095699999976,168.20507799999996,161.15380900000036,157.43603499999972,197.43603499999972,145.0,180.38476599999922,189.3588869999994
325,147.43603499999972,144.61523400000078,125.38476599999922,-163.20507799999996,147.6923829999996,117.69238299999961,143.58984400000008,153.0771479999994,147.56396500000028,130.51269500000035,177.6923829999996,135.0,163.58984400000008,169.23095699999976
326,140.89746099999957,135.0,122.17968800000017,-171.923096,140.89746099999957,118.84619099999964,139.48730499999965,146.2822270000006,139.87158199999976,111.79492200000004,167.3076170000004,129.87158199999976,155.89746099999957,157.94873000000007
327,146.53857400000015,141.2822270000006,128.0771479999994,-163.20507799999996,146.15380900000036,119.48730499999965,142.6923829999996,149.87158199999976,141.79492200000004,112.43603499999972,171.0258789999998,131.6665039999998,160.0,161.41015599999992
328,159.48730499999965,158.58984400000008,138.46142599999985,-144.4870609999998,160.2563479999999,119.61523400000078,149.23095699999976,159.48730499999965,151.15380900000036,131.41015599999992,183.9741210000002,138.20507799999996,171.2822270000006,175.76904300000024
329,170.0,174.7436520000001,146.41015599999992,-129.4870609999998,173.7177729999994,119.10253900000043,152.82031300000017,167.05126999999993,161.0258789999998,156.2822270000006,196.0258789999998,144.87158199999976,181.41015599999992,190.2563479999999
330,171.79492200000004,179.48730499999965,148.20507799999996,-127.94872999999961,178.3334960000002,117.94873000000007,150.76904300000024,168.20507799999996,165.6411130000006,172.3076170000004,200.12841800000024,148.20507799999996,184.23095699999976,195.38476599999922
331,166.53857400000015,172.94873000000007,144.87158199999976,-137.820557,173.20507799999996,117.17968800000017,146.41015599999992,163.9741210000002,165.0,173.7177729999994,196.53857400000015,147.94873000000007,180.2563479999999,190.6411130000006
332,161.2822270000006,164.23095699999976,141.6665039999998,-148.71801800000003,165.12841800000024,117.82031300000017,145.2563479999999,159.87158199999976,162.6923829999996,166.15380900000036,191.6665039999998,146.6665039999998,175.2563479999999,183.7177729999994
333,161.79492200000004,162.17968800000017,142.3076170000004,-150.38452099999995,163.3334960000002,120.38476599999922,150.38476599999922,160.6411130000006,161.6665039999998,159.61523400000078,191.2822270000006,146.41015599999992,175.0,182.43603499999972
334,167.43603499999972,168.46142599999985,146.6665039999998,-140.76928699999962,170.51269500000035,124.10253900000043,158.7177729999994,165.38476599999922,161.79492200000004,159.87158199999976,194.3588869999994,146.79492200000004,180.2563479999999,187.3076170000004
335,172.43603499999972,176.41015599999992,150.89746099999957,-126.79492200000004,180.2563479999999,126.53857400000015,163.9741210000002,170.0,160.6411130000006,162.94873000000007,195.38476599999922,145.76904300000024,185.38476599999922,191.6665039999998
336,170.6411130000006,177.43603499999972,150.38476599999922,-119.48706099999981,181.15380900000036,125.25634799999989,161.9228520000006,169.87158199999976,156.0258789999998,159.61523400000078,189.10253900000043,142.05126999999993,183.3334960000002,188.20507799999996
337,159.87158199999976,166.9228520000006,143.20507799999996,-125.76928699999962,166.6665039999998,120.64111300000059,153.46142599999985,163.46142599999985,147.82031300000017,144.7436520000001,176.53857400000015,136.79492200000004,170.51269500000035,174.87158199999976
338,143.46142599999985,147.82031300000017,131.41015599999992,-143.71801800000003,140.76904300000024,115.12841800000024,143.3334960000002,153.20507799999996,137.94873000000007,122.56396500000028,163.0771479999994,131.53857400000015,150.89746099999957,156.53857400000015
339,128.58984400000008,128.0771479999994,120.0,-163.46142599999985,116.6665039999998,112.17968800000017,136.41015599999992,143.46142599999985,129.7436520000001,105.0,154.48730499999965,127.56396500000028,133.20507799999996,141.15380900000036
340,121.9228520000006,116.79492200000004,113.46142599999985,-173.84619099999964,108.9741210000002,113.0771479999994,135.2563479999999,138.3334960000002,126.9228520000006,102.56396500000028,153.20507799999996,125.76904300000024,126.15380900000036,135.51269500000035
341,125.89746099999957,119.48730499999965,114.48730499999965,-169.4870609999998,122.43603499999972,116.79492200000004,139.48730499999965,140.2563479999999,131.53857400000015,116.9228520000006,158.3334960000002,127.05126999999993,133.0771479999994,141.41015599999992
342,137.43603499999972,134.61523400000078,122.17968800000017,-154.7436520000001,148.20507799999996,120.12841800000024,146.0258789999998,148.20507799999996,142.3076170000004,139.61523400000078,166.79492200000004,131.2822270000006,149.3588869999994,155.12841800000024
343,149.87158199999976,153.7177729999994,131.9228520000006,-140.76928699999962,170.0,120.89746099999957,151.41015599999992,157.94873000000007,154.87158199999976,157.56396500000028,174.87158199999976,137.56396500000028,165.51269500000035,169.61523400000078
344,156.9228520000006,166.79492200000004,138.58984400000008,-136.02563499999997,175.2563479999999,118.7177729999994,153.58984400000008,164.61523400000078,164.48730499999965,162.05126999999993,180.76904300000024,143.9741210000002,173.20507799999996,178.84619099999964
345,157.05126999999993,169.10253900000043,140.51269500000035,-140.2563479999999,164.61523400000078,116.0258789999998,153.3334960000002,166.0258789999998,168.3334960000002,154.61523400000078,184.3588869999994,148.20507799999996,171.53857400000015,180.89746099999957
346,153.0771479999994,162.43603499999972,139.23095699999976,-145.64111300000013,148.84619099999964,115.38476599999922,152.94873000000007,163.84619099999964,165.89746099999957,143.58984400000008,186.53857400000015,149.10253900000043,165.89746099999957,178.3334960000002
347,149.23095699999976,152.6923829999996,137.82031300000017,-144.8718259999996,139.7436520000001,118.0771479999994,152.94873000000007,160.38476599999922,158.58984400000008,137.3076170000004,186.6665039999998,146.79492200000004,162.3076170000004,174.23095699999976
348,147.94873000000007,145.76904300000024,137.43603499999972,-137.6923829999996,142.05126999999993,123.3334960000002,152.43603499999972,157.05126999999993,149.10253900000043,138.9741210000002,183.9741210000002,143.20507799999996,162.82031300000017,170.0
349,149.23095699999976,145.2563479999999,137.43603499999972,-129.8718259999996,153.7177729999994,129.23095699999976,150.38476599999922,154.48730499999965,142.05126999999993,146.53857400000015,179.7436520000001,141.0258789999998,165.89746099999957,166.53857400000015
350,151.9228520000006,151.79492200000004,137.82031300000017,-126.79492200000004,168.20507799999996,133.84619099999964,148.3334960000002,153.7177729999994,141.9228520000006,155.0,177.56396500000028,142.43603499999972,169.23095699999976,165.6411130000006
351,154.10253900000043,161.9228520000006,138.20507799999996,-129.10253899999998,178.3334960000002,135.51269500000035,148.20507799999996,155.51269500000035,149.48730499999965,159.87158199999976,179.7436520000001,146.2822270000006,171.2822270000006,167.94873000000007
352,153.84619099999964,169.10253900000043,138.7177729999994,-133.71801800000003,178.9741210000002,133.20507799999996,150.0,158.7177729999994,159.87158199999976,158.7177729999994,183.58984400000008,149.61523400000078,171.53857400000015,171.6665039999998
353,150.6411130000006,168.7177729999994,138.7177729999994,-136.41015600000037,170.0,127.82031300000017,151.6665039999998,160.89746099999957,165.76904300000024,152.6923829999996,183.84619099999964,149.87158199999976,169.87158199999976,173.20507799999996
354,146.9228520000006,161.9228520000006,138.46142599999985,-135.1281740000004,156.79492200000004,121.6665039999998,151.53857400000015,160.51269500000035,163.84619099999964,146.2822270000006,178.46142599999985,147.6923829999996,167.43603499999972,171.41015599999992
355,146.2822270000006,154.7436520000001,138.7177729999994,-130.89746100000002,146.79492200000004,117.56396500000028,150.0,158.7177729999994,156.53857400000015,144.3588869999994,171.2822270000006,146.53857400000015,165.89746099999957,169.23095699999976
356,149.48730499999965,152.17968800000017,139.3588869999994,-127.69238299999961,144.7436520000001,116.2822270000006,148.7177729999994,157.17968800000017,149.10253900000043,148.20507799999996,167.82031300000017,148.20507799999996,166.53857400000015,169.3588869999994
357,152.56396500000028,153.3334960000002,139.23095699999976,-130.2563479999999,147.56396500000028,116.9228520000006,148.20507799999996,155.12841800000024,145.38476599999922,153.7177729999994,169.61523400000078,150.38476599999922,167.43603499999972,170.51269500000035
358,150.38476599999922,153.46142599999985,136.53857400000015,-140.2563479999999,148.0771479999994,117.82031300000017,146.9228520000006,151.0258789999998,144.87158199999976,154.7436520000001,172.56396500000028,148.46142599999985,165.76904300000024,168.46142599999985
359,141.53857400000015,149.23095699999976,131.15380900000036,-154.10253899999998,142.05126999999993,118.20507799999996,143.7177729999994,145.6411130000006,145.6411130000006,148.7177729999994,171.9228520000006,141.53857400000015,160.2563479999999,161.15380900000036
360,131.41015599999992,142.94873000000007,126.15380900000036,-164.10253899999998,133.58984400000008,118.20507799999996,139.7436520000001,142.17968800000017,147.17968800000017,140.51269500000035,167.3076170000004,133.9741210000002,153.84619099999964,151.9228520000006
361,127.56396500000028,140.6411130000006,125.64111300000059,-164.10253899999998,131.79492200000004,118.20507799999996,138.58984400000008,144.23095699999976,150.76904300000024,138.9741210000002,163.84619099999964,131.2822270000006,152.05126999999993,147.43603499999972
362,133.46142599999985,147.43603499999972,131.0258789999998,-154.7436520000001,142.56396500000028,118.3334960000002,143.20507799999996,152.17968800000017,158.20507799999996,148.84619099999964,166.2822270000006,135.6411130000006,158.7177729999994,151.79492200000004
363,144.61523400000078,161.15380900000036,139.23095699999976,-143.58984399999963,160.76904300000024,118.46142599999985,152.05126999999993,162.56396500000028,168.46142599999985,165.51269500000035,173.84619099999964,143.46142599999985,171.53857400000015,162.6923829999996
364,152.43603499999972,172.94873000000007,143.9741210000002,-138.97436500000003,174.23095699999976,118.7177729999994,160.12841800000024,169.23095699999976,176.79492200000004,176.9228520000006,180.51269500000035,148.46142599999985,182.3076170000004,172.05126999999993
365,150.51269500000035,172.82031300000017,141.53857400000015,-143.58984399999963,172.3076170000004,118.58984400000008,161.53857400000015,167.82031300000017,177.05126999999993,174.23095699999976,180.6411130000006,146.15380900000036,182.43603499999972,172.3076170000004
366,139.10253900000043,157.82031300000017,133.20507799999996,-153.20507799999996,155.76904300000024,118.0771479999994,153.84619099999964,158.46142599999985,166.2822270000006,157.6923829999996,172.6923829999996,137.43603499999972,169.48730499999965,161.9228520000006
367,125.38476599999922,135.89746099999957,123.7177729999994,-160.64111300000013,135.2563479999999,117.43603499999972,140.89746099999957,145.6411130000006,148.84619099999964,137.82031300000017,161.15380900000036,127.69238299999961,149.87158199999976,147.17968800000017
368,117.30761700000039,120.76904300000024,118.3334960000002,-161.15380900000036,124.35888699999941,117.05126999999993,129.7436520000001,136.9228520000006,134.7436520000001,127.94873000000007,153.20507799999996,123.46142599999985,135.51269500000035,137.56396500000028
369,119.87158199999976,123.7177729999994,120.38476599999922,-154.4870609999998,130.12841800000024,117.17968800000017,127.56396500000028,137.82031300000017,133.20507799999996,135.0,154.23095699999976,127.05126999999993,136.2822270000006,140.0
370,130.38476599999922,143.7177729999994,128.7177729999994,-144.61547900000005,147.43603499999972,117.82031300000017,135.2563479999999,147.6923829999996,145.12841800000024,154.3588869999994,162.82031300000017,135.0,151.79492200000004,152.94873000000007
371,140.89746099999957,166.6665039999998,137.3076170000004,-138.71801800000003,162.43603499999972,118.3334960000002,146.9228520000006,158.84619099999964,160.76904300000024,171.9228520000006,170.89746099999957,140.89746099999957,170.2563479999999,166.79492200000004
372,143.84619099999964,176.15380900000036,140.12841800000024,-142.43579099999943,163.58984400000008,118.58984400000008,153.20507799999996,162.43603499999972,167.94873000000007,175.12841800000024,171.2822270000006,140.38476599999922,177.17968800000017,170.89746099999957
373,138.20507799999996,166.9228520000006,136.15380900000036,-154.61547900000005,152.17968800000017,118.3334960000002,150.12841800000024,156.2822270000006,161.53857400000015,163.0771479999994,164.48730499999965,134.7436520000001,168.3334960000002,162.94873000000007
374,130.2563479999999,149.48730499999965,130.38476599999922,-166.15380900000036,140.38476599999922,117.82031300000017,141.9228520000006,147.05126999999993,148.58984400000008,146.6665039999998,158.46142599999985,130.0,152.94873000000007,150.6411130000006
375,127.43603499999972,139.61523400000078,129.3588869999994,-167.820557,139.23095699999976,117.56396500000028,136.6665039999998,143.84619099999964,140.2563479999999,139.10253900000043,159.87158199999976,130.76904300000024,145.0,144.48730499999965
376,131.79492200000004,144.61523400000078,134.61523400000078,-156.923096,148.3334960000002,117.82031300000017,138.9741210000002,149.48730499999965,142.82031300000017,143.84619099999964,167.6923829999996,136.15380900000036,150.51269500000035,149.10253900000043
377,139.61523400000078,158.7177729999994,142.94873000000007,-138.20507799999996,158.58984400000008,118.3334960000002,146.9228520000006,159.23095699999976,153.9741210000002,155.0,175.6411130000006,142.17968800000017,164.23095699999976,161.0258789999998
378,147.56396500000028,171.41015599999992,150.2563479999999,-118.33325200000036,163.46142599999985,119.10253900000043,155.76904300000024,167.17968800000017,166.41015599999992,164.61523400000078,180.12841800000024,146.6665039999998,176.6665039999998,173.58984400000008
379,154.23095699999976,176.6665039999998,154.61523400000078,-102.17944299999999,164.61523400000078,120.0,162.17968800000017,171.41015599999992,174.87158199999976,169.87158199999976,181.6665039999998,149.87158199999976,182.56396500000028,182.56396500000028
380,158.20507799999996,175.12841800000024,155.89746099999957,-92.43579099999943,166.53857400000015,120.38476599999922,163.9741210000002,172.17968800000017,176.9228520000006,170.51269500000035,181.9228520000006,151.9228520000006,181.53857400000015,185.76904300000024
381,156.15380900000036,170.38476599999922,153.7177729999994,-91.28198199999997,169.7436520000001,119.48730499999965,160.6411130000006,168.9741210000002,172.17968800000017,166.6665039999998,179.61523400000078,150.89746099999957,175.2563479999999,181.2822270000006
382,147.56396500000028,165.6411130000006,148.58984400000008,-96.92309599999999,172.05126999999993,118.0771479999994,153.3334960000002,162.56396500000028,162.43603499999972,159.23095699999976,173.9741210000002,145.76904300000024,167.17968800000017,170.51269500000035
383,137.17968800000017,163.7177729999994,143.7177729999994,-102.30761700000039,172.56396500000028,117.69238299999961,146.6665039999998,156.0258789999998,153.20507799999996,152.6923829999996,167.82031300000017,139.10253900000043,162.17968800000017,159.87158199999976
