,EEG.AF3,EEG.F7,EEG.F3,EEG.FC5,EEG.T7,EEG.P7,EEG.O1,EEG.O2,EEG.P8,EEG.T8,EEG.FC6,EEG.F4,EEG.F8,EEG.AF4
0,116.53857400000015,102.43603499999972,146.41015599999992,74.23095699999976,130.2563479999999,117.05126999999993,128.46142599999985,123.58984400000008,114.87158199999976,117.43603499999972,110.64111300000059,115.38476599999922,106.0258789999998,106.53857400000015
1,119.48730499999965,112.43603499999972,147.82031300000017,82.30761700000039,140.89746099999957,117.94873000000007,133.9741210000002,127.43603499999972,120.25634799999989,118.7177729999994,112.94873000000007,117.30761700000039,111.9228520000006,112.82031300000017
2,124.35888699999941,124.87158199999976,151.15380900000036,91.6665039999998,150.6411130000006,119.61523400000078,140.6411130000006,134.10253900000043,130.0,122.17968800000017,118.3334960000002,120.64111300000059,119.23095699999976,121.2822270000006
3,127.69238299999961,131.0258789999998,153.84619099999964,96.79492200000004,153.7177729999994,120.89746099999957,143.84619099999964,137.94873000000007,137.43603499999972,125.38476599999922,123.0771479999994,122.82031300000017,122.82031300000017,125.64111300000059
4,125.76904300000024,125.38476599999922,152.43603499999972,93.9741210000002,147.56396500000028,120.51269500000035,140.12841800000024,133.84619099999964,136.53857400000015,125.0,123.0771479999994,121.6665039999998,118.84619099999964,121.15380900000036
5,118.7177729999994,110.76904300000024,146.79492200000004,85.25634799999989,135.12841800000024,118.20507799999996,131.0258789999998,122.30761700000039,126.53857400000015,120.38476599999922,117.05126999999993,117.43603499999972,108.3334960000002,108.9741210000002
6,111.15380900000036,96.6665039999998,141.2822270000006,78.20507799999996,125.12841800000024,115.64111300000059,122.69238299999961,110.64111300000059,113.3334960000002,114.48730499999965,109.35888699999941,112.82031300000017,98.7177729999994,97.05126999999993
7,108.7177729999994,92.82031300000017,141.0258789999998,80.0,126.15380900000036,115.0,120.64111300000059,107.17968800000017,105.38476599999922,111.6665039999998,106.41015599999992,111.41015599999992,97.82031300000017,93.3334960000002
8,112.82031300000017,101.15380900000036,147.05126999999993,89.74365200000011,139.23095699999976,117.05126999999993,125.12841800000024,113.84619099999964,106.53857400000015,112.94873000000007,111.41015599999992,113.9741210000002,107.17968800000017,99.48730499999965
9,118.9741210000002,113.46142599999985,154.7436520000001,99.23095699999976,154.10253900000043,120.12841800000024,131.41015599999992,124.48730499999965,113.58984400000008,115.12841800000024,120.12841800000024,117.56396500000028,119.23095699999976,108.84619099999964
10,120.38476599999922,117.56396500000028,158.20507799999996,99.87158199999976,157.43603499999972,121.2822270000006,133.84619099999964,129.87158199999976,118.84619099999964,113.0771479999994,124.74365200000011,118.0771479999994,122.94873000000007,112.30761700000039
11,115.25634799999989,108.84619099999964,155.6411130000006,90.51269500000035,145.12841800000024,119.87158199999976,131.41015599999992,126.15380900000036,117.17968800000017,106.0258789999998,121.9228520000006,115.0,114.61523400000078,106.79492200000004
12,109.10253900000043,95.12841800000024,151.0258789999998,79.74365200000011,127.56396500000028,118.0771479999994,128.20507799999996,118.46142599999985,111.2822270000006,99.74365200000011,117.17968800000017,111.9228520000006,101.6665039999998,98.84619099999964
13,110.64111300000059,90.89746099999957,151.2822270000006,79.23095699999976,122.69238299999961,118.7177729999994,129.48730499999965,116.53857400000015,109.10253900000043,102.69238299999961,120.38476599999922,113.9741210000002,97.82031300000017,98.9741210000002
14,122.94873000000007,102.94873000000007,159.23095699999976,92.56396500000028,138.7177729999994,122.30761700000039,136.9228520000006,125.76904300000024,116.0258789999998,116.9228520000006,136.2822270000006,121.79492200000004,110.38476599999922,111.53857400000015
15,139.10253900000043,123.46142599999985,170.51269500000035,111.79492200000004,164.61523400000078,125.89746099999957,146.15380900000036,141.79492200000004,129.48730499999965,135.38476599999922,158.84619099999964,131.0258789999998,132.6923829999996,129.87158199999976
16,147.56396500000028,137.05126999999993,176.9228520000006,123.9741210000002,180.51269500000035,126.41015599999992,151.0258789999998,154.48730499999965,140.2563479999999,148.0771479999994,175.89746099999957,135.0,149.7436520000001,141.2822270000006
17,142.6923829999996,135.12841800000024,173.46142599999985,121.9228520000006,176.9228520000006,123.3334960000002,148.0771479999994,155.51269500000035,141.2822270000006,151.6665039999998,179.10253900000043,131.15380900000036,151.15380900000036,138.3334960000002
18,128.46142599999985,122.17968800000017,162.17968800000017,110.0,162.3076170000004,119.10253900000043,138.58984400000008,144.61523400000078,133.20507799999996,151.53857400000015,170.51269500000035,122.56396500000028,137.82031300000017,124.48730499999965
19,114.61523400000078,108.46142599999985,150.12841800000024,98.58984400000008,151.79492200000004,117.43603499999972,127.30761700000039,129.3588869999994,122.43603499999972,153.0771479999994,159.48730499999965,115.25634799999989,120.51269500000035,110.12841800000024
20,110.51269500000035,101.41015599999992,146.41015599999992,97.82031300000017,152.6923829999996,120.64111300000059,121.9228520000006,121.0258789999998,117.69238299999961,157.43603499999972,157.56396500000028,114.35888699999941,111.79492200000004,105.51269500000035
21,121.15380900000036,103.84619099999964,156.0258789999998,111.2822270000006,163.3334960000002,127.82031300000017,129.87158199999976,128.9741210000002,125.0,164.48730499999965,172.43603499999972,121.6665039999998,119.23095699999976,116.2822270000006
22,142.17968800000017,114.48730499999965,175.2563479999999,132.82031300000017,177.17968800000017,135.6411130000006,150.38476599999922,151.53857400000015,143.3334960000002,177.17968800000017,200.12841800000024,133.9741210000002,140.51269500000035,138.46142599999985
23,160.12841800000024,126.41015599999992,190.89746099999957,148.58984400000008,186.0258789999998,138.3334960000002,170.2563479999999,173.58984400000008,161.53857400000015,195.2563479999999,224.61523400000078,142.82031300000017,161.6665039999998,157.94873000000007
24,161.2822270000006,129.10253900000043,189.61523400000078,146.6665039999998,183.0771479999994,133.20507799999996,173.58984400000008,176.79492200000004,165.38476599999922,210.89746099999957,228.58984400000008,140.76904300000024,166.6665039999998,159.7436520000001
25,145.89746099999957,120.25634799999989,172.94873000000007,130.6411130000006,170.51269500000035,122.56396500000028,158.3334960000002,158.58984400000008,151.0258789999998,215.51269500000035,212.17968800000017,130.12841800000024,151.2822270000006,142.94873000000007
26,129.87158199999976,109.35888699999941,157.05126999999993,118.0771479999994,160.89746099999957,113.7177729999994,140.38476599999922,137.05126999999993,130.2563479999999,210.0,194.48730499999965,121.6665039999998,128.7177729999994,123.58984400000008
27,129.7436520000001,109.35888699999941,157.82031300000017,123.20507799999996,164.61523400000078,113.0771479999994,137.94873000000007,133.84619099999964,120.76904300000024,203.58984400000008,195.89746099999957,124.61523400000078,117.43603499999972,120.25634799999989
28,146.53857400000015,122.17968800000017,175.76904300000024,142.82031300000017,175.51269500000035,121.0258789999998,155.38476599999922,154.10253900000043,130.12841800000024,204.48730499999965,217.82031300000017,137.56396500000028,125.0,135.51269500000035
29,167.43603499999972,137.6923829999996,197.94873000000007,160.89746099999957,175.0,131.15380900000036,181.6665039999998,184.10253900000043,150.76904300000024,211.9228520000006,243.84619099999964,150.38476599999922,144.7436520000001,156.6665039999998
30,178.9741210000002,144.48730499999965,211.53857400000015,166.41015599999992,149.87158199999976,135.76904300000024,203.0771479999994,206.53857400000015,167.05126999999993,218.84619099999964,257.94873000000007,155.38476599999922,163.46142599999985,169.61523400000078
31,178.46142599999985,140.12841800000024,212.43603499999972,160.51269500000035,109.61523400000078,131.9228520000006,211.53857400000015,212.82031300000017,168.84619099999964,221.0258789999998,257.5639650000003,152.43603499999972,171.79492200000004,170.38476599999922
32,172.05126999999993,132.56396500000028,205.2563479999999,151.53857400000015,84.61523400000078,122.30761700000039,206.41015599999992,205.76904300000024,158.84619099999964,222.43603499999972,250.12841800000024,147.43603499999972,168.58984400000008,164.3588869999994
33,166.2822270000006,131.6665039999998,196.0258789999998,145.6411130000006,105.0,113.7177729999994,189.61523400000078,192.56396500000028,149.23095699999976,230.89746099999957,242.43603499999972,144.61523400000078,160.51269500000035,158.84619099999964
34,164.48730499999965,142.43603499999972,188.84619099999964,145.6411130000006,173.46142599999985,112.30761700000039,166.6665039999998,180.2563479999999,150.89746099999957,247.17968800000017,237.56396500000028,144.48730499999965,156.9228520000006,157.94873000000007
35,168.0771479999994,161.6665039999998,186.79492200000004,154.7436520000001,255.12841800000024,118.9741210000002,147.17968800000017,174.61523400000078,165.0,260.2563479999999,237.43603499999972,146.2822270000006,164.23095699999976,162.94873000000007
36,176.2822270000006,179.10253900000043,192.17968800000017,173.3334960000002,294.48730499999965,128.46142599999985,142.43603499999972,178.3334960000002,182.05126999999993,251.79492200000004,243.7177729999994,149.10253900000043,178.84619099999964,172.05126999999993
37,184.87158199999976,180.89746099999957,203.46142599999985,191.6665039999998,252.17968800000017,132.82031300000017,156.53857400000015,189.48730499999965,187.82031300000017,207.56396500000028,256.15380900000036,153.20507799999996,185.76904300000024,180.12841800000024
38,187.43603499999972,159.7436520000001,214.48730499999965,191.6665039999998,138.3334960000002,126.41015599999992,183.3334960000002,201.9228520000006,172.94873000000007,131.0258789999998,269.6152340000008,158.46142599999985,170.2563479999999,181.53857400000015
39,182.3076170000004,124.35888699999941,220.38476599999922,161.79492200000004,15.256347999999889,111.9228520000006,210.89746099999957,210.51269500000035,143.0771479999994,50.0,275.0,164.48730499999965,134.10253900000043,176.0258789999998
40,174.7436520000001,97.17968800000017,220.0,112.17968800000017,-39.8718259999996,98.20507799999996,228.20507799999996,213.0771479999994,116.53857400000015,6.538574000000153,263.5898440000001,170.12841800000024,99.61523400000078,169.87158199999976
41,170.76904300000024,97.17968800000017,214.23095699999976,69.87158199999976,9.102539000000434,93.84619099999964,226.79492200000004,207.17968800000017,109.48730499999965,26.025878999999804,230.51269500000035,171.15380900000036,91.6665039999998,167.82031300000017
42,166.9228520000006,118.9741210000002,201.0258789999998,54.87158199999976,122.30761700000039,100.0,201.53857400000015,188.0771479999994,118.46142599999985,89.10253900000043,178.58984400000008,161.2822270000006,112.17968800000017,164.3588869999994
43,150.12841800000024,133.3334960000002,176.0258789999998,60.12841800000024,209.10253900000043,109.10253900000043,153.7177729999994,151.6665039999998,120.51269500000035,138.0771479999994,117.43603499999972,137.05126999999993,132.56396500000028,145.6411130000006
44,108.7177729999994,109.74365200000011,137.17968800000017,55.76904300000024,197.56396500000028,111.41015599999992,93.58984400000008,99.48730499999965,92.43603499999972,121.15380900000036,57.69238299999961,101.15380900000036,115.89746099999957,101.2822270000006
45,44.102539000000434,43.46142599999985,87.30761700000039,12.692382999999609,92.94873000000007,102.69238299999961,33.333496000000196,39.48730499999965,31.666503999999804,37.56396500000028,2.0512699999999313,61.2822270000006,49.23095699999976,34.35888699999941
46,-29.61547900000005,-39.35888699999987,33.589844000000085,-75.0,-30.25634799999989,86.6665039999998,-20.38452099999995,-19.487060999999812,-41.79492200000004,-59.35888699999987,-55.89746100000002,25.128418000000238,-45.1281740000004,-39.35888699999987
47,-93.84619099999964,-102.69238299999961,-15.38452099999995,-184.23071300000038,-93.97436500000003,70.64111300000059,-66.15380900000036,-71.92309599999999,-99.10253899999998,-104.48706099999981,-122.17944299999999,-2.8203119999998307,-125.38452099999995,-101.15380900000036
48,-133.46142599999985,-127.43579099999943,-50.0,-274.2307130000004,-80.25634799999989,61.410155999999915,-99.61547900000005,-113.71801800000003,-121.66674799999964,-72.69238299999961,-189.8718259999996,-20.769286999999622,-160.38452099999995,-138.20507799999996
49,-144.7436520000001,-122.82055700000001,-63.46142599999985,-313.076904,-39.74365200000011,60.25634799999989,-112.05127000000039,-140.2563479999999,-113.46142599999985,1.4101559999999154,-241.66674799999964,-28.58984399999963,-150.64111300000013,-149.35888699999987
50,-139.35888699999987,-119.61547900000005,-59.35888699999987,-302.0512700000004,-43.974365000000034,63.20507799999996,-102.17944299999999,-150.2563479999999,-99.8718259999996,47.69238299999961,-268.33325200000036,-29.487060999999812,-128.46142599999985,-147.9487299999996
51,-140.38452099999995,-148.71801800000003,-53.846190999999635,-279.61547900000005,-125.51293900000019,63.46142599999985,-85.64111300000013,-152.6923829999996,-112.69238299999961,10.641113000000587,-283.076904,-31.025634999999966,-137.43579099999943,-156.79492200000004
52,-167.0512700000004,-216.53857400000015,-65.1281740000004,-292.6923829999996,-251.41015600000037,57.69238299999961,-88.07690400000001,-162.6923829999996,-166.15380900000036,-107.05127000000039,-313.71801800000003,-41.025634999999966,-198.71801800000003,-192.820557
53,-218.20507799999996,-296.53857400000015,-98.20507799999996,-359.35888699999987,-348.33325200000036,48.589844000000085,-123.46142599999985,-188.97436500000003,-242.3076170000004,-243.20507799999996,-376.28198199999997,-60.51293900000019,-292.5642090000006,-251.28198199999997
54,-271.66674799999964,-346.923096,-139.10253899999998,-454.8718259999996,-360.2563479999999,42.82031300000017,-180.0,-223.84619099999964,-302.4357909999994,-319.8718259999996,-458.71801800000003,-82.05127000000039,-370.7692869999996,-306.41015600000037
55,-301.02563499999997,-343.076904,-166.53857400000015,-533.718018,-291.02563499999997,45.38476599999922,-228.46142599999985,-250.2563479999999,-316.66674799999964,-300.64111300000013,-530.6411130000001,-96.15380900000036,-394.2307130000004,-331.66674799999964
56,-298.46142599999985,-298.97436500000003,-170.5129390000002,-566.4101560000004,-200.2563479999999,54.87158199999976,-245.38452099999995,-257.3076170000004,-287.820557,-215.76928699999962,-571.1538090000004,-99.61547900000005,-362.820557,-322.3076170000004
57,-279.35888699999987,-255.2563479999999,-159.10253899999998,-558.4614259999998,-155.64111300000013,65.25634799999989,-230.64111300000013,-251.15380900000036,-248.97436500000003,-135.64111300000013,-585.384521,-97.69238299999961,-313.076904,-298.33325200000036
58,-267.6923829999996,-245.64111300000013,-150.0,-538.5898439999996,-182.9487299999996,71.0258789999998,-205.64111300000013,-248.076904,-235.2563479999999,-114.35888699999987,-597.9487299999996,-98.46142599999985,-286.53857400000015,-286.53857400000015
59,-276.66674799999964,-273.20507799999996,-154.61547900000005,-534.2307130000004,-251.41015600000037,70.89746099999957,-194.35888699999987,-260.2563479999999,-256.66674799999964,-151.15380900000036,-631.5385740000002,-106.92309599999999,-299.8718259999996,-299.102539
60,-301.923096,-313.84619099999964,-171.53857400000015,-554.2307130000004,-306.15380900000036,67.94873000000007,-207.820557,-287.179443,-293.84619099999964,-200.5129390000002,-690.6411130000001,-121.66674799999964,-339.102539,-328.84619099999964
61,-329.4870609999998,-340.2563479999999,-191.15380900000036,-590.6411130000001,-314.7436520000001,66.41015599999992,-238.58984399999963,-317.820557,-319.102539,-218.97436500000003,-759.7436520000001,-136.79492200000004,-376.66674799999964,-358.20507799999996
62,-346.41015600000037,-341.41015600000037,-203.84619099999964,-630.1281740000004,-286.923096,68.3334960000002,-268.20507799999996,-338.20507799999996,-318.46142599999985,-199.61547900000005,-816.4101559999999,-146.41015600000037,-393.71801800000003,-373.84619099999964
63,-349.35888699999987,-326.02563499999997,-205.5129390000002,-660.1281740000004,-258.46142599999985,72.30761700000039,-280.7692869999996,-341.79492200000004,-299.2307130000004,-170.0,-846.1538089999999,-148.076904,-389.8718259999996,-373.84619099999964
64,-342.9487299999996,-311.923096,-199.23071300000038,-672.3076170000004,-257.3076170000004,75.38476599999922,-273.71801800000003,-332.5642090000006,-280.38452099999995,-162.179443,-849.7436520000001,-143.58984399999963,-378.71801800000003,-366.15380900000036
65,-336.02563499999997,-311.41015600000037,-191.53857400000015,-664.7436520000001,-284.61547900000005,75.76904300000024,-258.20507799999996,-321.66674799999964,-277.6923829999996,-186.15380900000036,-838.205078,-137.820557,-376.66674799999964,-361.02563499999997
66,-334.8718259999996,-323.46142599999985,-188.33325200000036,-645.6411130000001,-319.7436520000001,73.58984400000008,-248.20507799999996,-318.20507799999996,-293.20507799999996,-228.076904,-824.3588870000003,-134.4870609999998,-391.28198199999997,-364.2307130000004
67,-341.79492200000004,-337.3076170000004,-193.076904,-630.0,-342.0512700000004,70.51269500000035,-251.15380900000036,-324.2307130000004,-316.28198199999997,-266.28198199999997,-817.4357909999999,-135.89746100000002,-417.0512700000004,-374.7436520000001
68,-353.58984399999963,-342.9487299999996,-203.84619099999964,-629.102539,-345.897461,68.3334960000002,-263.46142599999985,-334.4870609999998,-332.5642090000006,-287.4357909999994,-822.6923829999996,-141.79492200000004,-439.61547900000005,-387.0512700000004
69,-362.5642090000006,-336.79492200000004,-213.71801800000003,-640.1281740000004,-338.58984399999963,68.58984400000008,-273.84619099999964,-340.5129390000002,-332.179443,-288.46142599999985,-838.076904,-148.33325200000036,-443.58984399999963,-394.102539
70,-360.64111300000013,-321.923096,-214.4870609999998,-648.718018,-327.6923829999996,70.76904300000024,-272.0512700000004,-335.897461,-315.38452099999995,-272.4357909999994,-853.4614260000003,-149.35888699999987,-424.102539,-389.8718259999996
71,-347.820557,-304.7436520000001,-204.23071300000038,-644.3588869999999,-317.3076170000004,72.82031300000017,-257.3076170000004,-321.41015600000037,-292.6923829999996,-246.15380900000036,-857.3076170000004,-142.3076170000004,-392.4357909999994,-375.7692869999996
72,-332.820557,-292.5642090000006,-190.5129390000002,-629.615479,-311.02563499999997,72.17968800000017,-240.5129390000002,-305.64111300000013,-278.97436500000003,-220.0,-846.794922,-131.923096,-368.46142599999985,-360.64111300000013
73,-324.8718259999996,-288.20507799999996,-182.0512700000004,-614.3588869999999,-312.179443,68.9741210000002,-232.3076170000004,-296.28198199999997,-282.0512700000004,-206.02563499999997,-828.076904,-125.38452099999995,-363.97436500000003,-353.33325200000036
74,-323.58984399999963,-287.4357909999994,-180.1281740000004,-603.205078,-319.102539,66.6665039999998,-232.6923829999996,-291.923096,-295.5129390000002,-210.2563479999999,-807.820557,-124.35888699999987,-373.20507799999996,-352.6923829999996
75,-319.61547900000005,-283.46142599999985,-178.33325200000036,-590.5129390000002,-323.58984399999963,69.10253900000043,-232.179443,-285.7692869999996,-303.20507799999996,-226.15380900000036,-788.205078,-123.07690400000001,-379.8718259999996,-348.71801800000003
76,-306.41015600000037,-273.58984399999963,-171.02563499999997,-570.384521,-317.4357909999994,76.41015599999992,-224.23071300000038,-275.38452099999995,-292.6923829999996,-237.179443,-770.128174,-116.53857400000015,-372.820557,-334.61547900000005
77,-288.46142599999985,-261.15380900000036,-160.0,-545.384521,-297.9487299999996,83.9741210000002,-212.0512700000004,-266.41015600000037,-265.897461,-227.43579099999943,-756.794922,-106.53857400000015,-353.46142599999985,-314.61547900000005
78,-275.897461,-250.76928699999962,-152.0512700000004,-526.4101560000004,-269.61547900000005,86.41015599999992,-203.71801800000003,-265.0,-237.0512700000004,-195.38452099999995,-749.7436520000001,-100.0,-332.179443,-300.1281740000004
79,-275.2563479999999,-243.84619099999964,-151.79492200000004,-522.9487299999996,-242.179443,81.9228520000006,-203.20507799999996,-270.0,-222.43579099999943,-158.71801800000003,-743.974365,-101.66674799999964,-319.35888699999987,-298.58984399999963
80,-284.61547900000005,-239.7436520000001,-158.20507799999996,-534.615479,-226.923096,74.48730499999965,-207.9487299999996,-274.8718259999996,-228.076904,-143.20507799999996,-732.179443,-109.48706099999981,-320.1281740000004,-307.820557
81,-295.897461,-238.58984399999963,-166.15380900000036,-552.4357909999994,-230.0,70.25634799999989,-213.33325200000036,-275.1281740000004,-246.02563499999997,-163.46142599999985,-713.205078,-116.53857400000015,-332.820557,-318.71801800000003
82,-301.41015600000037,-241.28198199999997,-170.38452099999995,-564.615479,-246.28198199999997,72.82031300000017,-217.179443,-271.923096,-261.15380900000036,-209.61547900000005,-695.384521,-117.69238299999961,-349.61547900000005,-323.076904
83,-298.58984399999963,-246.53857400000015,-168.46142599999985,-562.6923829999996,-262.6923829999996,80.12841800000024,-219.10253899999998,-268.84619099999964,-262.0512700000004,-253.97436500000003,-688.8461909999996,-112.82055700000001,-361.41015600000037,-318.84619099999964
84,-290.2563479999999,-250.89746100000002,-162.9487299999996,-547.9487299999996,-268.46142599999985,85.25634799999989,-218.58984399999963,-267.6923829999996,-249.23071300000038,-271.02563499999997,-696.923096,-106.28198199999997,-362.4357909999994,-310.5129390000002
85,-282.6923829999996,-249.10253899999998,-158.71801800000003,-530.5129390000002,-263.46142599999985,82.82031300000017,-214.8718259999996,-266.79492200000004,-232.179443,-253.46142599999985,-712.820557,-103.46142599999985,-352.820557,-304.61547900000005
86,-280.64111300000013,-239.35888699999987,-160.5129390000002,-522.4357909999994,-255.2563479999999,74.10253900000043,-209.35888699999987,-264.102539,-221.53857400000015,-213.33325200000036,-723.718018,-106.41015600000037,-337.0512700000004,-304.61547900000005
87,-284.35888699999987,-224.7436520000001,-168.33325200000036,-526.794922,-250.89746100000002,65.0,-205.38452099999995,-260.38452099999995,-220.38452099999995,-172.179443,-720.6411130000001,-113.07690400000001,-322.0512700000004,-308.71801800000003
88,-289.8718259999996,-212.820557,-177.43579099999943,-535.5129390000002,-251.15380900000036,61.79492200000004,-205.64111300000013,-258.33325200000036,-223.46142599999985,-145.76928699999962,-703.5898439999996,-118.46142599999985,-312.9487299999996,-311.923096
89,-291.66674799999964,-208.97436500000003,-181.41015600000037,-537.3076170000004,-251.53857400000015,66.41015599999992,-209.10253899999998,-259.102539,-222.820557,-137.0512700000004,-680.7692869999996,-119.23071300000038,-310.38452099999995,-310.7692869999996
90,-287.820557,-211.923096,-177.6923829999996,-528.205078,-246.02563499999997,75.89746099999957,-211.923096,-260.897461,-214.8718259999996,-139.23071300000038,-663.3332520000004,-115.38452099999995,-311.02563499999997,-305.2563479999999
91,-280.5129390000002,-215.1281740000004,-168.71801800000003,-514.4870609999998,-233.46142599999985,85.12841800000024,-210.76928699999962,-259.102539,-204.10253899999998,-144.8718259999996,-657.5642090000006,-109.48706099999981,-311.15380900000036,-298.58984399999963
92,-272.4357909999994,-211.923096,-158.84619099999964,-503.076904,-218.71801800000003,90.38476599999922,-204.23071300000038,-250.64111300000013,-197.820557,-151.53857400000015,-661.281982,-102.94872999999961,-308.46142599999985,-292.5642090000006
93,-263.97436500000003,-201.923096,-150.1281740000004,-494.8718259999996,-209.8718259999996,90.38476599999922,-193.33325200000036,-236.41015600000037,-199.7436520000001,-159.23071300000038,-664.7436520000001,-95.89746100000002,-303.20507799999996,-285.897461
94,-256.53857400000015,-192.0512700000004,-144.7436520000001,-487.9487299999996,-213.20507799999996,86.2822270000006,-182.43579099999943,-223.46142599999985,-207.56420900000057,-167.179443,-660.897461,-89.23071300000038,-298.46142599999985,-278.46142599999985
95,-255.76928699999962,-192.0512700000004,-147.179443,-484.7436520000001,-229.7436520000001,79.87158199999976,-180.1281740000004,-222.179443,-217.56420900000057,-175.1281740000004,-653.205078,-87.94872999999961,-299.7436520000001,-276.28198199999997
96,-267.5642090000006,-205.5129390000002,-160.89746100000002,-490.38452099999995,-252.56420900000057,73.7177729999994,-192.9487299999996,-237.56420900000057,-226.02563499999997,-182.179443,-651.794922,-97.17944299999999,-309.2307130000004,-286.53857400000015
97,-288.20507799999996,-224.10253899999998,-181.15380900000036,-504.102539,-269.4870609999998,70.38476599999922,-216.02563499999997,-261.79492200000004,-229.4870609999998,-187.0512700000004,-659.615479,-114.23071300000038,-321.41015600000037,-307.0512700000004
98,-302.820557,-232.56420900000057,-194.35888699999987,-514.3588869999999,-270.5129390000002,71.2822270000006,-232.820557,-276.41015600000037,-224.7436520000001,-188.33325200000036,-665.0,-127.43579099999943,-325.5129390000002,-323.20507799999996
99,-296.41015600000037,-221.28198199999997,-187.6923829999996,-506.923096,-254.61547900000005,75.76904300000024,-226.923096,-266.28198199999997,-211.15380900000036,-185.64111300000013,-651.923096,-124.61547900000005,-314.7436520000001,-318.58984399999963
100,-267.3076170000004,-193.46142599999985,-160.5129390000002,-478.20507799999996,-230.0,81.15380900000036,-197.0512700000004,-232.43579099999943,-192.0512700000004,-178.20507799999996,-616.5385740000002,-104.23071300000038,-291.53857400000015,-290.38452099999995
101,-229.23071300000038,-162.179443,-125.89746100000002,-440.5129390000002,-205.89746100000002,84.74365200000011,-159.35888699999987,-192.179443,-173.46142599999985,-163.84619099999964,-572.3076170000004,-77.17944299999999,-264.35888699999987,-252.0512700000004
102,-201.53857400000015,-140.0,-101.66674799999964,-412.6923829999996,-187.56420900000057,86.0258789999998,-134.61547900000005,-165.2563479999999,-160.0,-141.66674799999964,-538.974365,-58.33325200000036,-241.923096,-222.820557
103,-194.61547900000005,-131.79492200000004,-97.30761700000039,-405.1281740000004,-177.6923829999996,86.15380900000036,-132.179443,-161.02563499999997,-152.0512700000004,-115.1281740000004,-527.820557,-55.76928699999962,-229.35888699999987,-213.71801800000003
104,-205.5129390000002,-135.64111300000013,-109.10253899999998,-413.58984399999963,-179.23071300000038,85.76904300000024,-146.02563499999997,-174.35888699999987,-146.79492200000004,-92.94872999999961,-535.897461,-66.41015600000037,-228.33325200000036,-222.43579099999943
105,-223.20507799999996,-146.15380900000036,-125.64111300000013,-424.8718259999996,-192.56420900000057,84.48730499999965,-162.179443,-193.46142599999985,-142.3076170000004,-84.61547900000005,-552.0512700000004,-80.51293900000019,-237.820557,-238.58984399999963
106,-237.820557,-159.23071300000038,-137.0512700000004,-429.8718259999996,-211.28198199999997,81.2822270000006,-171.28198199999997,-208.58984399999963,-140.5129390000002,-95.0,-566.5385740000002,-90.1281740000004,-253.71801800000003,-253.33325200000036
107,-246.53857400000015,-172.0512700000004,-141.41015600000037,-430.5129390000002,-226.15380900000036,76.2822270000006,-173.076904,-217.179443,-147.43579099999943,-122.43579099999943,-576.4101560000004,-94.10253899999998,-271.15380900000036,-264.102539
108,-252.56420900000057,-184.61547900000005,-143.46142599999985,-435.0,-231.923096,71.41015599999992,-173.84619099999964,-222.0512700000004,-166.923096,-158.076904,-583.4614259999998,-95.89746100000002,-285.38452099999995,-273.84619099999964
109,-258.71801800000003,-195.2563479999999,-146.53857400000015,-446.02563499999997,-229.8718259999996,69.87158199999976,-178.076904,-225.38452099999995,-194.7436520000001,-189.23071300000038,-588.4614259999998,-98.46142599999985,-293.71801800000003,-283.71801800000003
110,-262.0512700000004,-200.2563479999999,-148.84619099999964,-455.64111300000013,-222.9487299999996,73.0771479999994,-183.84619099999964,-225.76928699999962,-217.6923829999996,-203.33325200000036,-587.820557,-100.25634799999989,-293.97436500000003,-289.2307130000004
111,-256.15380900000036,-194.10253899999998,-145.2563479999999,-451.15380900000036,-212.3076170000004,79.61523400000078,-184.7436520000001,-219.4870609999998,-220.0,-194.61547900000005,-576.794922,-96.92309599999999,-284.7436520000001,-283.076904
112,-237.56420900000057,-174.4870609999998,-132.6923829999996,-428.20507799999996,-196.66674799999964,85.64111300000059,-175.2563479999999,-205.2563479999999,-195.76928699999962,-166.28198199999997,-553.3332520000004,-86.66674799999964,-266.66674799999964,-262.3076170000004
113,-211.02563499999997,-146.02563499999997,-114.61547900000005,-395.897461,-175.89746100000002,87.82031300000017,-156.66674799999964,-186.53857400000015,-154.61547900000005,-129.4870609999998,-521.025635,-72.94872999999961,-243.20507799999996,-232.820557
114,-188.84619099999964,-119.8718259999996,-99.74365200000011,-371.79492200000004,-154.7436520000001,85.89746099999957,-138.33325200000036,-171.15380900000036,-118.20507799999996,-99.23071300000038,-489.35888699999987,-62.69238299999961,-222.3076170000004,-208.58984399999963
115,-183.20507799999996,-108.97436500000003,-97.05127000000039,-368.97436500000003,-142.43579099999943,82.43603499999972,-131.923096,-166.79492200000004,-108.07690400000001,-90.1281740000004,-470.0,-61.79492200000004,-213.58984399999963,-202.56420900000057
116,-197.0512700000004,-119.10253899999998,-108.58984399999963,-386.41015600000037,-146.28198199999997,80.25634799999989,-142.43579099999943,-176.41015600000037,-129.4870609999998,-106.41015600000037,-469.4870609999998,-71.02563499999997,-221.53857400000015,-217.3076170000004
117,-219.23071300000038,-141.79492200000004,-126.66674799999964,-408.46142599999985,-164.10253899999998,80.51269500000035,-162.43579099999943,-193.84619099999964,-166.53857400000015,-136.28198199999997,-481.79492200000004,-84.23071300000038,-239.23071300000038,-240.5129390000002
118,-231.66674799999964,-158.71801800000003,-137.43579099999943,-415.38452099999995,-182.43579099999943,82.30761700000039,-175.5129390000002,-206.41015600000037,-191.53857400000015,-156.41015600000037,-490.2563479999999,-91.79492200000004,-250.64111300000013,-253.20507799999996
119,-221.66674799999964,-154.4870609999998,-131.41015600000037,-397.4357909999994,-184.23071300000038,84.48730499999965,-169.61547900000005,-203.46142599999985,-184.61547900000005,-148.46142599999985,-479.35888699999987,-87.30761700000039,-242.3076170000004,-242.820557
120,-192.0512700000004,-128.20507799999996,-110.64111300000013,-360.897461,-162.179443,86.0258789999998,-146.02563499999997,-183.84619099999964,-148.46142599999985,-113.33325200000036,-447.4357909999994,-71.92309599999999,-213.71801800000003,-212.43579099999943
121,-158.71801800000003,-95.0,-87.69238299999961,-323.84619099999964,-126.15380900000036,87.05126999999993,-118.84619099999964,-157.0512700000004,-104.8718259999996,-70.64111300000013,-407.5642090000006,-54.23071300000038,-177.9487299999996,-178.20507799999996
122,-138.71801800000003,-74.48706099999981,-74.74365200000011,-302.9487299999996,-98.20507799999996,87.30761700000039,-102.82055700000001,-135.89746100000002,-78.71801800000003,-43.846190999999635,-377.179443,-43.846190999999635,-152.6923829999996,-157.3076170000004
123,-139.10253899999998,-76.28198199999997,-76.28198199999997,-302.6923829999996,-95.38452099999995,86.79492200000004,-103.07690400000001,-129.10253899999998,-79.48706099999981,-43.974365000000034,-365.7692869999996,-44.23071300000038,-147.820557,-156.53857400000015
124,-153.20507799999996,-94.48706099999981,-87.30761700000039,-314.7436520000001,-116.41015600000037,85.64111300000059,-113.84619099999964,-135.76928699999962,-97.82055700000001,-63.974365000000034,-370.5129390000002,-52.051270000000386,-160.89746100000002,-169.61547900000005
125,-167.56420900000057,-114.23071300000038,-98.33325200000036,-326.79492200000004,-144.10253899999998,84.48730499999965,-124.74365200000011,-148.20507799999996,-116.28198199999997,-86.92309599999999,-380.38452099999995,-60.64111300000013,-179.7436520000001,-183.97436500000003
126,-171.53857400000015,-123.46142599999985,-102.05127000000039,-330.64111300000013,-159.23071300000038,84.23095699999976,-128.076904,-156.66674799999964,-123.07690400000001,-98.33325200000036,-383.71801800000003,-64.35888699999987,-191.53857400000015,-189.35888699999987
127,-162.9487299999996,-119.48706099999981,-97.05127000000039,-325.0,-154.4870609999998,85.76904300000024,-122.43579099999943,-154.4870609999998,-117.17944299999999,-93.58984399999963,-373.076904,-60.89746100000002,-189.23071300000038,-182.9487299999996
128,-146.66674799999964,-107.17944299999999,-85.51293900000019,-312.179443,-135.38452099999995,88.84619099999964,-110.51293900000019,-140.76928699999962,-104.23071300000038,-77.30761700000039,-347.9487299999996,-51.66674799999964,-173.71801800000003,-168.076904
129,-129.10253899999998,-92.69238299999961,-71.15380900000036,-294.8718259999996,-112.43579099999943,92.56396500000028,-96.15380900000036,-119.8718259999996,-88.46142599999985,-56.66674799999964,-313.97436500000003,-39.48706099999981,-150.64111300000013,-149.10253899999998
130,-113.20507799999996,-79.10253899999998,-56.66674799999964,-274.7436520000001,-92.94872999999961,95.89746099999957,-82.17944299999999,-98.07690400000001,-71.15380900000036,-36.79492200000004,-278.71801800000003,-27.30761700000039,-125.89746100000002,-128.46142599999985
131,-98.84619099999964,-66.53857400000015,-43.974365000000034,-254.35888699999987,-78.97436500000003,98.20507799999996,-70.0,-80.64111300000013,-53.20507799999996,-19.358886999999868,-247.9487299999996,-17.179442999999992,-103.58984399999963,-108.07690400000001
132,-85.25634799999989,-55.76928699999962,-34.23071300000038,-236.66674799999964,-70.0,99.10253900000043,-60.0,-69.48706099999981,-36.66674799999964,-5.128174000000399,-223.33325200000036,-9.61547900000005,-86.53857400000015,-90.76928699999962
133,-72.69238299999961,-47.82055700000001,-27.051270000000386,-223.58984399999963,-63.20507799999996,98.84619099999964,-52.051270000000386,-63.33325200000036,-24.74365200000011,5.128418000000238,-202.6923829999996,-4.743652000000111,-75.38452099999995,-79.23071300000038
134,-61.153809000000365,-41.28198199999997,-20.769286999999622,-213.46142599999985,-55.1281740000004,98.3334960000002,-45.51293900000019,-58.20507799999996,-18.205077999999958,12.17968800000017,-182.43579099999943,-1.0258789999998044,-67.43579099999943,-72.82055700000001
135,-49.8718259999996,-32.17944299999999,-12.692382999999609,-201.28198199999997,-41.79492200000004,98.7177729999994,-38.07690400000001,-49.61547900000005,-13.333252000000357,20.51269500000035,-159.61547900000005,3.4614259999998467,-57.17944299999999,-66.79492200000004
136,-36.53857400000015,-16.666747999999643,-0.8974609999995664,-182.0512700000004,-21.666747999999643,100.25634799999989,-26.923095999999987,-34.48706099999981,-4.230713000000378,35.64111300000059,-132.179443,10.769043000000238,-40.38452099999995,-54.8718259999996
137,-20.641113000000132,4.743652000000111,14.358886999999413,-155.2563479999999,2.5639650000002803,102.17968800000017,-11.28198199999997,-13.846190999999635,12.051269999999931,58.7177729999994,-99.74365200000011,20.769043000000238,-17.69238299999961,-35.38452099999995
138,-4.102538999999979,25.897460999999566,30.128418000000238,-126.15380900000036,24.230956999999762,103.3334960000002,6.153809000000365,7.43603499999972,32.43603499999972,83.9741210000002,-64.35888699999987,31.410155999999915,4.743652000000111,-12.692382999999609
139,9.358886999999413,39.23095699999976,42.17968800000017,-102.05127000000039,37.05126999999993,103.20507799999996,20.384765999999217,22.82031300000017,49.23095699999976,101.79492200000004,-31.41015600000037,39.35888699999941,20.0,5.512695000000349
140,16.922852000000603,41.410155999999915,47.56396500000028,-87.17944299999999,38.974121000000196,102.05126999999993,26.666503999999804,28.333496000000196,55.51269500000035,106.0258789999998,-6.666747999999643,42.56396500000028,25.384765999999217,14.102539000000434
141,19.871581999999762,36.79492200000004,47.05126999999993,-78.71801800000003,33.846190999999635,100.89746099999957,24.615234000000783,26.025878999999804,50.0,98.3334960000002,8.333496000000196,41.9228520000006,24.74365200000011,13.974121000000196
142,22.43603499999972,34.35888699999941,46.025878999999804,-68.07690400000001,30.0,101.0258789999998,20.128418000000238,22.69238299999961,39.35888699999941,87.94873000000007,18.974121000000196,40.897460999999566,26.025878999999804,11.794922000000042
143,30.769043000000238,42.17968800000017,50.897460999999566,-46.41015600000037,36.025878999999804,103.58984400000008,22.94873000000007,27.17968800000017,35.12841800000024,85.89746099999957,37.05126999999993,44.102539000000434,37.05126999999993,17.05126999999993
144,50.38476599999922,64.23095699999976,66.79492200000004,-9.487060999999812,57.43603499999972,108.46142599999985,40.64111300000059,46.53857400000015,47.69238299999961,99.48730499999965,73.58984400000008,54.87158199999976,61.666503999999804,37.05126999999993
145,82.30761700000039,99.23095699999976,94.23095699999976,38.974121000000196,93.3334960000002,114.74365200000011,73.46142599999985,81.15380900000036,79.35888699999941,129.23095699999976,131.53857400000015,73.9741210000002,98.58984400000008,73.3334960000002
146,121.9228520000006,140.2563479999999,127.69238299999961,89.74365200000011,135.76904300000024,121.41015599999992,113.20507799999996,124.48730499999965,122.05126999999993,167.3076170000004,202.56396500000028,97.82031300000017,141.53857400000015,119.10253900000043
147,160.0,178.20507799999996,158.9741210000002,132.94873000000007,174.3588869999994,127.82031300000017,148.58984400000008,165.2563479999999,162.05126999999993,202.17968800000017,270.76904300000024,120.38476599999922,181.41015599999992,162.6923829999996
148,188.9741210000002,206.6665039999998,181.41015599999992,165.51269500000035,202.17968800000017,133.46142599999985,172.17968800000017,195.0,189.23095699999976,225.6411130000006,323.0771479999994,136.9228520000006,212.17968800000017,195.12841800000024
149,208.46142599999985,225.38476599999922,194.7436520000001,192.56396500000028,219.87158199999976,138.20507799999996,185.12841800000024,213.3334960000002,204.23095699999976,238.0771479999994,357.82031300000017,146.53857400000015,234.7436520000001,215.76904300000024
150,223.84619099999964,239.23095699999976,204.23095699999976,221.2822270000006,233.3334960000002,141.53857400000015,195.12841800000024,226.6665039999998,215.6411130000006,246.79492200000004,382.82031300000017,152.6923829999996,254.7436520000001,231.0258789999998
151,241.15380900000036,253.7177729999994,214.7436520000001,254.48730499999965,248.46142599999985,142.43603499999972,208.84619099999964,242.3076170000004,231.6665039999998,259.48730499999965,408.0771479999994,159.7436520000001,276.53857400000015,248.0771479999994
152,261.4101559999999,271.15380900000036,227.56396500000028,288.3334960000002,267.6923829999996,140.38476599999922,227.05126999999993,261.9228520000006,252.43603499999972,277.94873000000007,437.17968800000017,169.3588869999994,299.10253900000043,268.3334960000002
153,280.3847659999992,288.7177729999994,239.3588869999994,315.6411130000006,288.0771479999994,136.2822270000006,243.58984400000008,281.15380900000036,271.2822270000006,296.6665039999998,465.76904300000024,179.23095699999976,317.82031300000017,287.5639650000003
154,291.4101559999999,300.12841800000024,245.12841800000024,331.0258789999998,302.82031300000017,132.82031300000017,251.2822270000006,292.6923829999996,279.6152340000008,306.15380900000036,486.53857400000015,185.51269500000035,327.3076170000004,298.9741210000002
155,290.0,299.10253900000043,242.43603499999972,333.3334960000002,304.87158199999976,131.2822270000006,247.05126999999993,292.17968800000017,274.10253900000043,298.46142599999985,495.12841800000024,185.51269500000035,325.0,297.5639650000003
156,278.0771479999994,285.2563479999999,233.7177729999994,327.4360349999997,292.6923829999996,131.9228520000006,235.6411130000006,281.79492200000004,258.5898440000001,274.87158199999976,494.6152340000008,180.2563479999999,313.3334960000002,285.2563479999999
157,264.6152340000008,267.4360349999997,226.53857400000015,321.53857400000015,274.6152340000008,132.82031300000017,226.79492200000004,270.12841800000024,243.20507799999996,247.94873000000007,493.9741210000002,174.87158199999976,300.76904300000024,271.4101559999999
158,261.0258789999998,258.84619099999964,227.6923829999996,323.84619099999964,265.0,132.6923829999996,229.48730499999965,267.4360349999997,239.10253900000043,236.2822270000006,503.0771479999994,174.61523400000078,298.0771479999994,267.82031300000017
159,272.94873000000007,267.4360349999997,238.7177729999994,336.53857400000015,274.3588869999994,132.17968800000017,243.9741210000002,278.5898440000001,250.89746099999957,252.3076170000004,524.7436520000001,181.2822270000006,311.2822270000006,280.76904300000024
160,295.2563479999999,289.10253900000043,253.9741210000002,354.10253900000043,301.15380900000036,133.0771479999994,261.6665039999998,298.9741210000002,273.20507799999996,291.6665039999998,552.3076170000004,191.79492200000004,335.76904300000024,305.12841800000024
161,315.6411130000006,310.89746099999957,265.3847659999992,367.6923829999996,332.17968800000017,136.53857400000015,271.79492200000004,316.6665039999998,293.5898440000001,335.3847659999992,574.3588869999994,200.0,358.84619099999964,327.82031300000017
162,323.9741210000002,321.4101559999999,267.82031300000017,372.4360349999997,352.17968800000017,142.05126999999993,269.6152340000008,322.3076170000004,301.6665039999998,363.20507799999996,582.9487300000001,201.79492200000004,369.3588869999994,337.5639650000003
163,318.9741210000002,318.0771479999994,262.82031300000017,370.76904300000024,353.20507799999996,147.56396500000028,259.23095699999976,315.3847659999992,295.76904300000024,367.4360349999997,579.1025390000004,198.20507799999996,365.2563479999999,332.4360349999997
164,308.0771479999994,307.6923829999996,255.89746099999957,368.5898440000001,338.7177729999994,150.51269500000035,249.23095699999976,303.3334960000002,282.17968800000017,355.0,570.1284180000002,193.3334960000002,353.5898440000001,319.87158199999976
165,300.3847659999992,299.48730499999965,252.17968800000017,370.2563479999999,321.15380900000036,149.3588869999994,246.15380900000036,294.7436520000001,269.87158199999976,340.0,563.4614259999998,190.89746099999957,343.46142599999985,309.3588869999994
166,301.2822270000006,299.3588869999994,253.7177729999994,376.9228520000006,313.3334960000002,146.0258789999998,251.0258789999998,294.23095699999976,266.2822270000006,334.48730499999965,563.205078,192.43603499999972,340.76904300000024,307.6923829999996
167,311.15380900000036,308.7177729999994,260.2563479999999,388.3334960000002,321.15380900000036,144.48730499999965,261.0258789999998,302.3076170000004,274.87158199999976,342.5639650000003,570.3847659999992,197.56396500000028,346.79492200000004,317.17968800000017
168,326.53857400000015,323.84619099999964,270.3847659999992,404.23095699999976,338.5898440000001,146.0258789999998,273.46142599999985,316.2822270000006,293.0771479999994,358.9741210000002,583.0771479999994,205.12841800000024,359.10253900000043,334.6152340000008
169,341.4101559999999,338.0771479999994,280.76904300000024,421.6665039999998,352.4360349999997,148.58984400000008,285.51269500000035,331.0258789999998,312.6923829999996,373.9741210000002,597.0512699999999,212.6923829999996,371.53857400000015,352.6923829999996
170,350.0,344.3588869999994,287.5639650000003,435.0,352.3076170000004,148.58984400000008,294.7436520000001,341.2822270000006,323.0771479999994,379.6152340000008,606.9228520000006,217.43603499999972,378.3334960000002,363.0771479999994
171,350.2563479999999,341.0258789999998,288.5898440000001,440.2563479999999,340.51269500000035,144.61523400000078,299.23095699999976,344.48730499999965,319.6152340000008,376.4101559999999,609.7436520000001,218.3334960000002,377.82031300000017,362.94873000000007
172,345.76904300000024,333.46142599999985,285.6411130000006,438.7177729999994,330.51269500000035,139.10253900000043,299.10253900000043,342.5639650000003,308.3334960000002,371.6665039999998,607.3076170000004,216.6665039999998,374.6152340000008,356.79492200000004
173,342.82031300000017,329.7436520000001,282.94873000000007,436.15380900000036,333.5898440000001,135.6411130000006,296.79492200000004,340.3847659999992,301.53857400000015,372.82031300000017,605.1284180000002,215.51269500000035,375.12841800000024,352.5639650000003
174,344.23095699999976,333.7177729999994,283.0771479999994,436.0258789999998,347.6923829999996,136.41015599999992,294.6152340000008,340.76904300000024,306.79492200000004,381.15380900000036,606.794922,216.53857400000015,381.15380900000036,354.3588869999994
175,347.3076170000004,341.53857400000015,285.3847659999992,436.6665039999998,360.6411130000006,139.7436520000001,293.3334960000002,342.94873000000007,320.2563479999999,391.2822270000006,610.5126950000003,219.23095699999976,388.20507799999996,359.23095699999976
176,347.3076170000004,346.0258789999998,286.4101559999999,433.0771479999994,361.79492200000004,142.05126999999993,291.2822270000006,343.7177729999994,329.48730499999965,396.4101559999999,611.5385740000002,221.15380900000036,389.87158199999976,360.76904300000024
177,341.6665039999998,342.5639650000003,283.46142599999985,421.79492200000004,350.6411130000006,140.89746099999957,285.89746099999957,340.3847659999992,324.87158199999976,392.5639650000003,605.5126950000003,219.48730499999965,383.46142599999985,354.7436520000001
178,331.9228520000006,331.53857400000015,276.4101559999999,404.10253900000043,334.7436520000001,136.6665039999998,276.6665039999998,332.4360349999997,306.15380900000036,380.0,592.4360349999997,213.84619099999964,371.6665039999998,342.4360349999997
179,321.4101559999999,317.5639650000003,267.82031300000017,385.51269500000035,321.2822270000006,132.17968800000017,265.76904300000024,321.6665039999998,283.0771479999994,361.6665039999998,576.794922,206.53857400000015,359.3588869999994,328.9741210000002
180,313.7177729999994,307.05126999999993,261.6665039999998,372.3076170000004,313.5898440000001,130.2563479999999,257.94873000000007,311.53857400000015,268.0771479999994,343.20507799999996,565.2563479999999,201.41015599999992,351.2822270000006,320.2563479999999
181,311.53857400000015,303.5898440000001,260.6411130000006,368.84619099999964,311.6665039999998,131.53857400000015,256.6665039999998,305.3847659999992,268.0771479999994,331.6665039999998,562.5639650000003,200.89746099999957,348.9741210000002,318.9741210000002
182,315.2563479999999,306.79492200000004,265.2563479999999,375.51269500000035,314.87158199999976,133.9741210000002,262.3076170000004,304.6152340000008,280.89746099999957,331.53857400000015,568.4614259999998,204.10253900000043,351.6665039999998,323.5898440000001
183,322.17968800000017,313.0771479999994,273.0771479999994,387.94873000000007,321.53857400000015,135.2563479999999,271.6665039999998,308.20507799999996,296.6665039999998,341.4101559999999,577.6923829999996,208.3334960000002,356.9228520000006,330.0
184,328.0771479999994,317.82031300000017,280.0,398.9741210000002,327.82031300000017,134.23095699999976,279.10253900000043,312.6923829999996,305.3847659999992,352.3076170000004,582.9487300000001,210.89746099999957,361.15380900000036,333.7177729999994
185,329.3588869999994,318.0771479999994,282.17968800000017,402.5639650000003,329.23095699999976,131.53857400000015,280.89746099999957,314.48730499999965,302.6923829999996,354.48730499999965,579.8715819999998,210.89746099999957,361.9228520000006,332.82031300000017
186,325.89746099999957,314.87158199999976,278.84619099999964,397.17968800000017,324.3588869999994,129.48730499999965,277.3076170000004,312.5639650000003,292.4360349999997,344.6152340000008,570.0,208.9741210000002,358.9741210000002,328.5898440000001
187,320.89746099999957,311.6665039999998,272.94873000000007,387.05126999999993,315.51269500000035,129.87158199999976,271.79492200000004,309.10253900000043,282.05126999999993,328.9741210000002,558.7177729999994,207.05126999999993,355.2563479999999,324.87158199999976
188,318.0771479999994,311.79492200000004,268.7177729999994,377.4360349999997,308.20507799999996,132.17968800000017,268.84619099999964,307.3076170000004,277.4360349999997,317.94873000000007,551.9228520000006,206.53857400000015,354.23095699999976,324.7436520000001
189,319.7436520000001,316.2822270000006,269.23095699999976,373.20507799999996,308.3334960000002,134.61523400000078,270.76904300000024,309.3588869999994,280.6411130000006,318.9741210000002,552.3076170000004,207.94873000000007,357.82031300000017,329.10253900000043
190,325.51269500000035,323.5898440000001,274.7436520000001,377.05126999999993,318.3334960000002,135.6411130000006,276.53857400000015,315.12841800000024,290.12841800000024,331.6665039999998,558.8461909999996,211.2822270000006,365.89746099999957,336.6665039999998
191,332.3076170000004,330.2563479999999,282.05126999999993,387.17968800000017,333.9741210000002,135.12841800000024,283.3334960000002,322.3076170000004,301.0258789999998,347.82031300000017,567.0512699999999,215.0,375.3847659999992,344.48730499999965
192,335.3847659999992,331.9228520000006,286.4101559999999,397.3076170000004,345.12841800000024,133.3334960000002,287.17968800000017,326.79492200000004,307.05126999999993,355.76904300000024,571.0258789999998,217.17968800000017,380.6411130000006,348.46142599999985
193,331.79492200000004,326.53857400000015,285.0,399.7436520000001,343.7177729999994,131.41015599999992,285.51269500000035,325.2563479999999,304.48730499999965,349.10253900000043,567.1796880000002,216.2822270000006,376.9228520000006,345.51269500000035
194,322.94873000000007,317.05126999999993,278.9741210000002,392.3076170000004,331.4101559999999,130.51269500000035,279.23095699999976,318.7177729999994,295.6411130000006,330.89746099999957,556.5385740000002,212.82031300000017,365.3847659999992,337.4360349999997
195,314.3588869999994,309.3588869999994,272.82031300000017,380.89746099999957,317.6923829999996,131.15380900000036,271.79492200000004,311.15380900000036,287.5639650000003,311.9228520000006,543.9741210000002,209.3588869999994,352.05126999999993,329.10253900000043
196,311.0258789999998,307.94873000000007,270.2563479999999,373.46142599999985,310.89746099999957,132.43603499999972,266.9228520000006,306.4101559999999,285.6411130000006,302.17968800000017,534.2309569999998,207.6923829999996,343.7177729999994,325.3847659999992
197,312.82031300000017,311.6665039999998,271.4101559999999,373.0771479999994,310.2563479999999,132.43603499999972,265.6411130000006,304.87158199999976,288.46142599999985,303.9741210000002,528.9741210000002,207.56396500000028,342.3076170000004,326.4101559999999
198,314.48730499999965,314.48730499999965,272.4360349999997,375.76904300000024,308.7177729999994,130.51269500000035,266.0258789999998,303.84619099999964,289.6152340000008,311.79492200000004,526.5385740000002,206.9228520000006,343.5898440000001,328.0771479999994
199,311.15380900000036,310.6411130000006,269.48730499999965,374.48730499999965,301.0258789999998,127.30761700000039,264.7436520000001,300.2563479999999,283.7177729999994,316.9228520000006,523.3334960000002,203.84619099999964,341.6665039999998,325.6411130000006
200,302.6923829999996,300.2563479999999,262.3076170000004,366.15380900000036,289.87158199999976,125.0,260.6411130000006,294.48730499999965,272.3076170000004,313.46142599999985,517.5639650000003,198.3334960000002,334.7436520000001,318.0771479999994
201,294.3588869999994,289.7436520000001,254.7436520000001,353.9741210000002,282.3076170000004,125.12841800000024,256.0258789999998,289.87158199999976,262.82031300000017,302.4360349999997,510.89746099999957,192.82031300000017,326.4101559999999,309.6152340000008
202,292.3076170000004,286.79492200000004,251.9228520000006,345.3847659999992,283.0771479999994,127.69238299999961,255.2563479999999,289.48730499999965,262.4360349999997,290.2563479999999,506.79492200000004,190.6411130000006,323.0771479999994,305.76904300000024
203,298.20507799999996,293.5898440000001,255.51269500000035,345.6411130000006,290.76904300000024,130.76904300000024,259.87158199999976,293.5898440000001,271.53857400000015,283.7177729999994,507.3076170000004,193.84619099999964,327.3076170000004,309.23095699999976
204,307.94873000000007,304.48730499999965,262.17968800000017,353.84619099999964,299.7436520000001,131.9228520000006,266.2822270000006,298.20507799999996,283.20507799999996,285.12841800000024,510.2563479999999,200.51269500000035,335.76904300000024,317.05126999999993
205,316.0258789999998,311.9228520000006,266.9228520000006,364.10253900000043,306.0258789999998,130.6411130000006,269.48730499999965,298.7177729999994,289.23095699999976,292.3076170000004,512.0512699999999,206.79492200000004,342.5639650000003,323.9741210000002
206,319.87158199999976,312.94873000000007,267.6923829999996,371.2822270000006,309.87158199999976,128.0771479999994,267.6923829999996,295.12841800000024,287.6923829999996,301.79492200000004,511.0258789999998,210.12841800000024,344.7436520000001,327.4360349999997
207,320.6411130000006,310.76904300000024,266.4101559999999,372.82031300000017,312.3076170000004,127.05126999999993,264.23095699999976,292.3076170000004,283.5898440000001,310.0,510.0,211.0258789999998,344.23095699999976,328.84619099999964
208,320.76904300000024,309.48730499999965,265.89746099999957,368.5898440000001,311.6665039999998,128.58984400000008,263.3334960000002,294.3588869999994,282.6923829999996,313.5898440000001,511.9228520000006,211.53857400000015,343.0771479999994,330.6411130000006
209,320.3847659999992,308.5898440000001,266.53857400000015,360.51269500000035,305.12841800000024,131.9228520000006,265.0,300.3847659999992,285.76904300000024,310.12841800000024,516.5385740000002,212.17968800000017,341.6665039999998,331.53857400000015
210,317.5639650000003,305.3847659999992,266.2822270000006,351.15380900000036,293.5898440000001,134.3588869999994,266.15380900000036,304.87158199999976,288.0771479999994,300.6411130000006,518.9741210000002,211.53857400000015,338.0771479999994,328.9741210000002
211,310.6411130000006,298.3334960000002,263.5898440000001,343.3334960000002,282.05126999999993,134.10253900000043,263.46142599999985,303.0771479999994,285.12841800000024,290.0,514.3588869999994,208.0771479999994,331.6665039999998,321.6665039999998
212,302.05126999999993,290.12841800000024,259.10253900000043,340.0,277.4360349999997,131.6665039999998,257.4360349999997,295.0,277.05126999999993,283.20507799999996,502.4360349999997,202.94873000000007,324.23095699999976,313.0771479999994
213,296.6665039999998,285.12841800000024,255.6411130000006,342.3076170000004,282.94873000000007,129.23095699999976,252.05126999999993,286.0258789999998,269.87158199999976,281.4101559999999,489.10253900000043,199.7436520000001,319.7436520000001,308.84619099999964
214,298.3334960000002,286.53857400000015,256.0258789999998,348.9741210000002,296.9228520000006,128.58984400000008,251.6665039999998,282.5639650000003,269.6152340000008,281.79492200000004,481.79492200000004,201.6665039999998,320.51269500000035,312.5639650000003
215,306.53857400000015,293.46142599999985,260.0,355.0,311.6665039999998,130.38476599999922,257.17968800000017,287.17968800000017,276.53857400000015,281.4101559999999,484.10253900000043,208.7177729999994,325.89746099999957,322.4360349999997
216,315.3847659999992,300.89746099999957,264.23095699999976,354.23095699999976,318.3334960000002,132.6923829999996,264.6152340000008,295.89746099999957,284.7436520000001,280.76904300000024,492.17968800000017,216.41015599999992,332.3076170000004,331.4101559999999
217,317.6923829999996,302.6923829999996,264.6152340000008,344.23095699999976,311.53857400000015,133.3334960000002,267.6923829999996,302.05126999999993,287.05126999999993,281.15380900000036,497.94873000000007,218.58984400000008,334.6152340000008,332.05126999999993
218,310.3847659999992,296.2822270000006,259.10253900000043,328.3334960000002,293.46142599999985,131.0258789999998,263.20507799999996,300.3847659999992,280.89746099999957,283.3334960000002,495.2563479999999,212.6923829999996,330.51269500000035,322.17968800000017
219,297.17968800000017,285.0,249.7436520000001,314.10253900000043,273.9741210000002,126.53857400000015,253.20507799999996,291.53857400000015,270.12841800000024,284.7436520000001,484.6152340000008,201.9228520000006,320.89746099999957,306.79492200000004
220,285.51269500000035,275.76904300000024,240.76904300000024,307.6923829999996,264.10253900000043,121.41015599999992,242.82031300000017,280.3847659999992,261.6665039999998,282.6923829999996,472.94873000000007,193.3334960000002,310.51269500000035,294.23095699999976
221,280.89746099999957,273.5898440000001,236.2822270000006,309.10253900000043,268.20507799999996,117.30761700000039,236.53857400000015,272.4360349999997,259.6152340000008,275.2563479999999,466.6665039999998,192.05126999999993,303.3334960000002,290.2563479999999
222,283.3334960000002,277.3076170000004,237.17968800000017,314.23095699999976,280.6411130000006,115.64111300000059,235.76904300000024,270.0,262.94873000000007,264.48730499999965,466.15380900000036,197.82031300000017,300.51269500000035,294.23095699999976
223,288.7177729999994,281.53857400000015,241.2822270000006,318.5898440000001,291.53857400000015,117.05126999999993,238.7177729999994,271.4101559999999,267.3076170000004,255.51269500000035,466.2822270000006,205.38476599999922,300.89746099999957,300.6411130000006
224,292.5639650000003,282.4360349999997,245.51269500000035,319.87158199999976,293.5898440000001,120.38476599999922,242.56396500000028,272.94873000000007,268.5898440000001,252.6923829999996,461.53857400000015,208.7177729999994,302.82031300000017,303.9741210000002
225,292.5639650000003,280.0,247.17968800000017,318.0771479999994,287.05126999999993,123.46142599999985,245.0,272.05126999999993,265.6411130000006,256.0258789999998,451.2822270000006,205.0,305.12841800000024,302.5639650000003
226,289.10253900000043,277.6923829999996,245.89746099999957,313.9741210000002,277.6923829999996,124.61523400000078,244.7436520000001,268.7177729999994,260.3847659999992,260.12841800000024,440.51269500000035,196.6665039999998,306.2822270000006,298.7177729999994
227,284.6152340000008,277.3076170000004,243.0771479999994,309.10253900000043,271.0258789999998,124.10253900000043,241.6665039999998,264.7436520000001,255.2563479999999,257.6923829999996,435.0,189.48730499999965,304.7436520000001,295.2563479999999
228,282.05126999999993,278.46142599999985,241.2822270000006,306.2822270000006,268.46142599999985,123.46142599999985,237.3076170000004,262.3076170000004,251.79492200000004,247.6923829999996,437.3076170000004,188.3334960000002,300.12841800000024,294.6152340000008
229,284.10253900000043,280.51269500000035,243.3334960000002,308.7177729999994,269.3588869999994,123.9741210000002,235.0,262.94873000000007,250.76904300000024,237.56396500000028,445.89746099999957,194.3588869999994,296.0258789999998,297.82031300000017
230,291.4101559999999,283.20507799999996,250.6411130000006,317.3076170000004,272.17968800000017,125.51269500000035,237.43603499999972,266.79492200000004,252.56396500000028,237.43603499999972,456.53857400000015,204.48730499999965,297.05126999999993,304.87158199999976
231,301.4101559999999,285.89746099999957,260.6411130000006,327.6923829999996,275.3847659999992,126.6665039999998,244.48730499999965,272.17968800000017,257.05126999999993,248.84619099999964,463.9741210000002,212.82031300000017,304.23095699999976,313.0771479999994
232,308.46142599999985,286.9228520000006,267.4360349999997,331.6665039999998,277.5639650000003,125.64111300000059,251.15380900000036,275.6411130000006,262.17968800000017,262.3076170000004,463.84619099999964,215.0,312.5639650000003,317.4360349999997
233,308.3334960000002,285.12841800000024,266.53857400000015,323.5898440000001,278.3334960000002,122.30761700000039,252.05126999999993,275.0,265.0,265.51269500000035,455.51269500000035,210.0,315.6411130000006,314.7436520000001
234,300.3847659999992,281.4101559999999,257.94873000000007,305.0,278.20507799999996,118.0771479999994,246.0258789999998,271.4101559999999,263.7177729999994,255.6411130000006,442.17968800000017,201.53857400000015,310.12841800000024,306.2822270000006
235,288.9741210000002,277.82031300000017,246.2822270000006,283.5898440000001,277.3076170000004,115.38476599999922,237.56396500000028,268.3334960000002,259.10253900000043,241.9228520000006,429.3588869999994,194.23095699999976,299.3588869999994,296.9228520000006
236,279.3588869999994,275.0,237.43603499999972,268.3334960000002,275.0,114.87158199999976,232.56396500000028,268.46142599999985,253.7177729999994,236.2822270000006,421.2822270000006,191.15380900000036,289.3588869999994,291.0258789999998
237,275.51269500000035,272.6923829999996,234.87158199999976,263.46142599999985,271.53857400000015,116.2822270000006,233.46142599999985,271.15380900000036,250.76904300000024,243.46142599999985,419.10253900000043,192.17968800000017,285.12841800000024,290.0
238,277.4360349999997,271.53857400000015,238.20507799999996,267.3076170000004,268.9741210000002,118.46142599999985,238.3334960000002,273.7177729999994,252.82031300000017,257.5639650000003,421.53857400000015,195.51269500000035,287.4360349999997,292.3076170000004
239,282.17968800000017,271.79492200000004,243.7177729999994,273.20507799999996,268.20507799999996,120.64111300000059,242.05126999999993,273.46142599999985,258.5898440000001,266.6665039999998,425.89746099999957,198.46142599999985,292.6923829999996,294.87158199999976
240,285.0,272.3076170000004,246.53857400000015,274.23095699999976,266.53857400000015,121.2822270000006,241.0258789999998,268.9741210000002,263.5898440000001,261.15380900000036,427.5639650000003,198.58984400000008,295.2563479999999,294.3588869999994
241,283.3334960000002,270.76904300000024,244.10253900000043,268.20507799999996,260.2563479999999,119.74365200000011,235.89746099999957,261.0258789999998,263.20507799999996,242.05126999999993,423.5898440000001,195.2563479999999,291.53857400000015,289.7436520000001
242,279.7436520000001,267.82031300000017,238.9741210000002,259.23095699999976,250.6411130000006,117.05126999999993,231.79492200000004,253.58984400000008,257.94873000000007,221.15380900000036,416.2822270000006,191.2822270000006,283.46142599999985,283.84619099999964
243,279.3588869999994,267.3076170000004,235.89746099999957,253.84619099999964,245.0,115.51269500000035,233.46142599999985,251.6665039999998,253.7177729999994,213.58984400000008,413.0771479999994,190.6411130000006,277.3076170000004,282.17968800000017
244,284.3588869999994,271.53857400000015,238.20507799999996,254.87158199999976,250.2563479999999,117.43603499999972,240.51269500000035,257.4360349999997,255.6411130000006,225.0,418.7177729999994,194.87158199999976,277.5639650000003,287.17968800000017
245,290.76904300000024,278.20507799999996,243.84619099999964,258.5898440000001,264.23095699999976,122.17968800000017,247.56396500000028,267.6923829999996,262.5639650000003,246.15380900000036,429.23095699999976,201.53857400000015,282.6923829999996,295.0
246,291.9228520000006,281.15380900000036,247.94873000000007,258.7177729999994,276.4101559999999,127.30761700000039,248.58984400000008,275.2563479999999,267.5639650000003,259.87158199999976,433.7177729999994,205.6411130000006,286.53857400000015,298.84619099999964
247,285.0,275.51269500000035,246.6665039999998,251.9228520000006,277.05126999999993,129.48730499999965,242.43603499999972,274.6152340000008,264.3588869999994,254.87158199999976,424.6152340000008,203.7177729999994,283.7177729999994,294.23095699999976
248,272.82031300000017,262.94873000000007,240.12841800000024,240.2563479999999,265.12841800000024,127.56396500000028,232.94873000000007,266.0258789999998,253.3334960000002,234.7436520000001,404.48730499999965,196.2822270000006,274.87158199999976,282.6923829999996
249,261.0258789999998,250.38476599999922,231.6665039999998,228.7177729999994,249.23095699999976,123.0771479999994,225.2563479999999,254.23095699999976,240.51269500000035,213.20507799999996,384.48730499999965,187.82031300000017,264.3588869999994,269.87158199999976
250,253.84619099999964,243.9741210000002,225.0,221.15380900000036,238.7177729999994,119.23095699999976,222.3076170000004,244.61523400000078,231.9228520000006,202.05126999999993,374.3588869999994,182.82031300000017,256.6665039999998,261.2822270000006
251,252.56396500000028,245.12841800000024,222.05126999999993,218.3334960000002,237.82031300000017,118.0771479999994,223.0771479999994,240.12841800000024,229.7436520000001,203.46142599999985,375.6411130000006,183.0771479999994,253.58984400000008,258.84619099999964
252,255.2563479999999,250.2563479999999,223.20507799999996,219.23095699999976,243.58984400000008,119.48730499999965,225.12841800000024,240.51269500000035,231.6665039999998,210.0,382.4360349999997,187.17968800000017,253.84619099999964,261.6665039999998
253,259.10253900000043,255.0,226.79492200000004,221.15380900000036,249.61523400000078,122.05126999999993,226.53857400000015,243.9741210000002,233.58984400000008,212.94873000000007,387.3076170000004,191.6665039999998,255.89746099999957,267.05126999999993
254,261.6665039999998,256.4101559999999,230.6411130000006,221.2822270000006,250.6411130000006,123.84619099999964,227.05126999999993,248.0771479999994,233.7177729999994,208.46142599999985,386.15380900000036,193.9741210000002,257.4360349999997,271.79492200000004
255,262.3076170000004,255.0,232.94873000000007,217.82031300000017,245.76904300000024,123.9741210000002,227.17968800000017,250.2563479999999,231.79492200000004,200.0,379.7436520000001,194.10253900000043,256.6665039999998,273.3334960000002
256,262.4360349999997,253.7177729999994,232.94873000000007,212.6923829999996,239.10253900000043,122.82031300000017,226.79492200000004,248.84619099999964,229.3588869999994,194.7436520000001,372.3076170000004,193.20507799999996,254.3588869999994,271.4101559999999
257,264.10253900000043,256.15380900000036,232.05126999999993,209.87158199999976,237.3076170000004,121.9228520000006,225.76904300000024,244.61523400000078,227.82031300000017,197.43603499999972,368.46142599999985,192.6923829999996,252.6923829999996,268.46142599999985
258,267.3076170000004,262.5639650000003,231.15380900000036,211.79492200000004,243.84619099999964,121.53857400000015,223.9741210000002,240.12841800000024,228.20507799999996,206.0258789999998,369.48730499999965,192.56396500000028,253.84619099999964,267.6923829999996
259,269.87158199999976,267.94873000000007,230.51269500000035,216.79492200000004,254.7436520000001,121.0258789999998,221.9228520000006,237.43603499999972,230.12841800000024,213.46142599999985,372.3076170000004,191.6665039999998,256.9228520000006,269.23095699999976
260,268.3334960000002,266.2822270000006,229.10253900000043,219.10253900000043,260.51269500000035,119.48730499999965,220.6411130000006,236.53857400000015,231.6665039999998,214.3588869999994,372.05126999999993,188.46142599999985,257.6923829999996,270.0
261,261.79492200000004,256.15380900000036,226.6665039999998,214.48730499999965,254.23095699999976,117.43603499999972,220.6411130000006,237.17968800000017,231.53857400000015,209.3588869999994,366.6665039999998,183.3334960000002,253.0771479999994,266.9228520000006
262,252.94873000000007,242.82031300000017,223.84619099999964,203.9741210000002,237.6923829999996,116.79492200000004,221.9228520000006,239.10253900000043,230.2563479999999,204.10253900000043,359.10253900000043,178.3334960000002,244.23095699999976,260.2563479999999
263,246.53857400000015,234.87158199999976,221.79492200000004,193.58984400000008,220.76904300000024,118.20507799999996,223.9741210000002,242.82031300000017,230.12841800000024,203.0771479999994,354.6152340000008,176.41015599999992,237.05126999999993,254.10253900000043
264,245.76904300000024,237.56396500000028,221.41015599999992,189.48730499999965,214.23095699999976,120.38476599999922,225.38476599999922,247.56396500000028,233.58984400000008,206.15380900000036,356.2822270000006,178.46142599999985,237.6923829999996,253.0771479999994
265,251.53857400000015,249.48730499999965,222.94873000000007,194.23095699999976,222.05126999999993,121.41015599999992,226.0258789999998,252.3076170000004,241.53857400000015,210.89746099999957,362.94873000000007,183.46142599999985,248.20507799999996,258.5898440000001
266,260.89746099999957,263.9741210000002,226.0258789999998,204.23095699999976,239.7436520000001,120.64111300000059,226.41015599999992,255.89746099999957,251.79492200000004,215.76904300000024,371.2822270000006,188.9741210000002,264.6152340000008,268.46142599999985
267,268.46142599999985,273.46142599999985,228.7177729999994,211.79492200000004,257.6923829999996,118.84619099999964,227.05126999999993,257.3076170000004,259.48730499999965,220.89746099999957,377.05126999999993,192.05126999999993,278.84619099999964,277.82031300000017
268,269.23095699999976,273.5898440000001,228.46142599999985,211.0258789999998,266.0258789999998,117.82031300000017,227.82031300000017,255.2563479999999,259.23095699999976,224.87158199999976,376.0258789999998,191.53857400000015,282.94873000000007,281.4101559999999
269,261.79492200000004,265.2563479999999,224.10253900000043,201.41015599999992,259.23095699999976,117.82031300000017,227.43603499999972,248.3334960000002,248.7177729999994,223.84619099999964,366.6665039999998,187.94873000000007,273.9741210000002,276.9228520000006
270,249.7436520000001,252.43603499999972,217.43603499999972,188.20507799999996,239.10253900000043,117.69238299999961,224.23095699999976,237.56396500000028,231.0258789999998,214.23095699999976,351.6665039999998,183.7177729999994,255.89746099999957,266.4101559999999
271,238.9741210000002,239.10253900000043,211.9228520000006,178.3334960000002,212.94873000000007,117.17968800000017,218.0771479999994,225.76904300000024,213.7177729999994,197.3076170000004,337.17968800000017,180.51269500000035,236.6665039999998,254.3588869999994
272,232.56396500000028,228.0771479999994,209.48730499999965,174.3588869999994,190.51269500000035,116.79492200000004,209.61523400000078,216.79492200000004,203.0771479999994,179.10253900000043,328.3334960000002,178.84619099999964,223.3334960000002,243.9741210000002
273,228.84619099999964,219.87158199999976,208.84619099999964,173.20507799999996,178.46142599999985,117.17968800000017,200.89746099999957,211.79492200000004,200.2563479999999,167.3076170000004,325.12841800000024,177.6923829999996,217.6923829999996,235.89746099999957
274,225.0,213.3334960000002,207.56396500000028,170.0,177.56396500000028,117.56396500000028,194.48730499999965,209.23095699999976,201.53857400000015,165.38476599999922,324.23095699999976,175.51269500000035,217.43603499999972,229.3588869999994
275,220.89746099999957,209.23095699999976,204.87158199999976,164.10253900000043,185.38476599999922,117.56396500000028,192.94873000000007,208.20507799999996,203.0771479999994,171.41015599999992,323.7177729999994,172.43603499999972,220.0,225.2563479999999
276,220.2563479999999,210.89746099999957,203.0771479999994,160.51269500000035,199.23095699999976,117.43603499999972,197.94873000000007,210.51269500000035,205.2563479999999,181.15380900000036,326.0258789999998,170.12841800000024,226.15380900000036,226.6665039999998
277,226.6665039999998,221.9228520000006,205.38476599999922,164.7436520000001,216.9228520000006,118.20507799999996,207.94873000000007,218.7177729999994,211.15380900000036,192.3076170000004,334.3588869999994,171.15380900000036,237.43603499999972,236.0258789999998
278,239.61523400000078,240.51269500000035,211.6665039999998,176.6665039999998,235.89746099999957,119.74365200000011,218.9741210000002,231.6665039999998,222.05126999999993,204.3588869999994,347.6923829999996,176.41015599999992,252.3076170000004,251.2822270000006
279,252.94873000000007,258.84619099999964,218.3334960000002,188.84619099999964,251.79492200000004,121.0258789999998,226.0258789999998,244.10253900000043,234.48730499999965,216.15380900000036,358.84619099999964,183.0771479999994,265.2563479999999,265.12841800000024
280,258.7177729999994,268.0771479999994,220.51269500000035,192.43603499999972,258.5898440000001,120.89746099999957,225.76904300000024,249.23095699999976,241.53857400000015,223.3334960000002,359.7436520000001,186.9228520000006,270.12841800000024,270.0
281,252.17968800000017,263.46142599999985,215.6411130000006,183.3334960000002,252.05126999999993,119.23095699999976,218.0771479999994,243.58984400000008,238.58984400000008,219.7436520000001,347.3076170000004,184.61523400000078,264.23095699999976,262.94873000000007
282,235.38476599999922,247.94873000000007,205.76904300000024,166.0258789999998,232.56396500000028,117.17968800000017,206.15380900000036,229.61523400000078,226.53857400000015,202.82031300000017,326.53857400000015,177.43603499999972,249.61523400000078,247.05126999999993
283,216.79492200000004,229.7436520000001,195.2563479999999,150.76904300000024,207.6923829999996,115.89746099999957,195.0,213.84619099999964,211.2822270000006,178.84619099999964,306.9228520000006,168.9741210000002,232.05126999999993,229.61523400000078
284,206.0258789999998,217.56396500000028,189.3588869999994,145.89746099999957,189.48730499999965,115.89746099999957,189.48730499999965,203.0771479999994,198.84619099999964,159.87158199999976,297.05126999999993,163.46142599999985,217.43603499999972,217.43603499999972
285,207.17968800000017,215.38476599999922,189.48730499999965,151.9228520000006,187.94873000000007,117.05126999999993,191.6665039999998,201.0258789999998,192.56396500000028,155.6411130000006,299.10253900000043,162.3076170000004,210.12841800000024,213.84619099999964
286,217.05126999999993,221.0258789999998,193.3334960000002,161.15380900000036,203.84619099999964,118.0771479999994,199.3588869999994,207.05126999999993,192.56396500000028,166.15380900000036,308.46142599999985,164.23095699999976,211.2822270000006,217.94873000000007
287,227.6923829999996,228.20507799999996,196.53857400000015,165.0,226.53857400000015,118.46142599999985,208.20507799999996,216.79492200000004,197.6923829999996,182.05126999999993,316.9228520000006,166.41015599999992,217.82031300000017,224.87158199999976
288,231.53857400000015,230.6411130000006,196.9228520000006,160.89746099999957,240.12841800000024,117.94873000000007,213.58984400000008,225.0,205.89746099999957,193.20507799999996,318.46142599999985,167.43603499999972,224.7436520000001,229.48730499999965
289,227.3076170000004,226.0258789999998,195.38476599999922,153.58984400000008,235.38476599999922,117.30761700000039,213.3334960000002,228.58984400000008,215.51269500000035,195.89746099999957,312.6923829999996,167.43603499999972,226.9228520000006,228.7177729999994
290,217.94873000000007,217.05126999999993,193.7177729999994,149.7436520000001,216.79492200000004,117.05126999999993,207.82031300000017,227.3076170000004,223.58984400000008,193.0771479999994,303.46142599999985,166.6665039999998,222.05126999999993,222.82031300000017
291,208.46142599999985,208.3334960000002,192.05126999999993,151.0258789999998,198.3334960000002,117.43603499999972,199.48730499999965,222.82031300000017,226.9228520000006,189.87158199999976,294.87158199999976,165.2563479999999,212.05126999999993,214.7436520000001
292,202.3076170000004,204.48730499999965,190.2563479999999,153.9741210000002,192.6923829999996,118.0771479999994,191.53857400000015,217.56396500000028,223.58984400000008,188.46142599999985,289.23095699999976,163.0771479999994,202.43603499999972,208.58984400000008
293,202.05126999999993,206.2822270000006,189.3588869999994,155.12841800000024,202.3076170000004,118.3334960000002,187.82031300000017,214.23095699999976,215.6411130000006,187.82031300000017,287.4360349999997,161.79492200000004,199.48730499999965,208.20507799999996
294,208.46142599999985,211.2822270000006,191.2822270000006,154.7436520000001,219.3588869999994,117.69238299999961,191.0258789999998,214.48730499999965,208.58984400000008,186.6665039999998,290.2563479999999,163.20507799999996,207.3076170000004,215.12841800000024
295,219.87158199999976,216.41015599999992,197.17968800000017,155.51269500000035,232.82031300000017,116.79492200000004,200.51269500000035,218.58984400000008,208.7177729999994,186.15380900000036,297.6923829999996,167.94873000000007,224.3588869999994,228.20507799999996
296,231.2822270000006,220.38476599999922,205.0,158.84619099999964,236.15380900000036,116.15380900000036,211.6665039999998,224.87158199999976,217.05126999999993,188.7177729999994,306.79492200000004,174.48730499999965,243.46142599999985,242.17968800000017
297,237.56396500000028,222.56396500000028,210.89746099999957,163.3334960000002,231.15380900000036,116.53857400000015,217.94873000000007,229.7436520000001,228.7177729999994,195.38476599999922,313.5898440000001,179.61523400000078,255.2563479999999,250.89746099999957
298,236.41015599999992,222.43603499999972,211.15380900000036,166.15380900000036,224.61523400000078,117.82031300000017,216.0258789999998,229.7436520000001,235.76904300000024,203.20507799999996,315.3847659999992,180.38476599999922,254.48730499999965,250.51269500000035
299,229.3588869999994,219.23095699999976,204.87158199999976,164.7436520000001,221.53857400000015,119.48730499999965,207.43603499999972,223.9741210000002,232.6923829999996,206.53857400000015,311.6665039999998,176.15380900000036,242.82031300000017,241.9228520000006
300,219.7436520000001,212.94873000000007,194.7436520000001,158.7177729999994,220.89746099999957,119.87158199999976,197.17968800000017,214.48730499999965,220.2563479999999,201.9228520000006,303.3334960000002,169.10253900000043,227.43603499999972,229.3588869999994
301,210.38476599999922,204.48730499999965,184.7436520000001,149.23095699999976,216.0258789999998,118.58984400000008,189.61523400000078,204.61523400000078,204.3588869999994,190.38476599999922,291.79492200000004,162.56396500000028,215.38476599999922,217.56396500000028
302,203.46142599999985,195.76904300000024,178.20507799999996,139.3588869999994,203.0771479999994,116.41015599999992,186.2822270000006,196.41015599999992,192.3076170000004,177.17968800000017,278.9741210000002,158.9741210000002,209.3588869999994,209.48730499999965
303,200.0,189.23095699999976,176.41015599999992,132.43603499999972,184.87158199999976,114.87158199999976,186.0258789999998,190.76904300000024,187.43603499999972,167.56396500000028,267.94873000000007,158.84619099999964,208.7177729999994,206.41015599999992
304,200.38476599999922,187.3076170000004,178.58984400000008,131.15380900000036,171.0258789999998,115.12841800000024,186.6665039999998,188.3334960000002,188.7177729999994,163.46142599999985,262.17968800000017,160.89746099999957,211.15380900000036,208.3334960000002
305,203.84619099999964,190.51269500000035,181.9228520000006,135.12841800000024,169.7436520000001,116.9228520000006,186.6665039999998,188.9741210000002,192.05126999999993,163.46142599999985,263.20507799999996,162.94873000000007,214.3588869999994,213.20507799999996
306,207.94873000000007,196.53857400000015,183.7177729999994,141.53857400000015,181.9228520000006,119.10253900000043,186.15380900000036,192.3076170000004,193.9741210000002,164.3588869999994,269.3588869999994,164.10253900000043,216.6665039999998,217.94873000000007
307,210.2563479999999,201.6665039999998,182.6923829999996,146.6665039999998,200.6411130000006,120.51269500000035,186.41015599999992,196.79492200000004,193.46142599999985,164.7436520000001,276.79492200000004,164.3588869999994,217.56396500000028,219.87158199999976
308,210.12841800000024,203.84619099999964,180.12841800000024,148.7177729999994,216.2822270000006,120.38476599999922,188.20507799999996,200.89746099999957,192.82031300000017,165.51269500000035,281.53857400000015,164.23095699999976,217.94873000000007,218.20507799999996
309,208.58984400000008,203.84619099999964,178.58984400000008,148.20507799999996,222.6923829999996,119.10253900000043,190.6411130000006,203.58984400000008,195.6411130000006,168.46142599999985,281.79492200000004,164.10253900000043,219.23095699999976,215.12841800000024
310,207.56396500000028,204.3588869999994,179.48730499999965,147.05126999999993,220.51269500000035,117.69238299999961,192.82031300000017,205.51269500000035,203.58984400000008,174.61523400000078,279.7436520000001,163.84619099999964,222.43603499999972,213.46142599999985
311,209.10253900000043,207.17968800000017,183.0771479999994,148.0771479999994,214.48730499999965,117.30761700000039,195.0,208.20507799999996,213.9741210000002,183.3334960000002,279.48730499999965,163.9741210000002,227.6923829999996,216.0258789999998
312,213.46142599999985,211.53857400000015,187.94873000000007,152.94873000000007,209.61523400000078,118.20507799999996,197.43603499999972,211.53857400000015,221.6665039999998,192.56396500000028,283.46142599999985,165.12841800000024,233.46142599999985,222.3076170000004
313,218.3334960000002,214.48730499999965,191.2822270000006,160.12841800000024,207.6923829999996,119.35888699999941,199.87158199999976,214.10253900000043,222.17968800000017,199.3588869999994,289.87158199999976,166.79492200000004,236.79492200000004,228.46142599999985
314,219.61523400000078,212.6923829999996,190.76904300000024,164.61523400000078,206.41015599999992,119.87158199999976,200.0,213.9741210000002,215.6411130000006,200.76904300000024,293.0771479999994,167.3076170000004,234.7436520000001,229.3588869999994
315,215.0,206.41015599999992,185.51269500000035,162.05126999999993,202.94873000000007,119.35888699999941,196.0258789999998,210.38476599999922,206.41015599999992,195.6411130000006,288.0771479999994,165.0,226.41015599999992,222.94873000000007
316,205.89746099999957,198.84619099999964,177.82031300000017,153.0771479999994,197.6923829999996,118.3334960000002,188.58984400000008,204.3588869999994,199.23095699999976,186.15380900000036,275.76904300000024,159.7436520000001,214.87158199999976,211.6665039999998
317,196.15380900000036,193.20507799999996,171.15380900000036,142.94873000000007,194.7436520000001,117.94873000000007,181.53857400000015,197.94873000000007,196.15380900000036,176.41015599999992,262.5639650000003,153.9741210000002,205.0,200.89746099999957
318,188.9741210000002,190.0,167.3076170000004,136.41015599999992,195.6411130000006,118.58984400000008,178.0771479999994,192.6923829999996,195.0,168.7177729999994,254.3588869999994,149.87158199999976,198.9741210000002,194.23095699999976
319,183.3334960000002,186.6665039999998,165.12841800000024,133.58984400000008,196.0258789999998,119.23095699999976,177.94873000000007,187.94873000000007,191.53857400000015,162.43603499999972,251.6665039999998,147.82031300000017,195.0,190.38476599999922
320,177.82031300000017,180.76904300000024,163.0771479999994,131.53857400000015,189.61523400000078,118.84619099999964,177.94873000000007,183.0771479999994,184.23095699999976,156.9228520000006,250.6411130000006,147.17968800000017,190.0,186.15380900000036
321,174.87158199999976,174.3588869999994,162.17968800000017,129.48730499999965,176.6665039999998,117.69238299999961,176.9228520000006,179.61523400000078,177.17968800000017,154.48730499999965,249.61523400000078,147.43603499999972,185.12841800000024,181.41015599999992
322,179.10253900000043,174.10253900000043,166.2822270000006,130.6411130000006,167.43603499999972,117.30761700000039,177.17968800000017,180.38476599999922,177.6923829999996,159.23095699999976,251.15380900000036,150.0,185.76904300000024,181.41015599999992
323,192.6923829999996,184.61523400000078,176.9228520000006,137.56396500000028,173.46142599999985,118.3334960000002,181.9228520000006,187.43603499999972,188.84619099999964,172.43603499999972,258.5898440000001,155.6411130000006,196.53857400000015,190.89746099999957
324,209.7436520000001,201.9228520000006,190.2563479999999,148.20507799999996,194.23095699999976,120.38476599999922,190.89746099999957,198.3334960000002,205.2563479999999,187.6923829999996,270.0,163.20507799999996,214.10253900000043,207.6923829999996
325,220.38476599999922,214.61523400000078,198.7177729999994,156.15380900000036,215.38476599999922,121.6665039999998,198.7177729999994,206.79492200000004,216.0258789999998,194.87158199999976,278.5898440000001,168.84619099999964,227.56396500000028,221.9228520000006
326,217.05126999999993,212.94873000000007,196.41015599999992,155.0,220.0,121.15380900000036,199.3588869999994,206.41015599999992,213.58984400000008,188.0771479999994,277.17968800000017,169.10253900000043,226.9228520000006,223.0771479999994
327,201.53857400000015,196.79492200000004,184.10253900000043,144.23095699999976,202.94873000000007,119.10253900000043,191.79492200000004,196.53857400000015,199.48730499999965,170.6411130000006,264.7436520000001,163.46142599999985,211.15380900000036,209.48730499999965
328,182.82031300000017,175.6411130000006,168.20507799999996,130.12841800000024,175.0,116.9228520000006,180.12841800000024,182.82031300000017,182.43603499999972,152.6923829999996,247.05126999999993,154.61523400000078,189.10253900000043,188.46142599999985
329,170.51269500000035,161.2822270000006,156.79492200000004,121.9228520000006,154.23095699999976,116.0258789999998,170.89746099999957,172.43603499999972,170.2563479999999,143.3334960000002,232.05126999999993,146.79492200000004,172.3076170000004,171.79492200000004
330,168.84619099999964,160.51269500000035,154.10253900000043,125.0,152.17968800000017,116.79492200000004,168.9741210000002,169.7436520000001,165.89746099999957,144.48730499999965,225.51269500000035,143.0771479999994,168.20507799999996,167.3076170000004
331,175.0,170.6411130000006,158.9741210000002,136.79492200000004,166.0258789999998,118.58984400000008,174.10253900000043,173.84619099999964,166.9228520000006,151.15380900000036,227.05126999999993,143.9741210000002,175.0,174.23095699999976
332,182.05126999999993,182.82031300000017,166.0258789999998,148.46142599999985,183.3334960000002,119.48730499999965,180.76904300000024,178.9741210000002,168.84619099999964,155.6411130000006,231.2822270000006,147.43603499999972,184.3588869999994,184.23095699999976
333,183.9741210000002,188.0771479999994,170.0,151.41015599999992,192.56396500000028,118.9741210000002,182.6923829999996,179.3588869999994,169.10253900000043,153.58984400000008,231.6665039999998,150.12841800000024,187.94873000000007,188.84619099999964
334,180.51269500000035,184.10253900000043,168.9741210000002,144.3588869999994,190.6411130000006,117.56396500000028,178.0771479999994,174.48730499999965,167.94873000000007,146.53857400000015,226.53857400000015,150.38476599999922,183.9741210000002,185.51269500000035
335,176.9228520000006,175.89746099999957,165.6411130000006,134.48730499999965,182.17968800000017,116.79492200000004,171.41015599999992,168.84619099999964,166.9228520000006,141.53857400000015,220.2563479999999,149.10253900000043,177.94873000000007,179.10253900000043
336,176.9228520000006,170.2563479999999,163.9741210000002,130.0,172.82031300000017,117.43603499999972,168.7177729999994,167.43603499999972,166.9228520000006,143.46142599999985,218.20507799999996,148.7177729999994,175.89746099999957,176.0258789999998
337,178.84619099999964,169.3588869999994,164.87158199999976,132.3076170000004,164.87158199999976,118.7177729999994,171.79492200000004,169.7436520000001,166.2822270000006,150.0,221.15380900000036,149.61523400000078,178.3334960000002,177.56396500000028
338,178.20507799999996,171.0258789999998,165.38476599999922,135.0,157.56396500000028,118.84619099999964,176.0258789999998,172.05126999999993,163.7177729999994,153.46142599999985,224.61523400000078,150.51269500000035,180.6411130000006,180.0
339,173.46142599999985,172.56396500000028,163.84619099999964,132.17968800000017,151.41015599999992,117.56396500000028,176.41015599999992,171.0258789999998,160.6411130000006,149.7436520000001,224.3588869999994,150.2563479999999,180.12841800000024,180.38476599999922
340,168.58984400000008,174.23095699999976,161.53857400000015,124.48730499999965,150.2563479999999,116.15380900000036,172.17968800000017,167.94873000000007,160.6411130000006,143.58984400000008,221.79492200000004,148.9741210000002,178.84619099999964,179.61523400000078
341,169.10253900000043,177.56396500000028,161.9228520000006,118.84619099999964,157.05126999999993,116.0258789999998,167.3076170000004,166.53857400000015,166.41015599999992,142.6923829999996,221.9228520000006,148.0771479999994,181.0258789999998,181.15380900000036
342,176.0258789999998,181.53857400000015,166.41015599999992,121.6665039999998,169.61523400000078,117.56396500000028,165.89746099999957,168.9741210000002,175.76904300000024,149.10253900000043,228.20507799999996,148.9741210000002,186.53857400000015,186.41015599999992
343,184.87158199999976,183.0771479999994,172.17968800000017,131.6665039999998,180.2563479999999,119.23095699999976,168.58984400000008,174.10253900000043,182.6923829999996,156.9228520000006,237.94873000000007,151.2822270000006,190.51269500000035,192.3076170000004
344,189.10253900000043,180.0,175.0,141.53857400000015,183.20507799999996,119.48730499999965,172.43603499999972,178.84619099999964,182.56396500000028,158.7177729999994,244.61523400000078,153.46142599999985,188.9741210000002,194.61523400000078
345,186.6665039999998,174.61523400000078,172.94873000000007,144.7436520000001,179.87158199999976,118.46142599999985,174.23095699999976,180.89746099999957,176.6665039999998,153.58984400000008,243.3334960000002,153.9741210000002,183.3334960000002,192.3076170000004
346,180.51269500000035,172.3076170000004,167.82031300000017,140.6411130000006,176.6665039999998,116.9228520000006,173.20507799999996,180.51269500000035,170.12841800000024,147.3076170000004,234.61523400000078,152.82031300000017,178.84619099999964,187.56396500000028
347,175.12841800000024,174.48730499999965,162.82031300000017,134.61523400000078,176.0258789999998,116.15380900000036,170.38476599999922,178.9741210000002,166.6665039999998,144.61523400000078,222.6923829999996,150.12841800000024,178.0771479999994,183.20507799999996
348,172.3076170000004,176.6665039999998,160.51269500000035,131.41015599999992,173.9741210000002,116.2822270000006,167.05126999999993,176.41015599999992,165.12841800000024,144.23095699999976,212.6923829999996,147.56396500000028,178.20507799999996,179.61523400000078
349,170.38476599999922,172.56396500000028,160.89746099999957,130.89746099999957,165.51269500000035,116.9228520000006,163.58984400000008,172.05126999999993,162.43603499999972,141.9228520000006,206.9228520000006,146.41015599999992,174.23095699999976,175.2563479999999
350,167.17968800000017,160.51269500000035,161.53857400000015,128.58984400000008,151.6665039999998,117.56396500000028,160.38476599999922,165.76904300000024,157.43603499999972,135.89746099999957,204.87158199999976,147.17968800000017,165.0,169.3588869999994
351,161.41015599999992,145.51269500000035,159.10253900000043,120.38476599999922,138.9741210000002,117.69238299999961,156.41015599999992,158.20507799999996,151.53857400000015,128.46142599999985,202.94873000000007,148.20507799999996,153.84619099999964,161.79492200000004
352,153.46142599999985,134.23095699999976,152.17968800000017,106.79492200000004,133.9741210000002,116.79492200000004,150.38476599999922,150.12841800000024,146.2822270000006,123.0771479999994,198.0771479999994,147.17968800000017,145.12841800000024,153.9741210000002
353,147.05126999999993,131.9228520000006,143.58984400000008,94.87158199999976,138.20507799999996,115.12841800000024,143.9741210000002,143.9741210000002,143.46142599999985,122.82031300000017,191.9228520000006,144.10253900000043,142.3076170000004,148.84619099999964
354,147.56396500000028,140.51269500000035,139.48730499999965,93.9741210000002,148.46142599999985,114.48730499999965,142.17968800000017,144.10253900000043,146.15380900000036,130.2563479999999,191.6665039999998,142.17968800000017,147.43603499999972,151.15380900000036
355,158.20507799999996,157.94873000000007,146.15380900000036,107.69238299999961,160.38476599999922,116.2822270000006,150.2563479999999,153.9741210000002,157.17968800000017,145.89746099999957,203.46142599999985,145.6411130000006,160.38476599999922,163.7177729999994
356,175.89746099999957,177.82031300000017,162.82031300000017,130.2563479999999,171.41015599999992,120.25634799999989,167.3076170000004,172.05126999999993,174.23095699999976,165.38476599999922,224.7436520000001,154.48730499999965,177.3076170000004,183.58984400000008
357,192.56396500000028,191.79492200000004,180.2563479999999,150.0,179.48730499999965,124.35888699999941,184.48730499999965,189.87158199999976,189.3588869999994,178.84619099999964,244.23095699999976,164.3588869999994,191.53857400000015,201.79492200000004
358,200.0,193.84619099999964,187.6923829999996,157.82031300000017,182.56396500000028,126.0258789999998,192.17968800000017,198.3334960000002,194.10253900000043,178.46142599999985,250.12841800000024,168.84619099999964,196.6665039999998,208.7177729999994
359,195.51269500000035,184.48730499999965,181.2822270000006,152.17968800000017,178.3334960000002,124.61523400000078,186.6665039999998,194.23095699999976,186.15380900000036,164.3588869999994,239.87158199999976,165.0,191.53857400000015,201.53857400000015
360,182.56396500000028,169.61523400000078,166.6665039999998,138.3334960000002,166.41015599999992,121.15380900000036,173.7177729999994,181.79492200000004,171.15380900000036,145.38476599999922,220.76904300000024,156.0258789999998,180.0,185.12841800000024
361,168.46142599999985,156.0258789999998,153.58984400000008,124.23095699999976,150.12841800000024,117.56396500000028,162.6923829999996,169.3588869999994,158.58984400000008,132.43603499999972,203.9741210000002,147.6923829999996,168.46142599999985,169.23095699999976
362,160.12841800000024,147.56396500000028,149.23095699999976,115.51269500000035,137.05126999999993,115.64111300000059,159.7436520000001,163.9741210000002,155.38476599999922,131.0258789999998,197.43603499999972,144.7436520000001,162.43603499999972,161.41015599999992
363,160.0,145.12841800000024,153.46142599999985,113.84619099999964,135.12841800000024,115.64111300000059,164.23095699999976,167.6923829999996,161.79492200000004,139.61523400000078,200.89746099999957,147.56396500000028,163.7177729999994,163.46142599999985
364,165.0,147.43603499999972,160.0,116.53857400000015,145.89746099999957,116.79492200000004,170.12841800000024,175.89746099999957,170.89746099999957,151.15380900000036,207.6923829999996,152.3076170000004,168.9741210000002,170.6411130000006
365,168.3334960000002,151.15380900000036,161.2822270000006,118.9741210000002,162.3076170000004,117.69238299999961,170.6411130000006,180.2563479999999,174.87158199999976,157.05126999999993,209.61523400000078,153.9741210000002,172.3076170000004,175.12841800000024
366,165.0,153.20507799999996,155.0,118.20507799999996,172.94873000000007,117.69238299999961,163.7177729999994,176.15380900000036,170.76904300000024,153.20507799999996,202.6923829999996,150.12841800000024,169.7436520000001,171.79492200000004
367,157.05126999999993,153.3334960000002,146.0258789999998,114.87158199999976,171.0258789999998,117.17968800000017,154.10253900000043,165.89746099999957,163.0771479999994,143.58984400000008,190.2563479999999,143.58984400000008,163.3334960000002,162.6923829999996
368,151.2822270000006,153.58984400000008,141.6665039999998,112.43603499999972,160.2563479999999,117.05126999999993,149.87158199999976,158.0771479999994,158.7177729999994,136.41015599999992,180.12841800000024,139.3588869999994,158.46142599999985,155.76904300000024
369,152.6923829999996,155.76904300000024,145.51269500000035,113.46142599999985,149.61523400000078,117.94873000000007,154.7436520000001,158.7177729999994,160.51269500000035,136.9228520000006,177.17968800000017,140.51269500000035,158.58984400000008,156.2822270000006
370,159.3588869999994,157.56396500000028,153.58984400000008,116.15380900000036,144.7436520000001,118.9741210000002,164.7436520000001,166.41015599999992,164.3588869999994,141.41015599999992,179.23095699999976,145.2563479999999,160.76904300000024,161.79492200000004
371,164.3588869999994,154.87158199999976,158.9741210000002,116.9228520000006,143.9741210000002,119.61523400000078,171.2822270000006,172.94873000000007,163.84619099999964,141.41015599999992,180.51269500000035,148.9741210000002,159.23095699999976,165.0
372,163.0771479999994,146.79492200000004,158.58984400000008,114.23095699999976,143.7177729999994,119.10253900000043,169.61523400000078,172.3076170000004,157.05126999999993,133.7177729999994,178.3334960000002,148.7177729999994,152.56396500000028,162.17968800000017
373,158.7177729999994,139.87158199999976,155.89746099999957,111.2822270000006,143.46142599999985,118.46142599999985,163.46142599999985,166.2822270000006,149.61523400000078,124.61523400000078,176.41015599999992,146.15380900000036,147.56396500000028,157.82031300000017
374,158.58984400000008,142.05126999999993,156.9228520000006,113.3334960000002,146.6665039999998,118.84619099999964,160.12841800000024,162.17968800000017,149.61523400000078,123.9741210000002,180.2563479999999,145.51269500000035,152.05126999999993,159.61523400000078
375,165.76904300000024,154.7436520000001,162.94873000000007,121.53857400000015,155.76904300000024,120.0,162.94873000000007,164.23095699999976,158.9741210000002,133.7177729999994,190.12841800000024,148.3334960000002,166.15380900000036,169.23095699999976
376,175.51269500000035,170.38476599999922,169.7436520000001,131.0258789999998,168.7177729999994,120.64111300000059,167.82031300000017,170.2563479999999,171.41015599999992,145.89746099999957,199.3588869999994,152.6923829999996,180.51269500000035,180.38476599999922
377,179.48730499999965,178.20507799999996,170.2563479999999,134.23095699999976,179.7436520000001,119.74365200000011,168.0771479999994,173.0771479999994,177.3076170000004,150.6411130000006,200.12841800000024,153.9741210000002,184.3588869999994,183.7177729999994
378,172.82031300000017,172.82031300000017,161.9228520000006,127.56396500000028,182.56396500000028,118.20507799999996,160.76904300000024,168.3334960000002,172.05126999999993,145.0,190.38476599999922,149.3588869999994,174.87158199999976,175.12841800000024
379,158.84619099999964,158.3334960000002,149.3588869999994,115.38476599999922,175.76904300000024,117.30761700000039,149.7436520000001,158.20507799999996,159.61523400000078,134.87158199999976,175.12841800000024,140.6411130000006,159.61523400000078,160.0
380,146.15380900000036,145.12841800000024,140.89746099999957,107.05126999999993,163.9741210000002,117.82031300000017,142.17968800000017,150.38476599999922,149.61523400000078,128.84619099999964,163.46142599999985,133.0771479999994,149.48730499999965,148.3334960000002
381,142.3076170000004,142.05126999999993,141.79492200000004,108.7177729999994,155.0,119.35888699999941,142.82031300000017,150.6411130000006,149.3588869999994,130.51269500000035,162.43603499999972,132.17968800000017,150.2563479999999,148.0771479999994
382,147.43603499999972,149.10253900000043,149.87158199999976,116.53857400000015,152.82031300000017,120.76904300000024,149.61523400000078,157.82031300000017,157.43603499999972,135.89746099999957,171.53857400000015,138.20507799999996,158.20507799999996,157.43603499999972
383,154.23095699999976,157.82031300000017,156.79492200000004,120.25634799999989,153.9741210000002,121.41015599999992,155.6411130000006,164.61523400000078,165.2563479999999,137.56396500000028,181.41015599999992,145.89746099999957,163.9741210000002,166.9228520000006
