,EEG.AF3,EEG.F7,EEG.F3,EEG.FC5,EEG.T7,EEG.P7,EEG.O1,EEG.O2,EEG.P8,EEG.T8,EEG.FC6,EEG.F4,EEG.F8,EEG.AF4
0,62.30761700000039,88.46142599999985,50.0,33.846190999999635,37.30761700000039,82.17968800000017,99.87158199999976,91.41015599999992,106.79492200000004,93.84619099999964,128.20507799999996,99.87158199999976,107.56396500000028,66.2822270000006
1,61.410155999999915,96.41015599999992,49.23095699999976,35.897460999999566,42.30761700000039,81.0258789999998,98.9741210000002,89.61523400000078,106.15380900000036,96.41015599999992,118.58984400000008,100.25634799999989,108.58984400000008,64.23095699999976
2,67.43603499999972,109.74365200000011,53.7177729999994,51.025878999999804,68.3334960000002,81.9228520000006,103.7177729999994,98.20507799999996,111.6665039999998,108.20507799999996,120.0,106.2822270000006,124.61523400000078,71.41015599999992
3,81.9228520000006,126.0258789999998,62.82031300000017,76.6665039999998,109.23095699999976,85.51269500000035,116.53857400000015,117.30761700000039,125.25634799999989,126.6665039999998,137.05126999999993,115.51269500000035,152.94873000000007,89.48730499999965
4,100.51269500000035,137.94873000000007,71.15380900000036,98.46142599999985,145.89746099999957,90.0,132.17968800000017,138.46142599999985,141.2822270000006,142.3076170000004,160.89746099999957,123.3334960000002,180.6411130000006,109.74365200000011
5,111.53857400000015,136.15380900000036,72.56396500000028,99.87158199999976,155.76904300000024,92.43603499999972,140.0,147.94873000000007,147.3076170000004,142.94873000000007,174.48730499999965,125.25634799999989,189.10253900000043,117.56396500000028
6,104.48730499999965,116.6665039999998,64.10253900000043,75.89746099999957,129.10253900000043,90.51269500000035,132.17968800000017,136.53857400000015,134.10253900000043,123.58984400000008,165.0,119.10253900000043,168.3334960000002,103.58984400000008
7,81.15380900000036,88.20507799999996,49.35888699999941,39.61523400000078,79.87158199999976,85.0,111.0258789999998,107.69238299999961,105.25634799999989,92.69238299999961,135.76904300000024,107.82031300000017,127.17968800000017,73.3334960000002
8,57.56396500000028,70.0,37.17968800000017,15.256347999999889,39.23095699999976,80.38476599999922,89.10253900000043,78.3334960000002,77.82031300000017,68.7177729999994,105.12841800000024,98.0771479999994,90.89746099999957,45.64111300000059
9,51.9228520000006,77.56396500000028,35.64111300000059,20.0,34.102539000000434,80.76904300000024,80.38476599999922,68.0771479999994,70.64111300000059,67.56396500000028,93.46142599999985,96.79492200000004,83.0771479999994,39.23095699999976
10,68.46142599999985,107.82031300000017,45.897460999999566,50.25634799999989,67.30761700000039,85.64111300000059,89.87158199999976,84.35888699999941,89.48730499999965,90.12841800000024,107.30761700000039,105.12841800000024,107.82031300000017,58.20507799999996
11,92.69238299999961,138.84619099999964,60.12841800000024,82.43603499999972,114.87158199999976,90.25634799999989,110.0,116.0258789999998,121.6665039999998,121.0258789999998,134.23095699999976,117.30761700000039,145.51269500000035,87.56396500000028
12,100.64111300000059,145.38476599999922,67.05126999999993,91.9228520000006,142.82031300000017,89.61523400000078,125.64111300000059,140.12841800000024,143.84619099999964,139.10253900000043,151.79492200000004,124.74365200000011,166.53857400000015,104.10253900000043
13,78.9741210000002,118.3334960000002,60.76904300000024,71.9228520000006,131.0258789999998,82.56396500000028,125.12841800000024,138.7177729999994,138.9741210000002,131.2822270000006,144.48730499999965,122.05126999999993,153.46142599999985,93.3334960000002
14,36.9228520000006,72.05126999999993,46.410155999999915,38.974121000000196,87.05126999999993,72.69238299999961,108.7177729999994,112.05126999999993,108.9741210000002,102.17968800000017,115.51269500000035,110.89746099999957,114.10253900000043,61.53857400000015
15,2.6923829999996087,33.333496000000196,35.897460999999566,17.69238299999961,42.43603499999972,66.15380900000036,88.9741210000002,78.46142599999985,74.74365200000011,70.51269500000035,85.0,98.58984400000008,75.64111300000059,32.56396500000028
16,2.0512699999999313,25.128418000000238,38.974121000000196,23.205077999999958,30.897460999999566,67.43603499999972,82.17968800000017,62.82031300000017,61.666503999999804,57.43603499999972,75.76904300000024,94.10253900000043,65.51269500000035,30.128418000000238
17,37.05126999999993,51.666503999999804,54.87158199999976,51.410155999999915,63.7177729999994,76.79492200000004,96.53857400000015,79.35888699999941,81.6665039999998,73.3334960000002,97.56396500000028,102.17968800000017,92.69238299999961,58.46142599999985
18,82.43603499999972,93.9741210000002,70.89746099999957,82.82031300000017,119.10253900000043,88.3334960000002,124.48730499999965,118.9741210000002,122.56396500000028,109.23095699999976,137.17968800000017,118.46142599999985,140.89746099999957,97.17968800000017
19,105.51269500000035,120.12841800000024,72.69238299999961,94.74365200000011,155.6411130000006,93.9741210000002,145.76904300000024,152.56396500000028,154.23095699999976,141.15380900000036,166.9228520000006,130.89746099999957,177.3076170000004,115.64111300000059
20,92.43603499999972,108.58984400000008,56.9228520000006,77.30761700000039,145.89746099999957,88.9741210000002,143.84619099999964,153.3334960000002,151.9228520000006,147.94873000000007,164.7436520000001,129.10253900000043,176.79492200000004,99.35888699999941
21,57.94873000000007,64.48730499999965,35.897460999999566,42.56396500000028,99.35888699999941,77.05126999999993,120.12841800000024,120.64111300000059,117.69238299999961,127.17968800000017,132.94873000000007,113.9741210000002,140.51269500000035,62.82031300000017
22,27.17968800000017,14.358886999999413,27.05126999999993,14.102539000000434,53.333496000000196,67.05126999999993,92.94873000000007,80.38476599999922,78.46142599999985,95.38476599999922,95.76904300000024,97.17968800000017,93.58984400000008,34.102539000000434
23,10.769043000000238,-18.58984399999963,35.51269500000035,5.641113000000587,38.46142599999985,65.12841800000024,80.38476599999922,61.025878999999804,61.025878999999804,71.6665039999998,76.41015599999992,90.38476599999922,62.94873000000007,28.205077999999958
24,0.8974609999995664,-26.666747999999643,50.51269500000035,9.871581999999762,53.974121000000196,70.0,86.2822270000006,69.87158199999976,69.87158199999976,63.333496000000196,78.46142599999985,94.87158199999976,59.35888699999941,37.17968800000017
25,-9.743652000000111,-10.38452099999995,57.30761700000039,13.846190999999635,76.79492200000004,76.2822270000006,101.41015599999992,93.46142599999985,91.0258789999998,67.69238299999961,90.12841800000024,104.23095699999976,76.6665039999998,45.38476599999922
26,-12.307617000000391,28.461425999999847,52.69238299999961,18.846190999999635,90.51269500000035,80.0,115.76904300000024,115.25634799999989,110.25634799999989,82.69238299999961,101.41015599999992,112.43603499999972,102.94873000000007,48.333496000000196
27,8.461425999999847,76.6665039999998,45.38476599999922,37.05126999999993,98.7177729999994,80.89746099999957,125.25634799999989,128.46142599999985,123.84619099999964,107.43603499999972,110.51269500000035,118.0771479999994,125.38476599999922,50.76904300000024
28,47.05126999999993,99.10253900000043,44.48730499999965,68.20507799999996,112.56396500000028,79.74365200000011,128.46142599999985,132.56396500000028,131.15380900000036,134.48730499999965,116.6665039999998,121.9228520000006,130.76904300000024,53.333496000000196
29,70.25634799999989,55.76904300000024,50.12841800000024,91.9228520000006,132.82031300000017,76.79492200000004,124.61523400000078,127.94873000000007,128.9741210000002,148.3334960000002,116.53857400000015,124.23095699999976,112.30761700000039,48.20507799999996
30,45.12841800000024,-58.71801800000003,55.64111300000059,90.64111300000059,149.23095699999976,72.43603499999972,116.15380900000036,115.25634799999989,115.76904300000024,139.23095699999976,109.74365200000011,124.74365200000011,79.61523400000078,30.897460999999566
31,-24.487060999999812,-187.6923829999996,55.0,73.58984400000008,152.3076170000004,68.9741210000002,108.84619099999964,100.76904300000024,98.0771479999994,114.48730499999965,102.69238299999961,123.9741210000002,56.025878999999804,10.128418000000238
32,-94.23071300000038,-236.66674799999964,48.20507799999996,73.0771479999994,141.2822270000006,69.23095699999976,108.0771479999994,93.46142599999985,87.94873000000007,93.58984400000008,103.0771479999994,123.0771479999994,59.87158199999976,1.2822270000006029
33,-115.38452099999995,-143.71801800000003,40.51269500000035,118.3334960000002,124.23095699999976,73.3334960000002,114.23095699999976,98.58984400000008,92.56396500000028,92.30761700000039,110.89746099999957,122.82031300000017,88.58984400000008,11.153809000000365
34,-75.76928699999962,61.2822270000006,38.333496000000196,215.12841800000024,114.74365200000011,78.3334960000002,123.9741210000002,113.7177729999994,109.35888699999941,111.15380900000036,119.48730499999965,122.56396500000028,121.41015599999992,30.128418000000238
35,-6.281981999999971,271.15380900000036,44.23095699999976,347.4360349999997,125.64111300000059,80.64111300000059,133.0771479999994,132.3076170000004,129.3588869999994,137.43603499999972,122.43603499999972,121.79492200000004,135.6411130000006,40.76904300000024
36,48.333496000000196,385.51269500000035,54.35888699999941,491.15380900000036,157.82031300000017,77.69238299999961,138.46142599999985,147.05126999999993,141.79492200000004,155.0,118.0771479999994,121.15380900000036,121.0258789999998,32.69238299999961
37,68.9741210000002,391.15380900000036,61.53857400000015,627.0512699999999,191.41015599999992,69.23095699999976,137.3076170000004,152.6923829999996,139.3588869999994,151.79492200000004,106.9228520000006,121.0258789999998,82.56396500000028,11.153809000000365
38,78.84619099999964,360.3847659999992,60.76904300000024,747.5639650000003,198.7177729999994,57.69238299999961,128.0771479999994,147.56396500000028,120.64111300000059,126.2822270000006,90.89746099999957,119.87158199999976,36.025878999999804,-7.692382999999609
39,121.9228520000006,376.6665039999998,55.0,860.3847659999992,172.17968800000017,47.69238299999961,114.61523400000078,138.84619099999964,94.48730499999965,90.51269500000035,76.41015599999992,116.53857400000015,1.7949220000000423,-7.435790999999426
40,222.3076170000004,462.4360349999997,54.48730499999965,979.4873049999997,137.05126999999993,45.0,107.17968800000017,141.53857400000015,78.20507799999996,66.0258789999998,75.51269500000035,113.20507799999996,-2.1796869999998307,19.102539000000434
41,358.84619099999964,575.7690430000002,67.82031300000017,1109.1025390000004,129.10253900000043,51.666503999999804,113.7177729999994,167.82031300000017,84.23095699999976,68.46142599999985,99.10253900000043,113.46142599999985,32.43603499999972,66.15380900000036
42,479.6152340000008,662.0512699999999,93.84619099999964,1232.3076170000004,155.0,63.20507799999996,130.76904300000024,212.3076170000004,106.53857400000015,91.2822270000006,144.23095699999976,116.2822270000006,95.25634799999989,120.38476599999922
43,545.0,703.4614259999998,122.43603499999972,1325.256348,182.6923829999996,70.89746099999957,143.0771479999994,252.3076170000004,122.56396500000028,108.7177729999994,189.3588869999994,115.25634799999989,157.3076170000004,169.7436520000001
44,560.3847659999992,723.7177729999994,144.23095699999976,1380.256348,175.76904300000024,69.48730499999965,138.84619099999964,269.48730499999965,114.74365200000011,98.84619099999964,210.0,105.51269500000035,187.3076170000004,210.2563479999999
45,570.0,756.2822270000006,158.9741210000002,1413.589844,133.84619099999964,62.82031300000017,122.69238299999961,269.3588869999994,90.12841800000024,66.53857400000015,200.38476599999922,90.51269500000035,172.3076170000004,242.05126999999993
46,617.1796880000002,808.4614259999998,172.17968800000017,1447.5639650000003,94.23095699999976,60.12841800000024,111.9228520000006,275.76904300000024,75.25634799999989,39.74365200000011,179.23095699999976,81.0258789999998,127.43603499999972,265.12841800000024
47,711.794922,853.9741210000002,187.17968800000017,1491.5385740000002,94.48730499999965,68.0771479999994,118.9741210000002,307.17968800000017,88.46142599999985,41.666503999999804,174.10253900000043,84.10253900000043,84.74365200000011,280.6411130000006
48,830.7690430000002,860.8974609999996,201.0258789999998,1541.2822270000006,135.76904300000024,85.12841800000024,139.87158199999976,358.7177729999994,121.6665039999998,68.9741210000002,200.89746099999957,96.15380900000036,72.56396500000028,298.5898440000001
49,943.3334960000002,826.0258789999998,210.2563479999999,1592.5639650000003,184.48730499999965,103.9741210000002,159.48730499999965,410.3847659999992,148.9741210000002,95.0,256.79492200000004,106.15380900000036,101.53857400000015,337.5639650000003
50,1032.5639650000003,780.0,214.87158199999976,1645.1284180000002,205.12841800000024,117.05126999999993,165.51269500000035,445.76904300000024,150.38476599999922,94.74365200000011,324.87158199999976,105.64111300000059,161.79492200000004,411.6665039999998
51,1098.205078,755.1284180000002,218.20507799999996,1691.6665039999998,188.58984400000008,121.6665039999998,156.53857400000015,462.05126999999993,126.41015599999992,64.23095699999976,384.87158199999976,94.10253900000043,229.87158199999976,514.3588869999994
52,1147.8203130000002,755.8974609999996,223.84619099999964,1711.410156,155.38476599999922,120.38476599999922,141.0258789999998,466.6665039999998,94.23095699999976,22.17968800000017,423.84619099999964,78.84619099999964,281.4101559999999,619.8715819999998
53,1189.4873049999997,761.4101559999999,236.2822270000006,1686.0258789999998,138.46142599999985,119.74365200000011,131.6665039999998,472.17968800000017,75.51269500000035,-5.38452099999995,446.15380900000036,69.35888699999941,305.2563479999999,701.794922
54,1230.256348,755.1284180000002,260.3847659999992,1625.5126950000003,158.46142599999985,125.76904300000024,138.0771479999994,491.6665039999998,83.9741210000002,-3.077147999999397,468.9741210000002,71.15380900000036,308.84619099999964,752.3076170000004
55,1274.1025390000004,743.9741210000002,297.17968800000017,1568.3334960000002,208.7177729999994,138.9741210000002,159.87158199999976,531.9228520000006,115.25634799999989,23.333496000000196,506.2822270000006,82.69238299999961,309.48730499999965,783.5898440000001
56,1319.1025390000004,748.7177729999994,339.3588869999994,1556.0258789999998,257.94873000000007,152.82031300000017,184.87158199999976,585.7690430000002,148.58984400000008,50.38476599999922,555.5126950000003,96.0258789999998,320.2563479999999,811.9228520000006
57,1360.0,773.0771479999994,374.23095699999976,1604.2309569999998,277.05126999999993,158.9741210000002,197.56396500000028,634.8715819999998,160.12841800000024,55.0,601.0258789999998,101.6665039999998,344.10253900000043,843.8461909999996
58,1395.0,791.4101559999999,393.0771479999994,1695.7690430000002,266.4101559999999,154.87158199999976,192.05126999999993,663.8461909999996,142.82031300000017,33.333496000000196,630.3847659999992,95.89746099999957,377.82031300000017,874.1025390000004
59,1429.1025390000004,774.3588869999994,397.05126999999993,1793.3334960000002,256.79492200000004,146.6665039999998,176.9228520000006,673.205078,112.94873000000007,3.846190999999635,645.5126950000003,83.84619099999964,416.53857400000015,895.0
60,1463.7177729999994,728.4614259999998,394.6152340000008,1857.05127,275.89746099999957,142.3076170000004,166.0258789999998,675.3847659999992,94.35888699999941,-10.769286999999622,657.6923829999996,74.87158199999976,455.0,903.0771479999994
61,1491.2822270000006,698.9741210000002,395.0,1863.3334960000002,316.9228520000006,145.12841800000024,165.6411130000006,681.6665039999998,98.20507799999996,-4.871825999999601,675.3847659999992,74.10253900000043,486.6665039999998,900.2563479999999
62,1502.94873,723.3334960000002,402.05126999999993,1821.2822270000006,346.53857400000015,152.05126999999993,170.89746099999957,693.7177729999994,115.12841800000024,7.307617000000391,698.7177729999994,79.10253900000043,507.6923829999996,893.205078
63,1503.0771479999994,786.794922,414.3588869999994,1772.94873,344.7436520000001,157.3076170000004,174.10253900000043,707.1796880000002,128.20507799999996,10.0,722.4360349999997,83.58984400000008,521.1538090000004,890.1284180000002
64,1510.1284180000002,833.9741210000002,427.82031300000017,1763.8461909999996,328.3334960000002,158.0771479999994,171.41015599999992,717.8203130000002,128.84619099999964,2.0512699999999313,742.0512699999999,83.20507799999996,534.6152340000008,895.5126950000003
65,1538.3334960000002,823.9741210000002,437.5639650000003,1806.410156,331.6665039999998,155.0,164.48730499999965,723.4614259999998,120.25634799999989,-4.487060999999812,755.1284180000002,77.94873000000007,553.4614259999998,905.2563479999999
66,1582.4360349999997,768.4614259999998,440.12841800000024,1871.410156,368.7177729999994,150.76904300000024,155.6411130000006,721.6665039999998,108.7177729999994,-0.8974609999995664,760.5126950000003,70.38476599999922,573.3334960000002,909.1025390000004
67,1620.7690430000002,715.3847659999992,433.7177729999994,1917.4360349999997,419.23095699999976,147.56396500000028,145.38476599999922,710.6411130000006,97.69238299999961,8.333496000000196,757.3076170000004,62.30761700000039,582.6923829999996,898.8461909999996
68,1634.2309569999998,702.0512699999999,419.6152340000008,1925.3847659999992,453.46142599999985,145.76904300000024,135.6411130000006,693.8461909999996,88.3334960000002,10.384765999999217,748.3334960000002,55.38476599999922,574.4873049999997,877.5639650000003
69,1618.0771479999994,728.8461909999996,402.4360349999997,1908.205078,462.82031300000017,145.89746099999957,131.0258789999998,681.0258789999998,84.48730499999965,-0.769043000000238,742.1796880000002,51.53857400000015,556.6665039999998,856.4101559999999
70,1580.6411130000006,770.5126950000003,386.9228520000006,1892.3076170000004,466.6665039999998,147.56396500000028,136.53857400000015,681.2822270000006,90.89746099999957,-16.666747999999643,746.5385740000002,53.46142599999985,547.1796880000002,844.2309569999998
71,1533.8461909999996,801.5385740000002,375.6411130000006,1893.4614259999998,488.46142599999985,150.2563479999999,151.6665039999998,694.1025390000004,107.05126999999993,-22.820557000000008,759.2309569999998,61.666503999999804,556.2822270000006,838.8461909999996
72,1487.94873,809.8715819999998,367.17968800000017,1904.8715819999998,530.7690430000002,152.17968800000017,167.56396500000028,707.9487300000001,123.58984400000008,-13.71801800000003,766.4101559999999,71.41015599999992,573.8461909999996,828.8461909999996
73,1447.8203130000002,795.1284180000002,358.5898440000001,1904.1025390000004,573.5898440000001,152.05126999999993,173.3334960000002,709.3588869999994,128.0771479999994,1.153809000000365,754.4873049999997,75.76904300000024,575.7690430000002,803.3334960000002
74,1414.743652,761.9228520000006,349.7436520000001,1877.1796880000002,594.8715819999998,150.2563479999999,165.38476599999922,694.7436520000001,116.9228520000006,8.077147999999397,722.9487300000001,71.6665039999998,548.205078,764.2309569999998
75,1391.2822270000006,717.9487300000001,342.94873000000007,1835.3847659999992,591.9228520000006,148.58984400000008,150.89746099999957,673.8461909999996,99.61523400000078,3.2050779999999577,687.8203130000002,63.46142599999985,502.4360349999997,726.794922
76,1383.0771479999994,674.4873049999997,340.51269500000035,1805.8974609999996,583.3334960000002,149.10253900000043,141.41015599999992,660.5126950000003,89.74365200000011,-4.61547900000005,668.5898440000001,57.69238299999961,465.76904300000024,708.8461909999996
77,1391.9228520000006,643.7177729999994,341.0258789999998,1805.3847659999992,591.1538090000004,152.3076170000004,142.82031300000017,660.7690430000002,93.20507799999996,-4.743652000000111,671.2822270000006,56.79492200000004,456.6665039999998,714.7436520000001
78,1408.205078,632.5639650000003,342.3076170000004,1825.3847659999992,620.8974609999996,156.9228520000006,151.6665039999998,669.1025390000004,104.23095699999976,4.743652000000111,683.5898440000001,57.56396500000028,470.2563479999999,731.9228520000006
79,1413.589844,639.8715819999998,343.46142599999985,1841.1538090000004,655.8974609999996,161.2822270000006,159.10253900000043,674.6152340000008,111.79492200000004,15.769043000000238,687.6923829999996,55.897460999999566,486.15380900000036,743.5898440000001
80,1398.0771479999994,663.8461909999996,345.3847659999992,1834.2309569999998,671.5385740000002,163.84619099999964,158.20507799999996,669.1025390000004,109.10253900000043,18.077147999999397,675.6411130000006,50.51269500000035,487.5639650000003,741.4101559999999
81,1371.5385740000002,705.3847659999992,347.82031300000017,1806.6665039999998,655.3847659999992,164.10253900000043,148.0771479999994,651.9228520000006,97.43603499999972,7.692382999999609,653.205078,43.589844000000085,473.3334960000002,728.3334960000002
82,1357.05127,757.5639650000003,348.46142599999985,1778.0771479999994,619.7436520000001,163.20507799999996,134.23095699999976,631.0258789999998,83.9741210000002,-8.58984399999963,631.1538090000004,38.333496000000196,453.84619099999964,710.7690430000002
83,1365.6411130000006,797.4360349999997,345.76904300000024,1767.5639650000003,592.6923829999996,163.0771479999994,124.10253900000043,617.9487300000001,77.17968800000017,-18.333252000000357,615.1284180000002,37.82031300000017,440.3847659999992,691.6665039999998
84,1379.4873049999997,797.0512699999999,340.0,1774.743652,596.1538090000004,164.48730499999965,122.43603499999972,619.4873049999997,80.25634799999989,-11.794922000000042,603.7177729999994,42.94873000000007,436.0258789999998,670.7690430000002
85,1367.1796880000002,747.8203130000002,333.46142599999985,1781.410156,629.1025390000004,166.79492200000004,127.69238299999961,632.3076170000004,91.41015599999992,10.128418000000238,594.8715819999998,51.53857400000015,436.6665039999998,648.9741210000002
86,1316.9228520000006,672.6923829999996,328.0771479999994,1770.7690430000002,669.4873049999997,167.82031300000017,134.87158199999976,645.5126950000003,104.74365200000011,35.76904300000024,589.2309569999998,58.589844000000085,436.53857400000015,631.794922
87,1249.6152340000008,608.5898440000001,323.84619099999964,1746.410156,692.1796880000002,165.6411130000006,139.48730499999965,648.8461909999996,114.61523400000078,50.897460999999566,587.0512699999999,59.48730499999965,433.3334960000002,626.2822270000006
88,1200.256348,580.1284180000002,320.12841800000024,1728.4614259999998,685.1284180000002,159.61523400000078,140.2563479999999,639.4873049999997,117.56396500000028,48.20507799999996,583.3334960000002,53.20507799999996,428.0771479999994,631.9228520000006
89,1185.3847659999992,588.205078,316.53857400000015,1733.589844,655.0,152.17968800000017,138.84619099999964,623.205078,113.7177729999994,32.82031300000017,569.1025390000004,43.46142599999985,421.4101559999999,637.6923829999996
90,1193.4614259999998,619.1025390000004,313.84619099999964,1759.1025390000004,619.8715819999998,146.79492200000004,135.89746099999957,607.8203130000002,105.38476599999922,17.43603499999972,541.5385740000002,36.79492200000004,410.89746099999957,629.7436520000001
91,1202.4360349999997,655.1284180000002,310.89746099999957,1784.4873049999997,596.5385740000002,145.76904300000024,130.0,597.1796880000002,95.64111300000059,11.922852000000603,508.9741210000002,36.53857400000015,395.0,605.5126950000003
92,1200.7690430000002,676.794922,305.2563479999999,1786.6665039999998,592.3076170000004,148.58984400000008,120.25634799999989,588.7177729999994,87.30761700000039,16.282227000000603,487.17968800000017,40.76904300000024,377.94873000000007,578.7177729999994
93,1191.6665039999998,669.2309569999998,295.76904300000024,1754.8715819999998,604.3588869999994,152.05126999999993,109.87158199999976,579.3588869999994,82.69238299999961,23.461425999999847,487.05126999999993,44.48730499999965,367.3076170000004,567.0512699999999
94,1183.3334960000002,638.4614259999998,284.10253900000043,1698.8461909999996,621.2822270000006,153.46142599999985,104.48730499999965,568.7177729999994,82.94873000000007,26.794922000000042,504.6152340000008,44.74365200000011,367.82031300000017,574.8715819999998
95,1178.8461909999996,615.0,273.20507799999996,1641.794922,628.5898440000001,152.05126999999993,106.41015599999992,559.1025390000004,86.53857400000015,25.51269500000035,522.0512699999999,42.05126999999993,375.6411130000006,590.3847659999992
96,1174.743652,625.7690430000002,264.23095699999976,1605.3847659999992,616.4101559999999,148.9741210000002,111.79492200000004,551.4101559999999,88.84619099999964,22.94873000000007,520.5126950000003,38.0771479999994,381.6665039999998,597.1796880000002
97,1165.0,663.3334960000002,257.5639650000003,1597.6923829999996,587.5639650000003,146.15380900000036,114.35888699999941,544.4873049999997,85.38476599999922,22.17968800000017,494.7436520000001,34.48730499999965,380.0,587.9487300000001
98,1147.05127,691.6665039999998,252.43603499999972,1610.256348,557.1796880000002,144.87158199999976,111.41015599999992,537.9487300000001,77.30761700000039,23.846190999999635,457.05126999999993,32.43603499999972,372.3076170000004,567.1796880000002
99,1124.743652,683.9741210000002,247.94873000000007,1623.7177729999994,540.8974609999996,145.2563479999999,105.64111300000059,533.3334960000002,70.64111300000059,26.153809000000365,426.53857400000015,32.43603499999972,363.7177729999994,544.3588869999994
100,1106.1538090000004,647.4360349999997,242.56396500000028,1618.7177729999994,543.3334960000002,146.6665039999998,102.05126999999993,532.5639650000003,71.2822270000006,27.30761700000039,415.89746099999957,33.974121000000196,356.4101559999999,526.6665039999998
101,1098.7177729999994,610.0,235.51269500000035,1590.6411130000006,556.6665039999998,149.10253900000043,105.0,537.6923829999996,81.15380900000036,27.56396500000028,424.87158199999976,36.53857400000015,348.9741210000002,517.3076170000004
102,1101.1538090000004,589.8715819999998,228.3334960000002,1553.4614259999998,569.6152340000008,153.0771479999994,115.89746099999957,550.3847659999992,98.20507799999996,30.769043000000238,442.4360349999997,41.025878999999804,341.2822270000006,515.1284180000002
103,1102.1796880000002,585.7690430000002,223.0771479999994,1524.8715819999998,573.5898440000001,158.58984400000008,131.79492200000004,568.0771479999994,117.17968800000017,40.0,454.23095699999976,48.589844000000085,335.3847659999992,516.5385740000002
104,1089.6152340000008,591.2822270000006,219.87158199999976,1508.4614259999998,564.7436520000001,163.58984400000008,144.10253900000043,581.0258789999998,130.12841800000024,53.0771479999994,449.48730499999965,56.410155999999915,333.84619099999964,515.8974609999996
105,1064.2309569999998,605.5126950000003,216.6665039999998,1492.3076170000004,544.3588869999994,165.0,143.58984400000008,578.4614259999998,130.12841800000024,63.589844000000085,427.05126999999993,59.102539000000434,336.79492200000004,510.89746099999957
106,1042.05127,624.3588869999994,212.43603499999972,1466.794922,520.5126950000003,161.6665039999998,129.3588869999994,559.6152340000008,118.46142599999985,66.2822270000006,397.82031300000017,52.82031300000017,341.9228520000006,504.87158199999976
107,1039.1025390000004,635.8974609999996,208.9741210000002,1437.05127,504.23095699999976,155.2563479999999,111.6665039999998,537.4360349999997,106.53857400000015,62.82031300000017,379.48730499999965,41.2822270000006,347.3076170000004,504.23095699999976
108,1053.0771479999994,629.7436520000001,208.7177729999994,1416.6665039999998,502.05126999999993,150.12841800000024,105.0,529.6152340000008,108.3334960000002,60.76904300000024,383.20507799999996,33.46142599999985,351.53857400000015,509.48730499999965
109,1062.94873,609.3588869999994,212.05126999999993,1412.3076170000004,509.87158199999976,149.23095699999976,114.87158199999976,542.0512699999999,127.82031300000017,66.79492200000004,405.0,36.153809000000365,353.0771479999994,511.79492200000004
110,1047.6923829999996,585.8974609999996,216.0258789999998,1417.05127,516.0258789999998,151.41015599999992,132.94873000000007,563.8461909999996,154.48730499999965,81.0258789999998,426.53857400000015,47.17968800000017,350.2563479999999,501.2822270000006
111,1005.6411130000006,563.9741210000002,216.6665039999998,1415.256348,509.48730499999965,153.0771479999994,144.3588869999994,575.6411130000006,171.15380900000036,96.0258789999998,428.46142599999985,57.56396500000028,342.4360349999997,477.5639650000003
112,956.1538090000004,541.1538090000004,212.3076170000004,1394.3588869999994,487.4360349999997,150.2563479999999,138.9741210000002,564.7436520000001,165.76904300000024,101.9228520000006,404.10253900000043,58.846190999999635,330.6411130000006,451.0258789999998
113,923.9741210000002,523.205078,205.51269500000035,1353.8461909999996,455.76904300000024,142.43603499999972,118.84619099999964,534.8715819999998,140.2563479999999,92.94873000000007,364.23095699999976,49.48730499999965,316.79492200000004,435.0
114,922.6923829999996,527.6923829999996,201.15380900000036,1307.05127,425.0,132.6923829999996,95.0,501.9228520000006,108.58984400000008,71.79492200000004,328.7177729999994,35.51269500000035,303.3334960000002,435.51269500000035
115,947.0512699999999,564.3588869999994,201.6665039999998,1273.4614259999998,405.0,126.0258789999998,80.76904300000024,483.3334960000002,88.7177729999994,50.76904300000024,313.7177729999994,25.897460999999566,293.7177729999994,448.5898440000001
116,978.205078,615.2563479999999,205.51269500000035,1264.6152340000008,400.3847659999992,125.38476599999922,84.10253900000043,486.53857400000015,91.15380900000036,43.589844000000085,321.2822270000006,25.897460999999566,292.5639650000003,464.23095699999976
117,995.6411130000006,645.8974609999996,209.48730499999965,1275.8974609999996,409.10253900000043,130.0,102.82031300000017,505.76904300000024,112.82031300000017,55.76904300000024,341.0258789999998,33.846190999999635,299.6152340000008,472.05126999999993
118,988.4614259999998,637.0512699999999,211.0258789999998,1288.4614259999998,423.9741210000002,137.05126999999993,125.25634799999989,525.7690430000002,139.3588869999994,79.87158199999976,358.3334960000002,44.102539000000434,308.5898440000001,465.89746099999957
119,959.2309569999998,600.5126950000003,208.9741210000002,1283.205078,435.6411130000006,142.56396500000028,137.82031300000017,531.794922,154.61523400000078,100.51269500000035,362.5639650000003,50.25634799999989,311.0258789999998,447.82031300000017
120,921.2822270000006,564.1025390000004,203.7177729999994,1254.3588869999994,437.17968800000017,144.23095699999976,134.10253900000043,519.6152340000008,150.38476599999922,105.38476599999922,352.3076170000004,48.846190999999635,304.23095699999976,426.53857400000015
121,890.1284180000002,546.5385740000002,196.79492200000004,1212.3076170000004,429.23095699999976,143.20507799999996,119.74365200000011,498.20507799999996,132.3076170000004,93.7177729999994,333.7177729999994,41.2822270000006,293.3334960000002,411.6665039999998
122,873.9741210000002,547.9487300000001,190.2563479999999,1172.8203130000002,416.79492200000004,142.17968800000017,107.69238299999961,482.3076170000004,115.38476599999922,76.9228520000006,316.0258789999998,33.333496000000196,285.0,406.2822270000006
123,869.2309569999998,558.4614259999998,185.38476599999922,1143.8461909999996,403.5898440000001,143.0771479999994,107.30761700000039,481.2822270000006,111.79492200000004,68.3334960000002,305.89746099999957,30.51269500000035,281.2822270000006,405.2563479999999
124,867.3076170000004,567.4360349999997,181.9228520000006,1123.4614259999998,391.6665039999998,145.51269500000035,116.9228520000006,492.17968800000017,122.82031300000017,74.48730499999965,304.87158199999976,34.23095699999976,279.87158199999976,402.4360349999997
125,862.8203130000002,567.3076170000004,179.7436520000001,1108.4614259999998,384.7436520000001,147.43603499999972,128.3334960000002,505.12841800000024,140.2563479999999,92.30761700000039,311.0258789999998,41.2822270000006,280.0,397.82031300000017
126,856.5385740000002,555.5126950000003,178.46142599999985,1097.4360349999997,386.4101559999999,146.0258789999998,134.10253900000043,511.4101559999999,153.3334960000002,112.30761700000039,319.7436520000001,47.56396500000028,281.53857400000015,395.3847659999992
127,848.5898440000001,537.0512699999999,177.3076170000004,1086.1538090000004,393.0771479999994,140.76904300000024,131.41015599999992,506.9228520000006,155.51269500000035,124.48730499999965,322.6923829999996,50.12841800000024,281.4101559999999,394.87158199999976
128,836.4101559999999,521.1538090000004,173.9741210000002,1067.4360349999997,394.10253900000043,134.3588869999994,122.69238299999961,492.94873000000007,146.2822270000006,123.20507799999996,312.82031300000017,48.333496000000196,273.3334960000002,390.76904300000024
129,820.3847659999992,513.0771479999994,168.0771479999994,1039.2309569999998,383.5898440000001,130.6411130000006,113.58984400000008,475.6411130000006,132.3076170000004,112.17968800000017,292.05126999999993,44.23095699999976,256.53857400000015,379.48730499999965
130,808.3334960000002,510.2563479999999,161.6665039999998,1011.0258789999998,368.5898440000001,133.3334960000002,111.2822270000006,465.6411130000006,124.74365200000011,102.43603499999972,273.20507799999996,42.05126999999993,238.9741210000002,366.79492200000004
131,809.6152340000008,506.79492200000004,157.94873000000007,995.7690430000002,361.6665039999998,141.6665039999998,118.9741210000002,469.48730499999965,131.79492200000004,102.94873000000007,269.48730499999965,44.87158199999976,230.0,361.4101559999999
132,823.205078,500.12841800000024,156.79492200000004,994.6152340000008,365.89746099999957,150.51269500000035,131.9228520000006,483.3334960000002,150.2563479999999,112.94873000000007,280.89746099999957,51.410155999999915,229.7436520000001,365.76904300000024
133,836.2822270000006,490.89746099999957,154.7436520000001,996.794922,371.53857400000015,153.58984400000008,140.12841800000024,494.7436520000001,167.17968800000017,123.7177729999994,294.10253900000043,56.53857400000015,229.48730499999965,373.0771479999994
134,837.8203130000002,480.0,149.61523400000078,992.3076170000004,367.94873000000007,148.3334960000002,138.9741210000002,494.7436520000001,173.0771479999994,129.23095699999976,295.6411130000006,56.79492200000004,222.56396500000028,374.87158199999976
135,828.8461909999996,467.4360349999997,142.05126999999993,983.8461909999996,355.12841800000024,138.58984400000008,134.87158199999976,486.4101559999999,171.0258789999998,132.56396500000028,285.89746099999957,53.846190999999635,213.0771479999994,370.2563479999999
136,820.2563479999999,453.7177729999994,135.38476599999922,982.9487300000001,344.7436520000001,130.89746099999957,139.10253900000043,479.10253900000043,172.56396500000028,141.53857400000015,276.79492200000004,52.94873000000007,211.2822270000006,365.0
137,821.4101559999999,439.23095699999976,132.05126999999993,996.6665039999998,347.4360349999997,129.10253900000043,156.41015599999992,478.0771479999994,183.84619099999964,158.84619099999964,278.46142599999985,57.43603499999972,221.6665039999998,364.87158199999976
138,831.794922,420.0,131.6665039999998,1020.3847659999992,362.05126999999993,131.79492200000004,179.3588869999994,478.84619099999964,199.87158199999976,178.46142599999985,289.10253900000043,66.0258789999998,237.82031300000017,369.87158199999976
139,843.4614259999998,388.20507799999996,131.0258789999998,1040.7690430000002,374.23095699999976,133.0771479999994,195.12841800000024,471.9228520000006,208.46142599999985,189.7436520000001,295.76904300000024,73.7177729999994,247.56396500000028,373.84619099999964
140,849.3588869999994,337.05126999999993,128.0771479999994,1046.9228520000006,368.3334960000002,128.7177729999994,195.6411130000006,452.4360349999997,201.53857400000015,186.6665039999998,285.2563479999999,75.89746099999957,242.43603499999972,370.51269500000035
141,848.9741210000002,269.10253900000043,122.82031300000017,1039.743652,341.2822270000006,118.46142599999985,183.58984400000008,424.3588869999994,182.43603499999972,171.6665039999998,255.76904300000024,72.05126999999993,223.58984400000008,358.3334960000002
142,848.205078,197.17968800000017,117.56396500000028,1032.8203130000002,308.20507799999996,106.9228520000006,169.23095699999976,397.4360349999997,163.58984400000008,154.23095699999976,218.3334960000002,66.2822270000006,201.2822270000006,342.5639650000003
143,854.8715819999998,136.41015599999992,115.0,1041.794922,291.4101559999999,99.35888699999941,162.3076170000004,379.3588869999994,157.17968800000017,144.10253900000043,188.84619099999964,63.46142599999985,187.3076170000004,330.76904300000024
144,871.9228520000006,95.64111300000059,115.51269500000035,1070.5126950000003,303.20507799999996,98.20507799999996,166.15380900000036,370.3847659999992,166.2822270000006,145.51269500000035,176.6665039999998,66.15380900000036,187.43603499999972,327.5639650000003
145,893.7177729999994,71.53857400000015,117.43603499999972,1104.6152340000008,337.4360349999997,101.2822270000006,176.2822270000006,363.7177729999994,183.58984400000008,155.12841800000024,178.20507799999996,72.94873000000007,196.79492200000004,330.6411130000006
146,909.4873049999997,51.666503999999804,118.3334960000002,1121.5385740000002,375.2563479999999,104.10253900000043,184.48730499999965,349.7436520000001,196.79492200000004,165.89746099999957,181.79492200000004,79.87158199999976,204.48730499999965,331.4101559999999
147,911.6665039999998,23.333496000000196,117.94873000000007,1107.1796880000002,401.6665039999998,103.7177729999994,185.38476599999922,322.94873000000007,197.6923829999996,172.3076170000004,176.9228520000006,83.7177729999994,202.17968800000017,321.79492200000004
148,903.0771479999994,-16.025634999999966,116.9228520000006,1068.589844,416.4101559999999,100.76904300000024,179.87158199999976,286.53857400000015,187.6923829999996,173.7177729999994,163.3334960000002,84.10253900000043,191.15380900000036,300.6411130000006
149,895.8974609999996,-56.41015600000037,116.53857400000015,1028.589844,434.7436520000001,98.3334960000002,173.58984400000008,250.6411130000006,176.6665039999998,173.7177729999994,149.87158199999976,83.3334960000002,181.41015599999992,275.89746099999957
150,900.8974609999996,-83.84619099999964,116.41015599999992,1006.5385740000002,472.05126999999993,98.7177729999994,172.82031300000017,224.61523400000078,173.84619099999964,175.76904300000024,144.3588869999994,83.9741210000002,181.79492200000004,258.46142599999985
151,917.8203130000002,-92.43579099999943,114.61523400000078,1003.5898440000001,529.7436520000001,100.89746099999957,178.9741210000002,210.38476599999922,180.38476599999922,179.48730499999965,145.38476599999922,86.15380900000036,191.53857400000015,252.94873000000007
152,935.3847659999992,-88.33325200000036,110.0,1003.5898440000001,592.9487300000001,102.43603499999972,187.17968800000017,201.0258789999998,190.38476599999922,181.9228520000006,143.84619099999964,88.0771479999994,201.15380900000036,255.51269500000035
153,940.6411130000006,-83.97436500000003,103.46142599999985,989.6152340000008,642.0512699999999,102.43603499999972,191.2822270000006,188.58984400000008,196.9228520000006,181.79492200000004,133.84619099999964,88.58984400000008,201.9228520000006,258.5898440000001
154,928.205078,-88.07690400000001,98.46142599999985,958.0771479999994,666.0258789999998,101.9228520000006,188.20507799999996,170.89746099999957,198.20507799999996,180.51269500000035,118.7177729999994,88.20507799999996,193.3334960000002,257.82031300000017
155,901.4101559999999,-101.02563499999997,98.3334960000002,918.7177729999994,666.5385740000002,101.9228520000006,180.12841800000024,151.6665039999998,196.2822270000006,180.12841800000024,105.64111300000059,88.58984400000008,180.6411130000006,254.23095699999976
156,867.0512699999999,-117.94872999999961,104.10253900000043,885.3847659999992,653.8461909999996,102.43603499999972,172.17968800000017,134.7436520000001,192.56396500000028,180.2563479999999,96.6665039999998,91.15380900000036,169.61523400000078,251.0258789999998
157,831.1538090000004,-132.43579099999943,114.61523400000078,865.5126950000003,641.1538090000004,102.30761700000039,167.43603499999972,121.2822270000006,187.43603499999972,179.61523400000078,87.69238299999961,96.41015599999992,161.9228520000006,250.89746099999957
158,797.4360349999997,-141.28198199999997,127.56396500000028,857.0512699999999,637.4360349999997,101.15380900000036,165.0,109.23095699999976,180.6411130000006,177.05126999999993,72.56396500000028,102.30761700000039,156.2822270000006,252.82031300000017
159,765.5126950000003,-146.15380900000036,140.2563479999999,852.0512699999999,641.9228520000006,100.51269500000035,161.41015599999992,95.25634799999989,172.17968800000017,171.9228520000006,50.12841800000024,106.0258789999998,149.87158199999976,252.3076170000004
160,732.5639650000003,-152.179443,150.89746099999957,842.3076170000004,646.0258789999998,102.30761700000039,153.3334960000002,76.79492200000004,161.79492200000004,165.12841800000024,25.51269500000035,104.48730499999965,141.15380900000036,244.7436520000001
161,697.3076170000004,-161.923096,158.7177729999994,826.0258789999998,640.5126950000003,107.56396500000028,142.43603499999972,54.48730499999965,151.41015599999992,158.9741210000002,7.56396500000028,97.94873000000007,131.41015599999992,228.7177729999994
162,663.4614259999998,-172.820557,164.61523400000078,808.8461909999996,623.4614259999998,114.35888699999941,134.48730499999965,33.333496000000196,144.7436520000001,157.56396500000028,2.4360349999997197,89.74365200000011,124.35888699999941,208.7177729999994
163,637.8203130000002,-180.89746100000002,170.2563479999999,799.1025390000004,600.8974609999996,119.23095699999976,134.3588869999994,18.461425999999847,145.2563479999999,162.56396500000028,8.717772999999397,84.74365200000011,122.05126999999993,190.76904300000024
164,622.9487300000001,-183.97436500000003,177.17968800000017,801.0258789999998,582.8203130000002,119.74365200000011,140.76904300000024,11.153809000000365,152.3076170000004,170.89746099999957,16.794922000000042,85.12841800000024,121.9228520000006,178.0771479999994
165,615.2563479999999,-183.71801800000003,186.41015599999992,811.6665039999998,577.8203130000002,117.30761700000039,147.05126999999993,7.43603499999972,160.6411130000006,176.0258789999998,16.538574000000153,90.0,118.7177729999994,169.3588869999994
166,607.8203130000002,-182.56420900000057,197.17968800000017,822.6923829999996,590.1284180000002,116.41015599999992,146.6665039999998,2.1796880000001693,164.7436520000001,173.0771479999994,5.128418000000238,96.53857400000015,110.64111300000059,161.0258789999998
167,596.1538090000004,-181.79492200000004,208.0771479999994,825.3847659999992,615.8974609999996,120.38476599999922,138.9741210000002,-5.897461000000021,161.79492200000004,161.41015599999992,-12.435790999999426,101.6665039999998,99.74365200000011,150.2563479999999
168,580.1284180000002,-183.20507799999996,216.9228520000006,816.1538090000004,644.3588869999994,127.94873000000007,128.58984400000008,-15.0,152.3076170000004,145.51269500000035,-28.58984399999963,103.84619099999964,89.10253900000043,137.3076170000004
169,560.7690430000002,-188.84619099999964,223.3334960000002,798.0771479999994,662.5639650000003,133.46142599999985,121.15380900000036,-22.820557000000008,139.3588869999994,131.2822270000006,-40.25634799999989,102.94873000000007,78.9741210000002,124.48730499999965
170,537.6923829999996,-199.8718259999996,228.9741210000002,777.8203130000002,662.4360349999997,132.3076170000004,119.10253900000043,-29.487060999999812,126.41015599999992,123.20507799999996,-48.71801800000003,99.23095699999976,67.94873000000007,114.23095699999976
171,509.48730499999965,-213.71801800000003,237.05126999999993,761.0258789999998,645.1284180000002,125.25634799999989,119.87158199999976,-36.92309599999999,116.9228520000006,122.69238299999961,-56.153809000000365,93.58984400000008,55.38476599999922,107.43603499999972
172,476.15380900000036,-224.10253899999998,248.9741210000002,748.9741210000002,618.5898440000001,117.82031300000017,118.7177729999994,-46.41015600000037,113.20507799999996,128.20507799999996,-62.82055700000001,88.58984400000008,44.48730499999965,102.43603499999972
173,440.51269500000035,-226.15380900000036,263.0771479999994,739.1025390000004,592.3076170000004,116.2822270000006,113.0771479999994,-57.564209000000574,113.7177729999994,135.6411130000006,-68.20507799999996,86.0258789999998,38.46142599999985,95.64111300000059
174,405.6411130000006,-222.43579099999943,275.2563479999999,729.7436520000001,571.4101559999999,122.17968800000017,103.9741210000002,-69.74365200000011,112.82031300000017,139.3588869999994,-75.0,86.15380900000036,37.05126999999993,84.48730499999965
175,374.10253900000043,-220.89746100000002,282.82031300000017,721.9228520000006,556.6665039999998,130.76904300000024,95.12841800000024,-83.07690400000001,104.74365200000011,135.2563479999999,-87.69238299999961,86.53857400000015,35.76904300000024,69.87158199999976
176,347.3076170000004,-227.0512700000004,287.3076170000004,719.6152340000008,547.5639650000003,135.89746099999957,88.84619099999964,-97.56420900000057,89.10253900000043,122.94873000000007,-107.94872999999961,85.38476599999922,30.897460999999566,55.51269500000035
177,325.76904300000024,-238.84619099999964,292.6923829999996,724.2309569999998,543.5898440000001,135.0,85.12841800000024,-111.92309599999999,70.76904300000024,106.15380900000036,-131.15380900000036,82.56396500000028,22.05126999999993,46.2822270000006
178,308.3334960000002,-248.20507799999996,302.17968800000017,730.3847659999992,543.7177729999994,130.0,82.05126999999993,-124.48706099999981,57.43603499999972,91.2822270000006,-148.71801800000003,79.48730499999965,12.56396500000028,44.102539000000434
179,292.82031300000017,-247.9487299999996,316.2822270000006,729.6152340000008,547.0512699999999,125.76904300000024,79.74365200000011,-132.820557,54.102539000000434,84.23095699999976,-154.7436520000001,77.69238299999961,5.897460999999566,47.82031300000017
180,277.94873000000007,-237.43579099999943,333.84619099999964,716.794922,555.3847659999992,125.25634799999989,79.87158199999976,-135.1281740000004,61.53857400000015,88.3334960000002,-148.46142599999985,77.82031300000017,4.743652000000111,54.35888699999941
181,262.82031300000017,-222.820557,353.84619099999964,694.6152340000008,570.2563479999999,128.20507799999996,82.82031300000017,-132.179443,75.38476599999922,100.0,-134.4870609999998,80.38476599999922,8.077147999999397,59.87158199999976
182,246.2822270000006,-213.46142599999985,375.3847659999992,668.7177729999994,586.9228520000006,132.05126999999993,86.6665039999998,-127.69238299999961,87.69238299999961,110.0,-121.53857400000015,84.35888699999941,11.922852000000603,60.25634799999989
183,226.9228520000006,-214.10253899999998,394.10253900000043,641.2822270000006,593.5898440000001,134.48730499999965,87.82031300000017,-126.41015600000037,91.41015599999992,109.35888699999941,-117.43579099999943,88.20507799999996,12.17968800000017,54.35888699999941
184,205.51269500000035,-220.38452099999995,403.0771479999994,608.5898440000001,579.8715819999998,134.87158199999976,85.64111300000059,-129.8718259999996,85.38476599999922,98.58984400000008,-123.71801800000003,90.38476599999922,7.56396500000028,44.74365200000011
185,185.38476599999922,-222.820557,396.0258789999998,565.8974609999996,546.9228520000006,134.3588869999994,83.20507799999996,-135.1281740000004,75.89746099999957,87.56396500000028,-134.7436520000001,91.6665039999998,1.4101559999999154,36.79492200000004
186,169.87158199999976,-216.66674799999964,372.05126999999993,513.0771479999994,507.17968800000017,134.23095699999976,83.0771479999994,-138.46142599999985,70.0,86.0258789999998,-142.0512700000004,92.56396500000028,-2.1796869999998307,33.20507799999996
187,158.3334960000002,-207.0512700000004,337.94873000000007,455.76904300000024,473.9741210000002,134.23095699999976,84.87158199999976,-140.38452099999995,68.84619099999964,93.84619099999964,-142.179443,92.69238299999961,-3.077147999999397,31.794922000000042
188,146.79492200000004,-203.46142599999985,304.87158199999976,401.4101559999999,452.4360349999997,133.46142599999985,85.0,-144.61547900000005,68.20507799999996,101.6665039999998,-139.7436520000001,91.2822270000006,-4.230713000000378,28.077147999999397
189,132.05126999999993,-209.8718259999996,282.6923829999996,355.51269500000035,438.84619099999964,131.53857400000015,81.2822270000006,-153.58984399999963,64.23095699999976,100.51269500000035,-141.15380900000036,88.3334960000002,-7.948729999999614,21.025878999999804
190,114.35888699999941,-221.66674799999964,275.3847659999992,317.3076170000004,425.12841800000024,129.48730499999965,74.23095699999976,-165.89746100000002,56.410155999999915,89.74365200000011,-150.1281740000004,85.76904300000024,-13.461425999999847,13.333496000000196
191,95.76904300000024,-231.53857400000015,278.0771479999994,281.0258789999998,401.53857400000015,128.46142599999985,65.89746099999957,-178.71801800000003,46.79492200000004,75.38476599999922,-165.5129390000002,85.38476599999922,-19.8718259999996,7.692382999999609
192,77.82031300000017,-235.64111300000013,281.15380900000036,241.6665039999998,362.4360349999997,128.46142599999985,57.43603499999972,-190.38452099999995,36.153809000000365,64.23095699999976,-183.58984399999963,86.41015599999992,-27.69238299999961,4.487304999999651
193,60.25634799999989,-235.2563479999999,278.46142599999985,200.76904300000024,311.15380900000036,129.10253900000043,49.23095699999976,-200.64111300000013,25.384765999999217,58.974121000000196,-199.23071300000038,86.41015599999992,-37.30761700000039,2.8203130000001693
194,44.35888699999941,-233.33325200000036,271.6665039999998,167.94873000000007,261.0258789999998,129.87158199999976,43.589844000000085,-207.9487299999996,17.56396500000028,58.846190999999635,-206.28198199999997,83.84619099999964,-45.25634799999989,3.077147999999397
195,33.333496000000196,-231.41015600000037,268.3334960000002,152.3076170000004,227.82031300000017,131.41015599999992,43.333496000000196,-208.20507799999996,17.17968800000017,62.56396500000028,-200.1281740000004,80.38476599999922,-45.64111300000013,6.538574000000153
196,29.358886999999413,-229.4870609999998,273.7177729999994,153.9741210000002,217.56396500000028,133.3334960000002,49.102539000000434,-199.8718259999996,25.897460999999566,68.9741210000002,-181.66674799999964,79.74365200000011,-36.28198199999997,12.307617000000391
197,30.0,-228.076904,284.6152340000008,162.17968800000017,221.0258789999998,134.10253900000043,57.56396500000028,-186.15380900000036,39.48730499999965,76.2822270000006,-160.0,83.46142599999985,-22.435790999999426,16.794922000000042
198,28.589844000000085,-226.53857400000015,293.20507799999996,162.56396500000028,221.41015599999992,132.43603499999972,63.589844000000085,-174.7436520000001,50.38476599999922,81.79492200000004,-147.179443,89.35888699999941,-12.948729999999614,16.666503999999804
199,20.769043000000238,-221.66674799999964,294.10253900000043,149.7436520000001,207.82031300000017,129.48730499999965,64.48730499999965,-170.2563479999999,55.25634799999989,84.35888699999941,-148.46142599999985,93.84619099999964,-11.666747999999643,12.17968800000017
200,7.948730000000069,-209.4870609999998,289.7436520000001,129.61523400000078,182.05126999999993,128.84619099999964,63.20507799999996,-171.41015600000037,57.05126999999993,85.38476599999922,-158.20507799999996,95.38476599999922,-14.230713000000378,6.922852000000603
201,-5.38452099999995,-191.28198199999997,287.17968800000017,111.41015599999992,153.7177729999994,132.94873000000007,64.48730499999965,-172.820557,60.51269500000035,87.56396500000028,-163.58984399999963,95.64111300000059,-13.58984399999963,4.358886999999413
202,-16.41015600000037,-175.0,290.76904300000024,99.23095699999976,131.0258789999998,140.38476599999922,70.25634799999989,-171.15380900000036,66.53857400000015,92.82031300000017,-156.79492200000004,96.79492200000004,-8.846190999999635,3.846190999999635
203,-25.38452099999995,-168.97436500000003,299.6152340000008,89.74365200000011,117.05126999999993,147.05126999999993,78.20507799999996,-167.0512700000004,71.79492200000004,100.64111300000059,-139.4870609999998,99.74365200000011,-4.61547900000005,3.5898440000000846
204,-33.71801800000003,-173.58984399999963,308.84619099999964,77.56396500000028,110.0,148.3334960000002,83.84619099999964,-163.58984399999963,72.94873000000007,108.3334960000002,-121.66674799999964,102.94873000000007,-4.871825999999601,2.4360349999997197
205,-42.948729999999614,-181.66674799999964,313.9741210000002,60.25634799999989,106.79492200000004,143.20507799999996,84.35888699999941,-163.076904,69.35888699999941,112.82031300000017,-113.46142599999985,104.61523400000078,-8.974365000000034,0.769043000000238
206,-55.64111300000013,-185.89746100000002,313.5898440000001,38.846190999999635,103.0771479999994,134.48730499999965,80.64111300000059,-165.5129390000002,63.333496000000196,111.6665039999998,-119.10253899999998,103.9741210000002,-12.435790999999426,-0.769043000000238
207,-72.30761700000039,-183.97436500000003,309.6152340000008,16.794922000000042,95.51269500000035,127.43603499999972,76.15380900000036,-168.33325200000036,59.102539000000434,105.89746099999957,-134.23071300000038,101.9228520000006,-11.923095999999987,-1.4101559999999154
208,-90.0,-178.97436500000003,306.15380900000036,-2.8203119999998307,85.0,126.15380900000036,75.0,-167.0512700000004,60.12841800000024,100.12841800000024,-148.076904,101.0258789999998,-7.820557000000008,0.12841800000023795
209,-102.30761700000039,-175.2563479999999,305.89746099999957,-17.948729999999614,75.25634799999989,130.6411130000006,77.56396500000028,-159.4870609999998,66.6665039999998,98.20507799999996,-151.28198199999997,102.94873000000007,-3.3334960000001956,3.3334960000001956
210,-104.61547900000005,-176.66674799999964,308.46142599999985,-30.0,67.17968800000017,136.6665039999998,81.0258789999998,-149.4870609999998,74.61523400000078,99.48730499999965,-143.97436500000003,106.41015599999992,-2.3076170000003913,6.153809000000365
211,-98.71801800000003,-182.9487299999996,310.89746099999957,-42.82055700000001,55.76904300000024,139.23095699999976,81.2822270000006,-144.7436520000001,78.46142599999985,99.74365200000011,-135.1281740000004,107.82031300000017,-7.051270000000386,6.282227000000603
212,-92.43579099999943,-189.7436520000001,310.89746099999957,-58.71801800000003,35.51269500000035,136.2822270000006,76.79492200000004,-149.7436520000001,75.25634799999989,96.2822270000006,-134.10253899999998,105.38476599999922,-15.641113000000132,3.9741210000001956
213,-92.82055700000001,-191.02563499999997,308.20507799999996,-76.66674799999964,6.794922000000042,129.3588869999994,69.48730499999965,-161.79492200000004,66.53857400000015,91.0258789999998,-142.56420900000057,100.64111300000059,-23.076904000000013,1.5385740000001533
214,-102.17944299999999,-183.84619099999964,304.87158199999976,-93.07690400000001,-22.30761700000039,122.56396500000028,63.46142599999985,-173.58984399999963,56.9228520000006,87.94873000000007,-152.6923829999996,97.82031300000017,-24.487060999999812,0.0
215,-115.51293900000019,-169.61547900000005,303.46142599999985,-104.74365200000011,-42.435790999999426,119.48730499999965,62.17968800000017,-177.56420900000057,51.410155999999915,90.25634799999989,-153.84619099999964,99.87158199999976,-19.230713000000378,-1.6665039999998044
216,-124.8718259999996,-152.6923829999996,305.2563479999999,-109.74365200000011,-49.48706099999981,121.41015599999992,67.69238299999961,-170.38452099999995,53.846190999999635,99.35888699999941,-140.0,106.41015599999992,-9.8718259999996,-3.4614259999998467
217,-123.97436500000003,-136.923096,310.51269500000035,-107.17944299999999,-46.41015600000037,127.43603499999972,79.87158199999976,-153.84619099999964,65.76904300000024,114.61523400000078,-113.84619099999964,114.61523400000078,0.769043000000238,-2.3076170000003913
218,-112.94872999999961,-125.1281740000004,317.82031300000017,-98.07690400000001,-40.51293900000019,135.0,95.64111300000059,-134.10253899999998,84.23095699999976,132.43603499999972,-85.38452099999995,121.2822270000006,11.538574000000153,5.256347999999889
219,-99.35888699999987,-120.0,324.3588869999994,-88.46142599999985,-38.33325200000036,141.6665039999998,108.58984400000008,-118.97436500000003,101.53857400000015,145.6411130000006,-66.41015600000037,124.48730499999965,21.025878999999804,18.205077999999958
220,-95.1281740000004,-123.97436500000003,326.6665039999998,-88.33325200000036,-42.564209000000574,144.3588869999994,111.6665039999998,-115.25634799999989,107.94873000000007,145.12841800000024,-64.74365200000011,124.23095699999976,26.538574000000153,29.74365200000011
221,-108.20507799999996,-137.179443,322.82031300000017,-105.64111300000013,-50.64111300000013,141.15380900000036,101.53857400000015,-124.8718259999996,98.3334960000002,127.17968800000017,-80.1281740000004,121.15380900000036,25.0,31.153809000000365
222,-135.89746100000002,-155.0,314.3588869999994,-138.84619099999964,-58.71801800000003,133.46142599999985,82.94873000000007,-142.56420900000057,77.56396500000028,99.23095699999976,-103.97436500000003,116.79492200000004,16.153809000000365,18.846190999999635
223,-165.2563479999999,-168.71801800000003,306.9228520000006,-175.38452099999995,-64.35888699999987,126.0258789999998,66.6665039999998,-157.56420900000057,58.846190999999635,77.30761700000039,-122.69238299999961,113.0771479999994,4.743652000000111,-1.153809000000365
224,-182.6923829999996,-170.2563479999999,305.2563479999999,-199.23071300000038,-68.07690400000001,124.10253900000043,62.30761700000039,-160.0,54.87158199999976,75.0,-126.15380900000036,111.9228520000006,-1.6665039999998044,-17.435790999999426
225,-185.76928699999962,-159.4870609999998,310.0,-203.84619099999964,-72.05127000000039,129.48730499999965,71.0258789999998,-148.076904,67.56396500000028,92.43603499999972,-115.0,113.7177729999994,-0.12841800000023795,-21.794922000000042
226,-183.84619099999964,-144.23071300000038,316.9228520000006,-195.89746100000002,-78.71801800000003,138.7177729999994,84.48730499999965,-130.0,86.53857400000015,115.51269500000035,-99.74365200000011,116.79492200000004,5.769043000000238,-13.846190999999635
227,-187.3076170000004,-133.84619099999964,320.2563479999999,-190.0,-87.56420900000057,146.0258789999998,92.94873000000007,-117.30761700000039,97.82031300000017,127.43603499999972,-92.69238299999961,118.84619099999964,10.0,-0.6411130000005869
228,-198.076904,-132.0512700000004,317.17968800000017,-196.53857400000015,-96.66674799999964,147.17968800000017,91.9228520000006,-116.28198199999997,95.12841800000024,122.05126999999993,-98.20507799999996,117.94873000000007,9.743652000000111,9.871581999999762
229,-210.5129390000002,-136.53857400000015,308.84619099999964,-215.89746100000002,-105.1281740000004,142.05126999999993,85.0,-125.1281740000004,83.46142599999985,107.17968800000017,-110.0,113.84619099999964,6.410155999999915,11.922852000000603
230,-218.33325200000036,-142.0512700000004,299.48730499999965,-240.64111300000013,-114.10253899999998,134.3588869999994,78.9741210000002,-136.79492200000004,72.43603499999972,95.51269500000035,-117.82055700000001,108.0771479999994,1.9228520000006029,5.512695000000349
231,-218.97436500000003,-143.97436500000003,293.7177729999994,-260.7692869999996,-123.58984399999963,128.3334960000002,78.3334960000002,-143.58984399999963,69.23095699999976,95.25634799999989,-115.64111300000013,103.84619099999964,-2.6923829999996087,-4.358886999999868
232,-212.56420900000057,-138.97436500000003,293.7177729999994,-268.71801800000003,-127.56420900000057,127.17968800000017,83.3334960000002,-139.35888699999987,75.38476599999922,106.15380900000036,-104.10253899999998,104.87158199999976,-5.256347999999889,-9.487060999999812
233,-201.41015600000037,-127.56420900000057,297.6923829999996,-263.46142599999985,-117.69238299999961,130.6411130000006,91.9228520000006,-123.58984399999963,88.3334960000002,122.30761700000039,-88.33325200000036,112.56396500000028,-2.4360349999997197,-4.61547900000005
234,-190.64111300000013,-114.35888699999987,300.89746099999957,-252.6923829999996,-93.46142599999985,136.15380900000036,100.76904300000024,-102.69238299999961,102.69238299999961,137.05126999999993,-74.10253899999998,123.84619099999964,6.153809000000365,8.205077999999958
235,-186.53857400000015,-106.53857400000015,299.48730499999965,-248.71801800000003,-68.71801800000003,140.0,106.6665039999998,-87.43579099999943,112.82031300000017,145.51269500000035,-65.38452099999995,132.6923829999996,15.384765999999217,20.51269500000035
236,-191.79492200000004,-108.71801800000003,292.5639650000003,-260.5129390000002,-63.846190999999635,139.3588869999994,107.17968800000017,-86.66674799999964,114.23095699999976,145.89746099999957,-63.71801800000003,133.84619099999964,16.794922000000042,24.102539000000434
237,-204.35888699999987,-119.48706099999981,282.3076170000004,-287.3076170000004,-88.46142599999985,134.10253900000043,101.15380900000036,-101.66674799999964,105.12841800000024,137.94873000000007,-69.10253899999998,127.17968800000017,6.153809000000365,16.025878999999804
238,-217.9487299999996,-132.43579099999943,272.6923829999996,-318.58984399999963,-130.5129390000002,126.41015599999992,90.12841800000024,-124.74365200000011,88.58984400000008,122.82031300000017,-79.61547900000005,116.9228520000006,-12.307617000000391,1.2822270000006029
239,-227.3076170000004,-139.35888699999987,266.9228520000006,-341.28198199999997,-164.10253899999998,120.12841800000024,78.20507799999996,-143.46142599999985,72.17968800000017,105.38476599999922,-91.41015600000037,108.46142599999985,-27.69238299999961,-10.897461000000021
240,-231.02563499999997,-135.64111300000013,266.0258789999998,-347.6923829999996,-167.6923829999996,118.3334960000002,71.0258789999998,-147.43579099999943,64.61523400000078,93.84619099999964,-98.58984399999963,105.89746099999957,-30.1281740000004,-13.076904000000013
241,-231.28198199999997,-123.20507799999996,268.5898440000001,-340.1281740000004,-141.66674799999964,121.79492200000004,72.69238299999961,-134.35888699999987,70.25634799999989,95.25634799999989,-96.66674799999964,109.74365200000011,-17.948729999999614,-5.897461000000021
242,-230.89746100000002,-110.0,271.6665039999998,-328.076904,-106.41015600000037,128.20507799999996,82.17968800000017,-112.30761700000039,85.25634799999989,108.46142599999985,-86.15380900000036,117.05126999999993,1.4101559999999154,3.4614259999998467
243,-231.66674799999964,-104.8718259999996,272.82031300000017,-321.53857400000015,-87.05127000000039,133.7177729999994,93.84619099999964,-93.71801800000003,99.74365200000011,123.84619099999964,-72.82055700000001,123.7177729999994,17.17968800000017,6.282227000000603
244,-233.71801800000003,-109.61547900000005,271.6665039999998,-323.71801800000003,-94.23071300000038,135.89746099999957,102.43603499999972,-86.79492200000004,105.76904300000024,131.15380900000036,-63.07690400000001,126.79492200000004,22.43603499999972,0.6411130000005869
245,-236.28198199999997,-117.56420900000057,269.7436520000001,-331.53857400000015,-117.94872999999961,135.0,105.76904300000024,-90.76928699999962,102.43603499999972,128.20507799999996,-59.23071300000038,126.6665039999998,18.205077999999958,-8.076904000000013
246,-238.076904,-120.0,269.10253900000043,-340.2563479999999,-137.9487299999996,133.3334960000002,105.0,-98.84619099999964,95.25634799999989,121.15380900000036,-59.74365200000011,124.74365200000011,10.641113000000587,-12.051270000000386
247,-238.33325200000036,-114.23071300000038,269.23095699999976,-347.9487299999996,-139.4870609999998,133.3334960000002,102.17968800000017,-104.10253899999998,90.51269500000035,118.46142599999985,-61.66674799999964,122.43603499999972,5.128418000000238,-8.205077999999958
248,-237.56420900000057,-105.25634799999989,268.20507799999996,-356.41015600000037,-123.33325200000036,135.2563479999999,98.7177729999994,-104.8718259999996,90.89746099999957,122.69238299999961,-64.48706099999981,119.61523400000078,3.717772999999397,0.0
249,-237.3076170000004,-100.0,265.12841800000024,-367.179443,-102.56420900000057,137.6923829999996,95.38476599999922,-102.56420900000057,95.25634799999989,129.10253900000043,-68.46142599999985,116.53857400000015,5.256347999999889,6.282227000000603
250,-238.58984399999963,-100.51293900000019,260.6411130000006,-378.20507799999996,-91.53857400000015,139.10253900000043,93.7177729999994,-98.97436500000003,100.38476599999922,131.6665039999998,-72.43579099999943,114.61523400000078,8.717772999999397,7.43603499999972
251,-240.38452099999995,-102.82055700000001,257.4360349999997,-385.38452099999995,-96.28198199999997,138.7177729999994,94.74365200000011,-93.97436500000003,104.74365200000011,129.10253900000043,-72.30761700000039,116.0258789999998,15.0,5.256347999999889
252,-240.0,-102.43579099999943,256.4101559999999,-386.79492200000004,-112.43579099999943,136.79492200000004,98.46142599999985,-87.56420900000057,108.46142599999985,125.89746099999957,-65.0,121.53857400000015,24.871581999999762,3.3334960000001956
253,-236.66674799999964,-99.10253899999998,257.05126999999993,-386.28198199999997,-130.76928699999962,133.84619099999964,102.56396500000028,-82.05127000000039,111.41015599999992,127.30761700000039,-52.69238299999961,128.3334960000002,35.51269500000035,1.7949220000000423
254,-233.71801800000003,-96.92309599999999,256.79492200000004,-390.897461,-144.61547900000005,129.23095699999976,103.84619099999964,-82.05127000000039,110.64111300000059,132.56396500000028,-43.974365000000034,131.9228520000006,40.64111300000059,-2.6923829999996087
255,-235.89746100000002,-99.74365200000011,253.0771479999994,-404.8718259999996,-152.56420900000057,122.43603499999972,99.87158199999976,-90.25634799999989,103.3334960000002,135.2563479999999,-47.948729999999614,129.3588869999994,34.87158199999976,-12.051270000000386
256,-244.35888699999987,-107.05127000000039,245.6411130000006,-424.61547900000005,-156.53857400000015,115.25634799999989,91.9228520000006,-103.33325200000036,90.76904300000024,129.48730499999965,-64.10253899999998,122.05126999999993,20.51269500000035,-22.69238299999961
257,-254.23071300000038,-112.43579099999943,237.56396500000028,-440.897461,-157.179443,111.2822270000006,85.0,-112.56420900000057,80.0,117.30761700000039,-79.48706099999981,114.74365200000011,8.205077999999958,-26.923095999999987
258,-257.820557,-108.20507799999996,233.20507799999996,-444.4870609999998,-153.33325200000036,114.48730499999965,85.0,-109.48706099999981,80.25634799999989,108.3334960000002,-78.07690400000001,113.0771479999994,9.230956999999762,-19.487060999999812
259,-250.89746100000002,-92.43579099999943,234.61523400000078,-433.97436500000003,-143.71801800000003,123.9741210000002,93.58984400000008,-92.82055700000001,94.35888699999941,111.9228520000006,-54.23071300000038,119.48730499999965,26.153809000000365,-2.9487300000000687
260,-237.0512700000004,-72.43579099999943,239.10253900000043,-416.923096,-130.5129390000002,134.3588869999994,105.89746099999957,-70.89746100000002,115.38476599999922,128.20507799999996,-20.1281740000004,130.51269500000035,49.87158199999976,12.17968800000017
261,-225.64111300000013,-59.23071300000038,242.05126999999993,-405.0,-118.33325200000036,138.9741210000002,114.48730499999965,-56.79492200000004,130.51269500000035,146.6665039999998,2.8203130000001693,139.10253900000043,65.89746099999957,15.384765999999217
262,-222.820557,-58.58984399999963,240.6411130000006,-405.64111300000013,-110.64111300000013,135.89746099999957,115.0,-57.69238299999961,131.79492200000004,155.76904300000024,1.153809000000365,139.61523400000078,65.64111300000059,5.512695000000349
263,-228.20507799999996,-66.41015600000037,235.51269500000035,-418.71801800000003,-107.43579099999943,127.94873000000007,109.10253900000043,-69.35888699999987,121.9228520000006,152.05126999999993,-20.1281740000004,132.94873000000007,52.05126999999993,-7.948729999999614
264,-237.820557,-74.23071300000038,229.48730499999965,-437.9487299999996,-107.82055700000001,120.0,101.41015599999992,-81.28198199999997,110.0,141.15380900000036,-44.35888699999987,125.12841800000024,34.35888699999941,-14.358886999999868
265,-249.4870609999998,-78.97436500000003,224.3588869999994,-456.41015600000037,-112.43579099999943,114.61523400000078,95.64111300000059,-87.17944299999999,101.9228520000006,130.12841800000024,-57.82055700000001,120.51269500000035,19.74365200000011,-11.666747999999643
266,-262.820557,-83.46142599999985,219.7436520000001,-469.8718259999996,-122.05127000000039,111.9228520000006,92.05126999999993,-87.56420900000057,97.05126999999993,122.17968800000017,-58.846190999999635,119.48730499999965,10.641113000000587,-6.025634999999966
267,-274.2307130000004,-88.46142599999985,215.6411130000006,-476.28198199999997,-132.820557,111.79492200000004,91.2822270000006,-85.1281740000004,93.9741210000002,118.20507799999996,-53.33325200000036,120.38476599999922,8.461425999999847,-4.102538999999979
268,-275.7692869999996,-87.56420900000057,213.3334960000002,-474.4870609999998,-136.79492200000004,114.61523400000078,95.51269500000035,-78.20507799999996,95.51269500000035,120.76904300000024,-45.0,122.56396500000028,16.666503999999804,-4.61547900000005
269,-260.2563479999999,-73.97436500000003,214.3588869999994,-465.1281740000004,-128.97436500000003,120.25634799999989,106.6665039999998,-64.10253899999998,106.2822270000006,132.3076170000004,-33.58984399999963,127.05126999999993,37.05126999999993,-1.4101559999999154
270,-231.79492200000004,-50.76928699999962,217.6923829999996,-453.076904,-113.58984399999963,126.53857400000015,121.2822270000006,-45.89746100000002,124.87158199999976,149.87158199999976,-19.8718259999996,133.58984400000008,63.846190999999635,7.179688000000169
271,-206.15380900000036,-32.948729999999614,219.87158199999976,-446.15380900000036,-103.20507799999996,129.7436520000001,130.76904300000024,-34.23071300000038,140.89746099999957,163.3334960000002,-10.38452099999995,138.84619099999964,83.0771479999994,14.358886999999413
272,-200.76928699999962,-34.10253899999998,216.9228520000006,-449.2307130000004,-108.07690400000001,127.56396500000028,127.30761700000039,-38.974365000000034,142.43603499999972,162.05126999999993,-13.076904000000013,138.46142599999985,81.53857400000015,11.153809000000365
273,-220.2563479999999,-53.58984399999963,208.84619099999964,-459.4870609999998,-126.28198199999997,120.51269500000035,111.9228520000006,-58.974365000000034,127.17968800000017,144.61523400000078,-28.333252000000357,131.53857400000015,57.94873000000007,-3.717772999999397
274,-250.2563479999999,-75.38452099999995,199.7436520000001,-468.71801800000003,-145.1281740000004,112.94873000000007,94.61523400000078,-80.1281740000004,105.64111300000059,121.53857400000015,-46.153809000000365,122.69238299999961,27.05126999999993,-20.512939000000188
275,-267.9487299999996,-81.02563499999997,194.48730499999965,-470.1281740000004,-149.8718259999996,109.87158199999976,87.43603499999972,-86.53857400000015,94.10253900000043,108.3334960000002,-51.79492200000004,118.58984400000008,10.0,-25.89746100000002
276,-259.2307130000004,-65.0,195.51269500000035,-464.4870609999998,-135.5129390000002,113.3334960000002,94.48730499999965,-72.43579099999943,101.6665039999998,114.61523400000078,-37.948729999999614,123.46142599999985,18.717772999999397,-14.358886999999868
277,-231.66674799999964,-40.0,199.87158199999976,-459.4870609999998,-112.17944299999999,120.38476599999922,109.35888699999941,-48.20507799999996,122.43603499999972,136.6665039999998,-12.435790999999426,133.9741210000002,45.76904300000024,5.512695000000349
278,-210.5129390000002,-27.69238299999961,201.79492200000004,-464.2307130000004,-99.74365200000011,124.61523400000078,118.7177729999994,-33.20507799999996,138.58984400000008,158.0771479999994,5.897460999999566,142.05126999999993,68.7177729999994,16.666503999999804
279,-217.9487299999996,-42.051270000000386,196.53857400000015,-482.179443,-112.05127000000039,121.15380900000036,112.43603499999972,-41.53857400000015,133.7177729999994,161.53857400000015,1.0258789999998044,140.38476599999922,67.94873000000007,6.922852000000603
280,-253.58984399999963,-75.64111300000013,185.6411130000006,-507.0512700000004,-144.10253899999998,111.2822270000006,92.69238299999961,-68.58984399999963,107.30761700000039,142.6923829999996,-25.0,128.9741210000002,43.0771479999994,-19.61547900000005
281,-291.923096,-103.71801800000003,175.51269500000035,-524.7436520000001,-172.56420900000057,102.05126999999993,73.9741210000002,-93.58984399999963,77.82031300000017,115.25634799999989,-51.79492200000004,116.2822270000006,13.974121000000196,-43.58984399999963
282,-303.20507799999996,-104.35888699999987,172.94873000000007,-523.8461909999996,-174.10253899999998,100.38476599999922,71.79492200000004,-95.64111300000013,68.46142599999985,100.25634799999989,-56.92309599999999,112.94873000000007,4.230956999999762,-45.64111300000013
283,-278.71801800000003,-77.30761700000039,178.20507799999996,-504.35888699999987,-145.38452099999995,107.82031300000017,88.9741210000002,-72.17944299999999,86.2822270000006,108.7177729999994,-35.76928699999962,122.05126999999993,20.641113000000587,-23.076904000000013
284,-237.6923829999996,-43.20507799999996,185.51269500000035,-477.9487299999996,-106.28198199999997,120.12841800000024,113.0771479999994,-40.76928699999962,117.05126999999993,132.43603499999972,-4.743652000000111,136.2822270000006,48.7177729999994,8.333496000000196
285,-209.7436520000001,-23.333252000000357,188.3334960000002,-457.9487299999996,-82.17944299999999,131.0258789999998,127.69238299999961,-23.461425999999847,138.3334960000002,152.3076170000004,15.0,144.7436520000001,68.46142599999985,28.205077999999958
286,-210.76928699999962,-22.179442999999992,184.87158199999976,-450.897461,-84.23071300000038,136.53857400000015,126.0258789999998,-27.564209000000574,138.7177729999994,154.61523400000078,15.128418000000238,143.20507799999996,70.64111300000059,28.205077999999958
287,-233.46142599999985,-28.974365000000034,178.0771479999994,-454.35888699999987,-102.94872999999961,136.15380900000036,114.48730499999965,-42.564209000000574,124.23095699999976,141.6665039999998,3.846190999999635,136.6665039999998,61.666503999999804,15.0
288,-257.5642090000006,-32.435790999999426,171.2822270000006,-463.20507799999996,-120.76928699999962,131.15380900000036,104.61523400000078,-53.33325200000036,108.9741210000002,126.2822270000006,-6.281981999999971,133.0771479999994,54.35888699999941,0.8974609999995664
289,-267.3076170000004,-32.564209000000574,165.76904300000024,-475.1281740000004,-128.076904,124.35888699999941,102.69238299999961,-54.23071300000038,101.2822270000006,119.74365200000011,-10.769286999999622,134.10253900000043,54.23095699999976,-6.794922000000042
290,-261.79492200000004,-36.79492200000004,160.51269500000035,-490.7692869999996,-129.4870609999998,118.46142599999985,105.12841800000024,-51.92309599999999,98.9741210000002,121.79492200000004,-14.487060999999812,135.89746099999957,56.153809000000365,-8.58984399999963
291,-251.15380900000036,-48.846190999999635,154.61523400000078,-510.5129390000002,-136.02563499999997,114.87158199999976,104.48730499999965,-55.89746100000002,94.48730499999965,123.58984400000008,-23.461425999999847,133.7177729999994,50.51269500000035,-9.230713000000378
292,-246.41015600000037,-64.10253899999998,148.58984400000008,-529.615479,-152.179443,113.9741210000002,97.05126999999993,-68.97436500000003,84.10253900000043,117.17968800000017,-36.025634999999966,126.6665039999998,33.846190999999635,-11.538574000000153
293,-251.15380900000036,-73.46142599999985,144.3588869999994,-539.3588869999999,-168.71801800000003,114.87158199999976,86.2822270000006,-83.07690400000001,73.0771479999994,104.23095699999976,-43.846190999999635,118.84619099999964,14.615234000000783,-14.358886999999868
294,-260.38452099999995,-71.53857400000015,143.7177729999994,-533.5898439999996,-171.02563499999997,116.9228520000006,79.87158199999976,-87.17944299999999,70.12841800000024,94.48730499999965,-38.846190999999635,115.76904300000024,6.153809000000365,-15.256347999999889
295,-265.64111300000013,-60.76928699999962,146.2822270000006,-514.4870609999998,-151.41015600000037,119.48730499999965,82.94873000000007,-75.89746100000002,79.87158199999976,97.82031300000017,-20.769286999999622,119.87158199999976,16.666503999999804,-12.307617000000391
296,-262.3076170000004,-47.948729999999614,149.7436520000001,-493.20507799999996,-117.69238299999961,121.53857400000015,93.9741210000002,-54.35888699999987,98.58984400000008,115.38476599999922,2.0512699999999313,128.7177729999994,40.897460999999566,-6.41015600000037
297,-252.820557,-39.8718259999996,150.76904300000024,-482.820557,-89.48706099999981,121.9228520000006,106.0258789999998,-34.74365200000011,115.76904300000024,137.94873000000007,17.43603499999972,136.6665039999998,64.23095699999976,-1.6665039999998044
298,-245.2563479999999,-39.10253899999998,147.17968800000017,-489.8718259999996,-84.8718259999996,120.25634799999989,111.15380900000036,-28.71801800000003,121.15380900000036,150.38476599999922,16.794922000000042,138.58984400000008,72.43603499999972,-2.4360349999997197
299,-246.41015600000037,-43.58984399999963,140.12841800000024,-509.61547900000005,-105.89746100000002,117.82031300000017,107.05126999999993,-38.07690400000001,112.17968800000017,143.3334960000002,2.5639650000002803,134.10253900000043,61.410155999999915,-9.358886999999868
300,-255.1281740000004,-46.66674799999964,133.20507799999996,-528.205078,-135.5129390000002,116.41015599999992,98.0771479999994,-52.948729999999614,97.56396500000028,122.30761700000039,-12.948729999999614,127.69238299999961,40.64111300000059,-16.794922000000042
301,-262.820557,-42.69238299999961,130.51269500000035,-532.3076170000004,-149.8718259999996,117.05126999999993,92.82031300000017,-58.58984399999963,90.89746099999957,104.61523400000078,-16.153809000000365,125.51269500000035,25.51269500000035,-17.051270000000386
302,-262.4357909999994,-31.28198199999997,133.0771479999994,-520.0,-138.076904,119.23095699999976,96.2822270000006,-47.948729999999614,100.0,105.38476599999922,-3.846190999999635,129.61523400000078,26.538574000000153,-7.307617000000391
303,-256.02563499999997,-20.1281740000004,137.56396500000028,-503.076904,-110.76928699999962,121.0258789999998,105.12841800000024,-28.205077999999958,117.94873000000007,123.7177729999994,13.205077999999958,136.6665039999998,41.410155999999915,5.897460999999566
304,-252.820557,-19.358886999999868,139.10253900000043,-497.179443,-91.02563499999997,121.0258789999998,111.15380900000036,-15.1281740000004,129.10253900000043,143.3334960000002,19.358886999999413,140.2563479999999,58.46142599999985,12.56396500000028
305,-260.38452099999995,-33.71801800000003,134.87158199999976,-509.102539,-95.64111300000013,118.3334960000002,107.94873000000007,-20.38452099999995,121.53857400000015,146.41015599999992,7.179688000000169,136.53857400000015,65.76904300000024,6.025878999999804
306,-276.41015600000037,-58.46142599999985,126.6665039999998,-531.923096,-122.82055700000001,114.35888699999941,96.41015599999992,-42.051270000000386,97.30761700000039,127.82031300000017,-16.923095999999987,126.9228520000006,58.20507799999996,-11.153809000000365
307,-289.8718259999996,-80.25634799999989,119.23095699999976,-550.897461,-153.97436500000003,111.53857400000015,83.9741210000002,-66.28198199999997,71.0258789999998,99.87158199999976,-37.30761700000039,117.94873000000007,40.76904300000024,-28.846190999999635
308,-288.58984399999963,-84.61547900000005,117.17968800000017,-554.4870609999998,-167.179443,111.79492200000004,78.58984400000008,-77.43579099999943,58.7177729999994,81.9228520000006,-40.1281740000004,115.51269500000035,24.230956999999762,-34.8718259999996
309,-270.0,-66.02563499999997,121.2822270000006,-541.6667479999996,-154.10253899999998,114.87158199999976,83.58984400000008,-68.84619099999964,67.69238299999961,86.79492200000004,-22.564209000000574,120.64111300000059,18.205077999999958,-23.846190999999635
310,-244.10253899999998,-33.33325200000036,127.82031300000017,-521.6667479999996,-125.64111300000013,118.7177729999994,95.51269500000035,-46.79492200000004,92.05126999999993,110.64111300000059,5.641113000000587,129.3588869999994,25.25634799999989,-2.4360349999997197
311,-226.02563499999997,-5.897461000000021,131.79492200000004,-505.2563479999999,-101.92309599999999,120.76904300000024,107.43603499999972,-24.358886999999868,117.82031300000017,137.56396500000028,29.358886999999413,135.89746099999957,40.64111300000059,14.871581999999762
312,-224.23071300000038,0.6411130000005869,131.6665039999998,-497.820557,-95.89746100000002,120.51269500000035,113.9741210000002,-11.666747999999643,133.20507799999996,152.3076170000004,37.94873000000007,137.6923829999996,56.79492200000004,17.17968800000017
313,-234.23071300000038,-12.564209000000574,129.48730499999965,-497.3076170000004,-103.97436500000003,119.10253900000043,115.64111300000059,-9.102538999999979,136.53857400000015,151.53857400000015,32.05126999999993,136.15380900000036,68.84619099999964,6.025878999999804
314,-242.9487299999996,-28.076904000000013,128.84619099999964,-498.58984399999963,-111.15380900000036,118.58984400000008,116.53857400000015,-9.358886999999868,134.7436520000001,144.48730499999965,21.410155999999915,135.51269500000035,75.89746099999957,-6.41015600000037
315,-239.8718259999996,-27.948729999999614,130.6411130000006,-499.4870609999998,-105.89746100000002,120.0,120.51269500000035,-5.256347999999889,135.76904300000024,143.58984400000008,16.794922000000042,137.94873000000007,78.9741210000002,-8.71801800000003
316,-225.2563479999999,-9.8718259999996,132.43603499999972,-501.41015600000037,-90.51293900000019,122.05126999999993,126.53857400000015,3.717772999999397,140.51269500000035,153.46142599999985,21.410155999999915,142.43603499999972,79.23095699999976,-0.12841800000023795
317,-210.1281740000004,10.512695000000349,131.53857400000015,-505.64111300000013,-78.97436500000003,121.79492200000004,129.61523400000078,10.384765999999217,143.20507799999996,166.53857400000015,28.974121000000196,144.7436520000001,76.41015599999992,9.871581999999762
318,-207.56420900000057,14.615234000000783,126.79492200000004,-510.897461,-83.46142599999985,117.94873000000007,124.48730499999965,6.922852000000603,137.82031300000017,170.6411130000006,30.769043000000238,142.17968800000017,69.48730499999965,10.769043000000238
319,-221.53857400000015,-1.5385740000001533,120.38476599999922,-513.718018,-103.46142599999985,111.2822270000006,111.53857400000015,-7.307617000000391,124.61523400000078,160.6411130000006,24.102539000000434,135.6411130000006,58.974121000000196,1.153809000000365
320,-243.84619099999964,-24.74365200000011,115.51269500000035,-512.6923829999996,-125.76928699999962,105.0,97.82031300000017,-23.58984399999963,111.2822270000006,142.56396500000028,15.512695000000349,129.10253900000043,48.589844000000085,-10.641113000000132
321,-261.53857400000015,-36.41015600000037,114.10253900000043,-510.64111300000013,-136.79492200000004,102.17968800000017,91.41015599999992,-32.17944299999999,105.51269500000035,127.05126999999993,12.82031300000017,126.6665039999998,42.82031300000017,-14.230713000000378
322,-266.66674799999964,-30.1281740000004,115.38476599999922,-512.0512700000004,-133.076904,103.3334960000002,95.25634799999989,-30.1281740000004,108.3334960000002,119.87158199999976,17.82031300000017,129.48730499999965,43.0771479999994,-6.923095999999987
323,-259.8718259999996,-15.1281740000004,116.6665039999998,-516.923096,-120.64111300000013,106.9228520000006,105.0,-22.051270000000386,114.35888699999941,120.51269500000035,25.128418000000238,134.7436520000001,47.94873000000007,5.128418000000238
324,-246.28198199999997,-4.358886999999868,116.79492200000004,-518.3332520000004,-105.89746100000002,110.76904300000024,113.84619099999964,-13.846190999999635,118.58984400000008,125.89746099999957,28.974121000000196,139.61523400000078,55.38476599999922,13.589844000000085
325,-230.64111300000013,-3.4614259999998467,116.15380900000036,-510.2563479999999,-91.41015600000037,114.23095699999976,118.0771479999994,-7.179442999999992,121.15380900000036,134.23095699999976,28.717772999999397,142.17968800000017,64.61523400000078,14.358886999999413
326,-217.0512700000004,-7.564209000000574,115.76904300000024,-495.5129390000002,-78.33325200000036,117.43603499999972,118.7177729999994,-1.0258789999998044,125.38476599999922,142.56396500000028,28.077147999999397,142.17968800000017,73.58984400000008,9.743652000000111
327,-209.61547900000005,-9.358886999999868,115.0,-483.58984399999963,-69.23071300000038,120.12841800000024,118.58984400000008,4.358886999999413,131.41015599999992,147.3076170000004,30.384765999999217,140.12841800000024,78.84619099999964,5.512695000000349
328,-211.53857400000015,-6.153809000000365,112.43603499999972,-482.6923829999996,-68.20507799999996,121.6665039999998,119.10253900000043,6.282227000000603,136.0258789999998,146.15380900000036,35.12841800000024,136.79492200000004,76.79492200000004,5.128418000000238
329,-220.76928699999962,-0.38476599999921746,107.94873000000007,-492.3076170000004,-76.28198199999997,121.41015599999992,119.35888699999941,3.717772999999397,135.6411130000006,140.89746099999957,38.589844000000085,133.9741210000002,67.82031300000017,7.307617000000391
330,-230.64111300000013,3.9741210000001956,103.58984400000008,-503.076904,-87.69238299999961,119.61523400000078,118.20507799999996,-0.6411130000005869,130.6411130000006,137.3076170000004,38.333496000000196,134.23095699999976,57.05126999999993,7.820313000000169
331,-232.820557,6.153809000000365,101.53857400000015,-505.0,-92.43579099999943,117.82031300000017,116.79492200000004,-0.769043000000238,126.15380900000036,140.89746099999957,36.153809000000365,138.3334960000002,53.0771479999994,5.3847659999992175
332,-223.58984399999963,9.230956999999762,102.56396500000028,-495.1281740000004,-85.0,116.79492200000004,117.30761700000039,6.538574000000153,127.69238299999961,151.79492200000004,36.2822270000006,144.87158199999976,60.51269500000035,2.3076170000003913
333,-207.6923829999996,15.0,104.74365200000011,-481.02563499999997,-70.89746100000002,116.41015599999992,120.25634799999989,18.846190999999635,135.76904300000024,163.9741210000002,40.51269500000035,149.48730499999965,75.64111300000059,2.0512699999999313
334,-196.66674799999964,19.74365200000011,104.74365200000011,-475.64111300000013,-65.64111300000013,115.51269500000035,122.56396500000028,27.17968800000017,143.46142599999985,166.9228520000006,45.12841800000024,148.58984400000008,86.9228520000006,4.487304999999651
335,-200.89746100000002,16.666503999999804,100.38476599999922,-486.53857400000015,-81.02563499999997,112.56396500000028,120.38476599999922,23.333496000000196,141.53857400000015,153.84619099999964,42.94873000000007,141.2822270000006,82.82031300000017,6.025878999999804
336,-219.61547900000005,3.846190999999635,92.69238299999961,-507.9487299999996,-111.53857400000015,106.9228520000006,112.69238299999961,6.794922000000042,126.6665039999998,128.3334960000002,31.153809000000365,131.0258789999998,62.17968800000017,3.717772999999397
337,-240.38452099999995,-10.641113000000132,85.0,-524.3588869999999,-135.38452099999995,100.51269500000035,103.58984400000008,-12.051270000000386,107.17968800000017,105.38476599999922,15.256347999999889,123.46142599999985,37.69238299999961,-1.0258789999998044
338,-247.9487299999996,-14.743652000000111,81.53857400000015,-522.3076170000004,-132.56420900000057,96.2822270000006,99.61523400000078,-19.230713000000378,96.79492200000004,100.76904300000024,6.922852000000603,123.0771479999994,27.17968800000017,-3.5898440000000846
339,-237.56420900000057,-4.230713000000378,83.7177729999994,-502.9487299999996,-103.20507799999996,96.0258789999998,103.46142599999985,-9.487060999999812,102.56396500000028,117.56396500000028,12.82031300000017,128.84619099999964,38.0771479999994,-2.0512699999999313
340,-218.71801800000003,12.307617000000391,88.9741210000002,-480.38452099999995,-68.84619099999964,98.46142599999985,111.53857400000015,8.846190999999635,118.20507799999996,142.43603499999972,27.94873000000007,135.51269500000035,62.30761700000039,1.7949220000000423
341,-205.1281740000004,22.30761700000039,93.84619099999964,-469.4870609999998,-52.82055700000001,100.51269500000035,117.43603499999972,21.538574000000153,131.41015599999992,157.05126999999993,40.12841800000024,137.82031300000017,83.58984400000008,4.6152340000007825
342,-201.53857400000015,20.897460999999566,96.41015599999992,-472.820557,-60.25634799999989,100.76904300000024,118.46142599999985,21.666503999999804,135.2563479999999,154.3588869999994,42.56396500000028,135.38476599999922,90.51269500000035,6.282227000000603
343,-200.5129390000002,14.743652000000111,97.56396500000028,-480.7692869999996,-75.1281740000004,100.64111300000059,118.0771479999994,15.0,133.58984400000008,142.43603499999972,39.74365200000011,132.56396500000028,84.23095699999976,8.846190999999635
344,-192.9487299999996,13.974121000000196,98.84619099999964,-482.0512700000004,-76.92309599999999,102.05126999999993,121.0258789999998,13.589844000000085,134.7436520000001,134.87158199999976,41.666503999999804,134.48730499999965,74.61523400000078,13.461425999999847
345,-179.7436520000001,21.538574000000153,100.25634799999989,-475.2563479999999,-61.66674799999964,104.87158199999976,127.82031300000017,22.17968800000017,141.15380900000036,137.3076170000004,51.153809000000365,141.53857400000015,69.61523400000078,17.82031300000017
346,-171.79492200000004,29.48730499999965,99.87158199999976,-468.58984399999963,-46.28198199999997,105.51269500000035,132.3076170000004,32.94873000000007,145.6411130000006,144.87158199999976,60.25634799999989,148.58984400000008,68.3334960000002,17.56396500000028
347,-179.35888699999987,27.82031300000017,95.89746099999957,-472.0512700000004,-51.53857400000015,101.53857400000015,127.94873000000007,33.333496000000196,138.3334960000002,148.58984400000008,58.20507799999996,149.61523400000078,65.51269500000035,10.897460999999566
348,-199.35888699999987,16.282227000000603,89.35888699999941,-485.64111300000013,-79.35888699999987,93.84619099999964,114.74365200000011,19.615234000000783,118.84619099999964,144.7436520000001,43.7177729999994,142.94873000000007,59.87158199999976,1.6665039999998044
349,-216.66674799999964,7.307617000000391,84.10253900000043,-498.71801800000003,-107.56420900000057,87.56396500000028,100.89746099999957,2.6923829999996087,99.61523400000078,136.6665039999998,28.461425999999847,133.84619099999964,58.20507799999996,-2.0512699999999313
350,-217.179443,13.974121000000196,83.58984400000008,-497.9487299999996,-109.61547900000005,87.43603499999972,97.05126999999993,-1.7949220000000423,97.05126999999993,131.9228520000006,28.589844000000085,129.61523400000078,68.20507799999996,5.3847659999992175
351,-201.02563499999997,35.51269500000035,86.79492200000004,-480.5129390000002,-80.1281740000004,93.20507799999996,106.2822270000006,11.922852000000603,115.38476599999922,134.87158199999976,47.82031300000017,133.58984400000008,88.7177729999994,20.769043000000238
352,-184.10253899999998,55.0,89.10253900000043,-459.4870609999998,-42.435790999999426,99.87158199999976,120.89746099999957,33.0771479999994,141.15380900000036,142.43603499999972,72.05126999999993,141.9228520000006,106.53857400000015,32.17968800000017
353,-184.35888699999987,53.333496000000196,85.89746099999957,-453.84619099999964,-28.71801800000003,101.2822270000006,127.30761700000039,42.94873000000007,152.94873000000007,146.15380900000036,79.48730499999965,146.9228520000006,106.0258789999998,27.94873000000007
354,-205.2563479999999,28.205077999999958,77.43603499999972,-471.15380900000036,-51.28198199999997,95.76904300000024,119.23095699999976,32.05126999999993,139.87158199999976,138.84619099999964,60.25634799999989,143.3334960000002,83.58984400000008,8.205077999999958
355,-230.1281740000004,-1.6665039999998044,68.9741210000002,-498.97436500000003,-91.15380900000036,87.05126999999993,103.0771479999994,8.846190999999635,111.6665039999998,123.0771479999994,27.30761700000039,133.3334960000002,52.69238299999961,-13.076904000000013
356,-234.7436520000001,-12.692382999999609,66.9228520000006,-513.8461909999996,-113.71801800000003,82.05126999999993,93.0771479999994,-6.153809000000365,91.79492200000004,110.0,6.666503999999804,124.87158199999976,35.64111300000059,-18.076904000000013
357,-210.2563479999999,2.1796880000001693,73.3334960000002,-503.20507799999996,-99.61547900000005,84.87158199999976,98.0771479999994,1.7949220000000423,96.79492200000004,111.53857400000015,15.512695000000349,124.61523400000078,45.38476599999922,-1.6665039999998044
358,-173.58984399999963,26.282227000000603,83.46142599999985,-477.179443,-62.69238299999961,93.84619099999964,112.94873000000007,26.794922000000042,121.53857400000015,128.20507799999996,45.76904300000024,131.6665039999998,73.0771479999994,22.56396500000028
359,-153.58984399999963,35.64111300000059,89.61523400000078,-459.2307130000004,-35.38452099999995,102.05126999999993,124.35888699999941,47.94873000000007,143.9741210000002,147.17968800000017,72.17968800000017,138.84619099999964,95.64111300000059,33.333496000000196
360,-163.71801800000003,22.82031300000017,87.82031300000017,-463.076904,-38.07690400000001,104.23095699999976,123.0771479999994,49.35888699999941,146.2822270000006,153.58984400000008,75.51269500000035,140.0,96.79492200000004,21.794922000000042
361,-189.61547900000005,5.128418000000238,81.0258789999998,-480.0,-60.51293900000019,100.89746099999957,113.3334960000002,36.025878999999804,131.2822270000006,145.0,60.0,136.41015599999992,82.05126999999993,0.38476599999921746
362,-202.9487299999996,6.666503999999804,76.6665039999998,-488.076904,-73.84619099999964,97.69238299999961,108.20507799999996,27.30761700000039,118.58984400000008,132.94873000000007,47.69238299999961,134.48730499999965,72.05126999999993,-8.974365000000034
363,-188.20507799999996,34.35888699999941,78.84619099999964,-473.33325200000036,-58.846190999999635,99.23095699999976,116.0258789999998,37.17968800000017,125.12841800000024,131.15380900000036,56.025878999999804,138.9741210000002,81.79492200000004,5.512695000000349
364,-155.76928699999962,70.89746099999957,85.0,-442.9487299999996,-24.487060999999812,104.87158199999976,132.94873000000007,60.51269500000035,148.3334960000002,142.56396500000028,81.41015599999992,147.82031300000017,106.6665039999998,35.38476599999922
365,-131.79492200000004,88.46142599999985,88.46142599999985,-419.2307130000004,-0.6411130000005869,109.23095699999976,145.0,76.79492200000004,168.7177729999994,157.6923829999996,103.0771479999994,153.9741210000002,125.89746099999957,58.589844000000085
366,-136.53857400000015,72.56396500000028,84.23095699999976,-421.923096,-11.41015600000037,107.94873000000007,141.15380900000036,68.46142599999985,165.89746099999957,163.0771479999994,101.6665039999998,151.41015599999992,121.2822270000006,57.82031300000017
367,-168.076904,33.333496000000196,73.7177729999994,-451.15380900000036,-52.69238299999961,101.6665039999998,121.9228520000006,37.05126999999993,137.17968800000017,152.56396500000028,76.15380900000036,141.15380900000036,93.58984400000008,33.333496000000196
368,-205.38452099999995,-1.4101559999999154,63.589844000000085,-486.66674799999964,-93.71801800000003,95.25634799999989,99.61523400000078,2.8203130000001693,100.51269500000035,132.56396500000028,44.48730499999965,130.2563479999999,62.43603499999972,3.2050779999999577
369,-223.97436500000003,-8.846190999999635,59.74365200000011,-504.102539,-102.94872999999961,93.58984400000008,88.9741210000002,-10.897461000000021,80.51269500000035,116.15380900000036,29.102539000000434,125.89746099999957,49.74365200000011,-10.769286999999622
370,-214.61547900000005,12.051269999999931,63.46142599999985,-493.97436500000003,-75.0,97.43603499999972,95.51269500000035,2.3076170000003913,88.46142599999985,112.82031300000017,38.974121000000196,129.3588869999994,61.79492200000004,-0.512695000000349
371,-188.076904,41.666503999999804,70.25634799999989,-468.076904,-34.48706099999981,102.82031300000017,111.41015599999992,28.974121000000196,114.61523400000078,121.6665039999998,63.589844000000085,135.76904300000024,85.76904300000024,23.205077999999958
372,-164.7436520000001,57.30761700000039,75.0,-448.076904,-12.307617000000391,105.51269500000035,123.7177729999994,47.94873000000007,138.20507799999996,134.3588869999994,83.20507799999996,139.48730499999965,100.76904300000024,40.51269500000035
373,-157.820557,51.2822270000006,75.64111300000059,-446.79492200000004,-21.153809000000365,103.9741210000002,125.0,47.94873000000007,144.10253900000043,142.56396500000028,84.87158199999976,138.58984400000008,95.89746099999957,39.102539000000434
374,-165.38452099999995,33.20507799999996,72.94873000000007,-461.02563499999997,-48.58984399999963,100.38476599999922,117.82031300000017,33.333496000000196,132.17968800000017,143.20507799999996,71.0258789999998,135.76904300000024,76.79492200000004,22.05126999999993
375,-175.64111300000013,18.461425999999847,69.10253900000043,-476.02563499999997,-70.38452099999995,97.69238299999961,110.64111300000059,18.205077999999958,114.61523400000078,137.56396500000028,54.61523400000078,134.3588869999994,59.87158199999976,3.5898440000000846
376,-177.820557,16.282227000000603,66.41015599999992,-478.58984399999963,-70.0,97.94873000000007,110.12841800000024,14.358886999999413,105.12841800000024,129.10253900000043,47.17968800000017,136.2822270000006,58.846190999999635,-2.9487300000000687
377,-169.61547900000005,25.51269500000035,66.2822270000006,-465.38452099999995,-49.23071300000038,100.25634799999989,116.79492200000004,24.102539000000434,109.74365200000011,121.6665039999998,52.17968800000017,140.38476599999922,74.48730499999965,6.666503999999804
378,-156.53857400000015,39.102539000000434,68.46142599999985,-443.84619099999964,-24.74365200000011,102.94873000000007,125.89746099999957,40.25634799999989,123.7177729999994,118.3334960000002,64.74365200000011,143.58984400000008,94.74365200000011,25.51269500000035
379,-146.79492200000004,48.46142599999985,71.41015599999992,-426.66674799999964,-14.487060999999812,104.23095699999976,130.89746099999957,52.17968800000017,136.0258789999998,120.0,77.30761700000039,143.20507799999996,103.84619099999964,41.025878999999804
380,-146.28198199999997,47.69238299999961,72.30761700000039,-423.076904,-25.1281740000004,103.20507799999996,127.56396500000028,52.30761700000039,137.94873000000007,125.51269500000035,83.3334960000002,138.3334960000002,93.58984400000008,42.69238299999961
381,-157.0512700000004,34.87158199999976,68.9741210000002,-434.61547900000005,-48.846190999999635,100.38476599999922,116.41015599999992,40.12841800000024,127.69238299999961,130.89746099999957,79.10253900000043,131.0258789999998,68.84619099999964,27.69238299999961
382,-176.53857400000015,14.102539000000434,61.79492200000004,-454.8718259999996,-71.41015600000037,97.05126999999993,102.17968800000017,21.282227000000603,110.76904300000024,132.17968800000017,65.12841800000024,123.9741210000002,42.82031300000017,2.6923829999996087
383,-197.0512700000004,-3.9741210000001956,54.102539000000434,-471.79492200000004,-81.41015600000037,94.87158199999976,92.82031300000017,5.3847659999992175,97.30761700000039,129.23095699999976,48.20507799999996,120.38476599999922,30.0,-18.58984399999963
