,EEG.AF3,EEG.F7,EEG.F3,EEG.FC5,EEG.T7,EEG.P7,EEG.O1,EEG.O2,EEG.P8,EEG.T8,EEG.FC6,EEG.F4,EEG.F8,EEG.AF4
0,212.05126999999993,137.82031300000017,-71.66674799999964,145.12841800000024,94.35888699999941,95.64111300000059,124.10253900000043,131.15380900000036,127.43603499999972,68.3334960000002,46.2822270000006,100.89746099999957,178.84619099999964,111.0258789999998
1,218.0771479999994,148.3334960000002,-66.15380900000036,146.53857400000015,99.61523400000078,94.61523400000078,126.79492200000004,133.9741210000002,131.41015599999992,71.15380900000036,46.153809000000365,102.43603499999972,185.2563479999999,115.51269500000035
2,226.53857400000015,157.43603499999972,-62.17944299999999,142.6923829999996,102.56396500000028,94.23095699999976,128.20507799999996,133.58984400000008,132.05126999999993,65.76904300000024,46.9228520000006,104.87158199999976,181.9228520000006,113.7177729999994
3,234.61523400000078,162.43603499999972,-60.38452099999995,140.51269500000035,104.35888699999941,96.0258789999998,130.76904300000024,135.6411130000006,134.10253900000043,57.94873000000007,54.102539000000434,108.9741210000002,175.6411130000006,110.64111300000059
4,238.46142599999985,161.79492200000004,-60.64111300000013,143.20507799999996,103.58984400000008,98.58984400000008,135.0,142.3076170000004,139.23095699999976,55.25634799999989,64.61523400000078,113.3334960000002,173.46142599999985,109.61523400000078
5,234.87158199999976,154.7436520000001,-63.07690400000001,147.3076170000004,97.56396500000028,99.23095699999976,137.94873000000007,149.3588869999994,142.43603499999972,59.35888699999941,68.58984400000008,115.25634799999989,175.76904300000024,108.58984400000008
6,223.7177729999994,142.6923829999996,-67.69238299999961,145.89746099999957,84.74365200000011,95.38476599999922,135.6411130000006,148.58984400000008,137.3076170000004,64.48730499999965,58.7177729999994,112.69238299999961,175.2563479999999,103.3334960000002
7,208.9741210000002,129.23095699999976,-73.84619099999964,134.7436520000001,68.20507799999996,88.0771479999994,126.79492200000004,135.76904300000024,122.05126999999993,61.9228520000006,36.79492200000004,106.0258789999998,164.3588869999994,92.30761700000039
8,196.79492200000004,120.64111300000059,-79.61547900000005,117.43603499999972,55.25634799999989,81.0258789999998,114.74365200000011,115.89746099999957,103.20507799999996,49.35888699999941,13.589844000000085,98.20507799999996,145.0,80.38476599999922
9,192.17968800000017,121.2822270000006,-82.82055700000001,103.20507799999996,53.46142599999985,78.20507799999996,105.64111300000059,100.89746099999957,91.79492200000004,35.38476599999922,1.9228520000006029,93.3334960000002,128.9741210000002,75.76904300000024
10,195.12841800000024,129.61523400000078,-82.17944299999999,100.25634799999989,64.23095699999976,81.15380900000036,104.35888699999941,100.25634799999989,95.12841800000024,32.30761700000039,7.307617000000391,93.9741210000002,128.9741210000002,81.9228520000006
11,200.38476599999922,138.3334960000002,-78.58984399999963,108.84619099999964,79.74365200000011,86.9228520000006,110.64111300000059,113.46142599999985,110.64111300000059,44.102539000000434,24.615234000000783,98.84619099999964,145.12841800000024,94.35888699999941
12,201.6665039999998,139.61523400000078,-75.0,120.51269500000035,87.94873000000007,91.15380900000036,119.10253900000043,129.3588869999994,126.79492200000004,61.153809000000365,41.410155999999915,103.3334960000002,163.58984400000008,103.84619099999964
13,197.43603499999972,131.41015599999992,-74.35888699999987,125.25634799999989,82.69238299999961,90.89746099999957,123.58984400000008,136.0258789999998,132.17968800000017,68.46142599999985,47.05126999999993,103.7177729999994,168.58984400000008,104.23095699999976
14,192.3076170000004,120.38476599999922,-76.79492200000004,119.61523400000078,70.25634799999989,87.30761700000039,121.41015599999992,130.76904300000024,124.74365200000011,59.87158199999976,39.61523400000078,99.61523400000078,157.05126999999993,97.17968800000017
15,193.58984400000008,115.64111300000059,-79.61547900000005,109.87158199999976,64.87158199999976,84.23095699999976,115.25634799999989,121.15380900000036,112.94873000000007,43.589844000000085,25.641113000000587,94.48730499999965,140.2563479999999,90.25634799999989
16,203.20507799999996,121.0258789999998,-79.23071300000038,106.79492200000004,74.61523400000078,84.35888699999941,111.2822270000006,117.17968800000017,106.9228520000006,32.94873000000007,14.487304999999651,92.56396500000028,132.17968800000017,89.61523400000078
17,215.89746099999957,130.76904300000024,-74.8718259999996,115.38476599999922,92.82031300000017,87.69238299999961,112.56396500000028,121.9228520000006,110.12841800000024,33.846190999999635,12.17968800000017,95.12841800000024,137.3076170000004,94.35888699999941
18,224.10253900000043,136.53857400000015,-69.23071300000038,129.87158199999976,104.61523400000078,92.43603499999972,117.94873000000007,130.38476599999922,116.9228520000006,42.30761700000039,18.717772999999397,99.61523400000078,148.46142599999985,97.82031300000017
19,225.12841800000024,135.76904300000024,-65.64111300000013,139.7436520000001,101.6665039999998,96.41015599999992,123.3334960000002,135.51269500000035,120.76904300000024,50.0,30.384765999999217,102.94873000000007,155.6411130000006,95.76904300000024
20,223.84619099999964,134.87158199999976,-65.25634799999989,140.12841800000024,89.35888699999941,98.7177729999994,127.05126999999993,136.15380900000036,120.51269500000035,53.589844000000085,42.56396500000028,103.84619099999964,156.0258789999998,91.6665039999998
21,226.0258789999998,142.05126999999993,-65.89746100000002,135.38476599999922,81.79492200000004,99.23095699999976,130.38476599999922,136.2822270000006,120.76904300000024,55.0,51.53857400000015,103.58984400000008,154.3588869999994,92.69238299999961
22,231.53857400000015,157.56396500000028,-65.38452099999995,133.0771479999994,86.6665039999998,98.20507799999996,134.10253900000043,139.10253900000043,125.12841800000024,57.17968800000017,53.589844000000085,103.46142599999985,155.12841800000024,101.0258789999998
23,233.9741210000002,170.38476599999922,-63.46142599999985,135.38476599999922,98.7177729999994,95.76904300000024,136.41015599999992,142.6923829999996,131.15380900000036,59.74365200000011,46.410155999999915,103.58984400000008,156.0258789999998,109.74365200000011
24,227.17968800000017,168.7177729999994,-62.82055700000001,137.3076170000004,105.51269500000035,92.17968800000017,133.7177729999994,140.89746099999957,131.2822270000006,58.333496000000196,30.897460999999566,102.82031300000017,150.6411130000006,108.58984400000008
25,212.43603499999972,150.76904300000024,-65.76928699999962,132.94873000000007,98.84619099999964,88.84619099999964,125.12841800000024,130.38476599999922,121.53857400000015,49.74365200000011,11.794922000000042,99.61523400000078,135.89746099999957,93.46142599999985
26,197.82031300000017,128.20507799999996,-72.30761700000039,121.9228520000006,81.9228520000006,87.17968800000017,114.10253900000043,115.25634799999989,105.64111300000059,36.53857400000015,-3.3334960000001956,93.9741210000002,117.82031300000017,72.30761700000039
27,191.0258789999998,117.56396500000028,-79.10253899999998,111.0258789999998,66.0258789999998,88.3334960000002,106.15380900000036,105.64111300000059,93.7177729999994,27.05126999999993,-8.205077999999958,87.94873000000007,108.46142599999985,58.974121000000196
28,193.20507799999996,125.89746099999957,-81.66674799999964,108.58984400000008,61.53857400000015,92.17968800000017,105.25634799999989,109.10253900000043,94.35888699999941,28.333496000000196,-1.7949220000000423,84.48730499999965,115.51269500000035,62.82031300000017
29,197.6923829999996,144.48730499999965,-77.69238299999961,117.30761700000039,68.58984400000008,96.79492200000004,111.15380900000036,123.3334960000002,106.9228520000006,38.974121000000196,10.0,85.89746099999957,134.3588869999994,81.15380900000036
30,197.6923829999996,156.15380900000036,-69.74365200000011,132.05126999999993,79.48730499999965,99.48730499999965,119.10253900000043,138.0771479999994,122.43603499999972,50.38476599999922,19.230956999999762,90.64111300000059,151.2822270000006,101.53857400000015
31,193.58984400000008,152.43603499999972,-62.051270000000386,144.10253900000043,87.30761700000039,99.23095699999976,124.10253900000043,144.23095699999976,131.6665039999998,54.74365200000011,21.922852000000603,95.51269500000035,155.38476599999922,111.79492200000004
32,194.48730499999965,141.6665039999998,-57.82055700000001,149.3588869999994,92.05126999999993,97.56396500000028,125.64111300000059,142.05126999999993,132.6923829999996,52.94873000000007,21.410155999999915,98.20507799999996,148.46142599999985,109.87158199999976
33,208.9741210000002,140.12841800000024,-56.53857400000015,150.12841800000024,97.94873000000007,97.05126999999993,127.17968800000017,139.23095699999976,131.2822270000006,52.56396500000028,24.358886999999413,99.87158199999976,141.41015599999992,102.43603499999972
34,233.9741210000002,155.12841800000024,-56.92309599999999,150.51269500000035,105.64111300000059,98.58984400000008,131.2822270000006,141.79492200000004,133.20507799999996,58.846190999999635,32.43603499999972,102.30761700000039,142.43603499999972,97.43603499999972
35,254.48730499999965,176.41015599999992,-58.46142599999985,150.38476599999922,110.0,100.12841800000024,136.0258789999998,148.0771479999994,138.0771479999994,67.82031300000017,40.12841800000024,104.87158199999976,148.58984400000008,96.9228520000006
36,255.51269500000035,185.6411130000006,-62.051270000000386,146.41015599999992,105.0,98.3334960000002,136.53857400000015,150.12841800000024,139.48730499999965,69.87158199999976,39.61523400000078,104.74365200000011,149.48730499999965,98.20507799999996
37,235.89746099999957,173.46142599999985,-68.33325200000036,137.17968800000017,90.51269500000035,92.82031300000017,129.87158199999976,142.6923829999996,132.3076170000004,59.74365200000011,28.846190999999635,100.25634799999989,139.7436520000001,97.69238299999961
38,209.10253900000043,147.43603499999972,-75.64111300000013,125.89746099999957,72.94873000000007,86.2822270000006,118.3334960000002,127.69238299999961,118.0771479999994,42.43603499999972,14.230956999999762,93.3334960000002,123.9741210000002,93.58984400000008
39,192.05126999999993,123.7177729999994,-80.51293900000019,118.7177729999994,59.87158199999976,82.56396500000028,108.46142599999985,113.20507799999996,103.7177729999994,27.82031300000017,4.487304999999651,87.43603499999972,112.82031300000017,86.15380900000036
40,192.17968800000017,113.58984400000008,-80.64111300000013,118.58984400000008,54.87158199999976,83.0771479999994,105.25634799999989,106.2822270000006,95.89746099999957,21.666503999999804,3.4614259999998467,85.64111300000059,112.05126999999993,76.2822270000006
41,203.7177729999994,116.0258789999998,-76.53857400000015,121.9228520000006,57.17968800000017,87.17968800000017,108.46142599999985,109.23095699999976,96.6665039999998,23.205077999999958,9.230956999999762,88.20507799999996,119.61523400000078,66.6665039999998
42,216.0258789999998,123.20507799999996,-70.89746100000002,123.0771479999994,64.87158199999976,92.56396500000028,114.35888699999941,119.23095699999976,104.10253900000043,29.871581999999762,17.05126999999993,93.46142599999985,128.9741210000002,62.43603499999972
43,223.3334960000002,128.46142599999985,-66.66674799999964,119.87158199999976,76.41015599999992,97.30761700000039,118.9741210000002,130.6411130000006,114.35888699999941,40.51269500000035,23.717772999999397,98.9741210000002,135.2563479999999,68.46142599999985
44,225.76904300000024,131.15380900000036,-65.0,114.87158199999976,89.10253900000043,100.25634799999989,121.0258789999998,137.6923829999996,122.94873000000007,52.17968800000017,27.56396500000028,102.17968800000017,136.41015599999992,83.9741210000002
45,225.2563479999999,133.84619099999964,-65.1281740000004,112.56396500000028,98.84619099999964,101.2822270000006,120.76904300000024,137.17968800000017,125.64111300000059,59.74365200000011,27.43603499999972,101.53857400000015,132.6923829999996,100.12841800000024
46,222.56396500000028,139.10253900000043,-65.51293900000019,116.15380900000036,101.79492200000004,100.64111300000059,119.87158199999976,131.0258789999998,121.79492200000004,59.23095699999976,25.384765999999217,98.20507799999996,127.05126999999993,106.79492200000004
47,218.46142599999985,147.6923829999996,-63.846190999999635,125.25634799999989,98.9741210000002,99.35888699999941,120.25634799999989,126.0258789999998,115.89746099999957,53.46142599999985,25.897460999999566,95.64111300000059,125.12841800000024,100.76904300000024
48,216.15380900000036,158.58984400000008,-59.10253899999998,137.05126999999993,96.2822270000006,98.84619099999964,123.9741210000002,129.10253900000043,115.12841800000024,51.153809000000365,32.56396500000028,97.17968800000017,132.3076170000004,89.48730499999965
49,219.61523400000078,168.7177729999994,-52.17944299999999,147.6923829999996,100.0,100.12841800000024,130.51269500000035,141.79492200000004,123.9741210000002,59.23095699999976,44.102539000000434,103.0771479999994,148.3334960000002,84.87158199999976
50,230.2563479999999,174.3588869999994,-46.025634999999966,153.3334960000002,109.35888699999941,103.0771479999994,136.79492200000004,157.6923829999996,138.7177729999994,76.15380900000036,53.846190999999635,110.0,165.89746099999957,92.30761700000039
51,243.0771479999994,170.2563479999999,-44.23071300000038,151.53857400000015,114.48730499999965,105.76904300000024,137.6923829999996,165.89746099999957,148.3334960000002,89.87158199999976,53.46142599999985,112.69238299999961,173.9741210000002,105.25634799999989
52,248.20507799999996,153.0771479999994,-48.71801800000003,140.6411130000006,103.0771479999994,104.74365200000011,130.12841800000024,157.56396500000028,142.17968800000017,85.89746099999957,38.0771479999994,108.46142599999985,164.3588869999994,109.74365200000011
53,238.0771479999994,124.87158199999976,-58.33325200000036,121.41015599999992,72.30761700000039,98.0771479999994,115.51269500000035,133.3334960000002,117.82031300000017,58.46142599999985,10.769043000000238,98.84619099999964,138.20507799999996,97.43603499999972
54,215.51269500000035,96.79492200000004,-67.82055700000001,100.25634799999989,36.53857400000015,88.0771479999994,100.51269500000035,105.0,86.41015599999992,19.230956999999762,-15.897461000000021,88.84619099999964,107.17968800000017,73.3334960000002
55,194.48730499999965,84.35888699999941,-71.15380900000036,87.82031300000017,18.717772999999397,80.76904300000024,93.58984400000008,89.10253900000043,65.89746099999957,-9.743652000000111,-26.41015600000037,83.84619099999964,87.17968800000017,53.7177729999994
56,190.6411130000006,96.79492200000004,-65.89746100000002,92.17968800000017,33.7177729999994,80.64111300000059,98.9741210000002,95.51269500000035,68.20507799999996,-11.538574000000153,-12.948729999999614,86.41015599999992,88.46142599999985,52.30761700000039
57,206.79492200000004,127.05126999999993,-56.28198199999997,111.79492200000004,73.9741210000002,87.17968800000017,113.20507799999996,118.84619099999964,89.74365200000011,11.666503999999804,17.30761700000039,94.87158199999976,106.79492200000004,69.35888699999941
58,230.2563479999999,155.76904300000024,-49.35888699999987,134.7436520000001,114.35888699999941,95.64111300000059,126.79492200000004,142.6923829999996,113.84619099999964,40.897460999999566,45.51269500000035,103.3334960000002,128.0771479999994,91.41015599999992
59,241.9228520000006,165.0,-49.8718259999996,146.79492200000004,129.7436520000001,99.87158199999976,130.89746099999957,151.41015599999992,123.7177729999994,56.025878999999804,55.0,106.41015599999992,138.7177729999994,103.20507799999996
60,232.3076170000004,151.9228520000006,-56.153809000000365,140.89746099999957,112.82031300000017,97.05126999999993,124.61523400000078,140.89746099999957,115.0,52.05126999999993,42.69238299999961,103.20507799999996,136.0258789999998,98.9741210000002
61,208.46142599999985,128.84619099999964,-61.79492200000004,121.79492200000004,77.82031300000017,89.48730499999965,113.46142599999985,120.89746099999957,97.30761700000039,39.35888699999941,20.25634799999989,97.56396500000028,127.30761700000039,85.89746099999957
62,187.82031300000017,112.30761700000039,-61.41015600000037,103.46142599999985,49.102539000000434,82.69238299999961,106.0258789999998,105.38476599999922,85.25634799999989,33.0771479999994,4.358886999999413,93.9741210000002,121.9228520000006,75.38476599999922
63,183.9741210000002,110.76904300000024,-53.974365000000034,98.7177729999994,44.74365200000011,81.53857400000015,106.41015599999992,103.3334960000002,86.53857400000015,38.46142599999985,4.230956999999762,94.23095699999976,123.58984400000008,74.23095699999976
64,197.17968800000017,120.25634799999989,-44.48706099999981,110.51269500000035,64.48730499999965,86.2822270000006,112.82031300000017,112.82031300000017,97.17968800000017,48.20507799999996,16.794922000000042,96.79492200000004,129.10253900000043,79.74365200000011
65,215.6411130000006,130.38476599999922,-39.61547900000005,130.76904300000024,92.94873000000007,92.69238299999961,119.61523400000078,125.0,106.79492200000004,51.153809000000365,30.641113000000587,99.10253900000043,132.82031300000017,84.87158199999976
66,226.6665039999998,134.23095699999976,-41.79492200000004,146.6665039999998,111.0258789999998,96.0258789999998,121.79492200000004,131.6665039999998,108.46142599999985,43.974121000000196,36.53857400000015,100.25634799999989,131.9228520000006,85.89746099999957
67,225.38476599999922,132.17968800000017,-48.58984399999963,150.12841800000024,108.84619099999964,95.12841800000024,118.9741210000002,130.38476599999922,103.84619099999964,33.7177729999994,32.94873000000007,100.76904300000024,128.58984400000008,84.74365200000011
68,216.79492200000004,128.84619099999964,-54.61547900000005,142.05126999999993,90.76904300000024,91.79492200000004,113.58984400000008,123.46142599999985,98.46142599999985,28.974121000000196,25.128418000000238,100.89746099999957,126.2822270000006,85.38476599999922
69,209.7436520000001,127.30761700000039,-56.153809000000365,129.10253900000043,71.15380900000036,88.58984400000008,108.3334960000002,115.25634799999989,96.2822270000006,31.794922000000042,19.871581999999762,100.0,127.56396500000028,88.84619099999964
70,210.12841800000024,128.58984400000008,-53.07690400000001,120.64111300000059,64.87158199999976,87.69238299999961,105.25634799999989,110.38476599999922,98.20507799999996,37.69238299999961,22.30761700000039,98.3334960000002,133.0771479999994,93.3334960000002
71,218.20507799999996,133.46142599999985,-47.564209000000574,122.30761700000039,78.0771479999994,90.0,106.0258789999998,112.82031300000017,104.10253900000043,43.20507799999996,33.589844000000085,97.69238299999961,142.56396500000028,96.79492200000004
72,229.7436520000001,142.6923829999996,-42.17944299999999,134.23095699999976,104.87158199999976,94.74365200000011,111.6665039999998,123.0771479999994,113.9741210000002,49.35888699999941,50.0,99.74365200000011,155.0,99.61523400000078
73,239.61523400000078,155.0,-39.10253899999998,149.10253900000043,129.23095699999976,100.38476599999922,120.64111300000059,136.9228520000006,125.25634799999989,58.0771479999994,64.87158199999976,103.84619099999964,167.05126999999993,103.46142599999985
74,243.46142599999985,164.7436520000001,-39.74365200000011,156.15380900000036,135.2563479999999,104.10253900000043,127.69238299999961,146.15380900000036,131.79492200000004,66.79492200000004,71.53857400000015,107.17968800000017,173.20507799999996,107.69238299999961
75,237.43603499999972,164.7436520000001,-44.74365200000011,147.43603499999972,116.9228520000006,102.94873000000007,127.30761700000039,143.46142599999985,127.05126999999993,68.9741210000002,67.43603499999972,106.79492200000004,168.7177729999994,107.82031300000017
76,221.15380900000036,152.43603499999972,-52.30761700000039,124.23095699999976,83.46142599999985,96.6665039999998,118.0771479999994,128.20507799999996,110.64111300000059,60.76904300000024,54.48730499999965,102.05126999999993,153.84619099999964,99.61523400000078
77,199.7436520000001,134.3588869999994,-58.20507799999996,99.10253900000043,54.102539000000434,88.58984400000008,105.38476599999922,108.58984400000008,91.0258789999998,46.53857400000015,39.48730499999965,95.64111300000059,135.89746099999957,84.74365200000011
78,184.10253900000043,122.43603499999972,-58.33325200000036,87.56396500000028,45.38476599999922,84.35888699999941,97.05126999999993,96.6665039999998,80.51269500000035,36.410155999999915,30.0,91.2822270000006,125.25634799999989,71.41015599999992
79,183.9741210000002,124.48730499999965,-51.92309599999999,96.53857400000015,60.64111300000059,87.56396500000028,98.20507799999996,99.48730499999965,85.38476599999922,37.56396500000028,29.48730499999965,91.6665039999998,127.94873000000007,68.7177729999994
80,200.2563479999999,137.43603499999972,-43.07690400000001,119.35888699999941,88.9741210000002,96.2822270000006,107.82031300000017,114.23095699999976,101.6665039999998,47.56396500000028,35.51269500000035,97.05126999999993,140.89746099999957,78.84619099999964
81,223.46142599999985,151.15380900000036,-37.30761700000039,141.15380900000036,114.61523400000078,104.10253900000043,119.87158199999976,131.0258789999998,118.7177729999994,57.43603499999972,42.69238299999961,104.61523400000078,154.87158199999976,95.12841800000024
82,239.3588869999994,155.51269500000035,-37.69238299999961,150.2563479999999,125.76904300000024,105.64111300000059,127.43603499999972,140.51269500000035,126.79492200000004,58.974121000000196,46.9228520000006,109.35888699999941,161.0258789999998,106.6665039999998
83,237.43603499999972,146.9228520000006,-43.46142599999985,143.7177729999994,118.7177729999994,98.9741210000002,126.53857400000015,137.82031300000017,122.43603499999972,50.76904300000024,46.2822270000006,107.56396500000028,156.79492200000004,105.64111300000059
84,217.82031300000017,128.7177729999994,-51.53857400000015,126.9228520000006,97.82031300000017,87.56396500000028,117.17968800000017,124.74365200000011,108.9741210000002,38.46142599999985,39.35888699999941,99.23095699999976,145.38476599999922,92.30761700000039
85,192.3076170000004,109.74365200000011,-58.20507799999996,109.87158199999976,73.58984400000008,78.3334960000002,104.23095699999976,108.46142599999985,94.23095699999976,29.74365200000011,27.05126999999993,88.9741210000002,133.0771479999994,74.87158199999976
86,178.46142599999985,100.64111300000059,-61.025634999999966,102.56396500000028,59.102539000000434,76.79492200000004,95.64111300000059,98.7177729999994,86.9228520000006,30.897460999999566,14.487304999999651,82.30761700000039,126.0258789999998,65.12841800000024
87,188.0771479999994,108.0771479999994,-58.58984399999963,110.0,63.7177729999994,84.23095699999976,97.56396500000028,102.69238299999961,93.0771479999994,42.56396500000028,9.871581999999762,82.82031300000017,127.43603499999972,70.38476599999922
88,217.94873000000007,130.38476599999922,-51.92309599999999,128.46142599999985,86.9228520000006,96.2822270000006,110.0,120.12841800000024,110.76904300000024,59.61523400000078,18.461425999999847,90.12841800000024,136.0258789999998,87.56396500000028
89,251.9228520000006,157.56396500000028,-44.10253899999998,147.43603499999972,116.79492200000004,106.53857400000015,125.89746099999957,142.56396500000028,131.15380900000036,73.46142599999985,38.0771479999994,100.0,146.79492200000004,105.51269500000035
90,270.76904300000024,177.17968800000017,-38.846190999999635,157.05126999999993,136.6665039999998,110.25634799999989,136.15380900000036,158.7177729999994,143.58984400000008,77.69238299999961,58.974121000000196,106.79492200000004,154.7436520000001,113.20507799999996
91,264.3588869999994,179.87158199999976,-38.20507799999996,153.9741210000002,134.7436520000001,106.6665039999998,135.51269500000035,160.38476599999922,142.43603499999972,71.2822270000006,70.64111300000059,107.17968800000017,157.17968800000017,106.2822270000006
92,237.56396500000028,164.10253900000043,-41.025634999999966,142.17968800000017,111.41015599999992,98.58984400000008,125.12841800000024,146.79492200000004,128.84619099999964,58.20507799999996,67.17968800000017,102.30761700000039,154.23095699999976,89.35888699999941
93,206.2822270000006,138.0771479999994,-44.35888699999987,128.9741210000002,80.38476599999922,90.38476599999922,111.79492200000004,125.51269500000035,110.25634799999989,44.87158199999976,51.410155999999915,96.9228520000006,147.6923829999996,72.56396500000028
94,186.79492200000004,116.15380900000036,-45.25634799999989,121.9228520000006,61.79492200000004,86.41015599999992,104.23095699999976,108.46142599999985,96.6665039999998,38.333496000000196,34.23095699999976,95.64111300000059,140.89746099999957,64.87158199999976
95,185.51269500000035,109.87158199999976,-42.69238299999961,124.10253900000043,68.20507799999996,88.3334960000002,107.17968800000017,104.48730499999965,95.38476599999922,41.79492200000004,26.922852000000603,98.84619099999964,137.17968800000017,68.9741210000002
96,196.0258789999998,119.61523400000078,-38.974365000000034,132.05126999999993,93.20507799999996,94.48730499999965,117.17968800000017,113.0771479999994,104.74365200000011,50.897460999999566,31.025878999999804,102.56396500000028,137.3076170000004,79.74365200000011
97,205.6411130000006,133.58984400000008,-38.46142599999985,137.56396500000028,116.0258789999998,100.25634799999989,124.35888699999941,123.7177729999994,114.23095699999976,55.0,37.30761700000039,101.2822270000006,138.46142599999985,87.69238299999961
98,204.61523400000078,138.46142599999985,-43.846190999999635,133.46142599999985,118.46142599999985,101.6665039999998,121.41015599999992,125.76904300000024,113.3334960000002,46.410155999999915,34.61523400000078,94.23095699999976,135.89746099999957,86.41015599999992
99,192.3076170000004,130.38476599999922,-52.30761700000039,121.15380900000036,99.23095699999976,98.46142599999985,110.0,117.30761700000039,101.6665039999998,28.974121000000196,22.30761700000039,85.51269500000035,128.7177729999994,77.82031300000017
100,179.10253900000043,118.84619099999964,-56.79492200000004,110.64111300000059,73.9741210000002,93.9741210000002,100.76904300000024,108.0771479999994,90.38476599999922,17.05126999999993,12.82031300000017,82.05126999999993,122.30761700000039,71.53857400000015
101,178.20507799999996,118.3334960000002,-52.051270000000386,113.20507799999996,62.56396500000028,93.0771479999994,103.7177729999994,110.51269500000035,92.69238299999961,23.717772999999397,20.897460999999566,87.69238299999961,125.89746099999957,76.9228520000006
102,196.41015599999992,134.23095699999976,-39.35888699999987,131.15380900000036,72.69238299999961,97.69238299999961,120.12841800000024,128.46142599999985,111.9228520000006,49.23095699999976,48.846190999999635,99.35888699999941,142.94873000000007,94.35888699999941
103,225.38476599999922,157.82031300000017,-26.794922000000042,154.61523400000078,95.51269500000035,105.0,139.61523400000078,152.3076170000004,137.43603499999972,78.84619099999964,81.15380900000036,110.0,165.6411130000006,112.94873000000007
104,247.82031300000017,173.0771479999994,-22.564209000000574,168.9741210000002,113.46142599999985,109.10253900000043,148.84619099999964,165.6411130000006,152.3076170000004,93.3334960000002,95.76904300000024,112.82031300000017,178.46142599999985,118.7177729999994
105,251.6665039999998,169.48730499999965,-28.974365000000034,167.94873000000007,115.0,106.79492200000004,140.6411130000006,158.7177729999994,147.3076170000004,83.58984400000008,82.43603499999972,106.9228520000006,171.2822270000006,106.41015599999992
106,241.2822270000006,150.76904300000024,-40.25634799999989,158.46142599999985,103.58984400000008,100.25634799999989,121.0258789999998,136.6665039999998,127.30761700000039,58.7177729999994,52.56396500000028,97.82031300000017,149.7436520000001,85.0
107,232.82031300000017,132.3076170000004,-46.66674799999964,153.3334960000002,92.82031300000017,95.89746099999957,103.84619099999964,115.76904300000024,108.9741210000002,40.0,30.641113000000587,93.84619099999964,131.53857400000015,71.2822270000006
108,237.6923829999996,127.94873000000007,-42.564209000000574,159.3588869999994,93.46142599999985,97.17968800000017,101.79492200000004,111.6665039999998,106.6665039999998,43.46142599999985,33.974121000000196,99.48730499999965,132.56396500000028,75.64111300000059
109,252.56396500000028,137.56396500000028,-30.38452099999995,171.15380900000036,103.7177729999994,101.53857400000015,115.0,125.89746099999957,121.15380900000036,67.17968800000017,58.7177729999994,111.2822270000006,153.0771479999994,92.94873000000007
110,263.7177729999994,148.58984400000008,-19.10253899999998,176.41015599999992,111.15380900000036,103.20507799999996,131.79492200000004,145.51269500000035,138.7177729999994,91.9228520000006,83.9741210000002,120.89746099999957,177.17968800000017,107.69238299999961
111,262.17968800000017,148.0771479999994,-15.897461000000021,167.94873000000007,105.76904300000024,98.84619099999964,137.94873000000007,154.3588869999994,143.7177729999994,97.56396500000028,89.23095699999976,121.53857400000015,186.41015599999992,107.56396500000028
112,252.6923829999996,135.38476599999922,-21.153809000000365,149.7436520000001,89.23095699999976,91.53857400000015,128.0771479999994,145.89746099999957,131.0258789999998,78.46142599999985,71.6665039999998,113.20507799999996,173.46142599999985,94.23095699999976
113,248.46142599999985,121.53857400000015,-29.8718259999996,133.58984400000008,73.3334960000002,87.43603499999972,109.23095699999976,127.17968800000017,109.23095699999976,47.30761700000039,46.79492200000004,101.9228520000006,146.41015599999992,79.48730499999965
114,258.0771479999994,117.82031300000017,-36.79492200000004,128.20507799999996,68.3334960000002,89.74365200000011,93.84619099999964,111.0258789999998,92.30761700000039,23.333496000000196,32.43603499999972,93.7177729999994,121.15380900000036,73.3334960000002
115,279.10253900000043,125.76904300000024,-40.1281740000004,132.56396500000028,76.79492200000004,96.41015599999992,89.87158199999976,106.0258789999998,89.48730499999965,18.717772999999397,35.0,91.53857400000015,110.12841800000024,75.76904300000024
116,302.17968800000017,138.9741210000002,-40.38452099999995,140.6411130000006,92.82031300000017,102.05126999999993,96.9228520000006,112.82031300000017,99.87158199999976,32.43603499999972,46.2822270000006,94.23095699999976,115.76904300000024,79.74365200000011
117,321.0258789999998,150.6411130000006,-38.71801800000003,148.46142599999985,108.20507799999996,103.84619099999964,110.12841800000024,126.2822270000006,116.0258789999998,54.61523400000078,55.0,99.74365200000011,132.3076170000004,81.2822270000006
118,336.0258789999998,157.82031300000017,-35.1281740000004,156.9228520000006,117.17968800000017,102.30761700000039,123.84619099999964,140.6411130000006,129.7436520000001,73.46142599999985,55.897460999999566,105.64111300000059,150.76904300000024,83.3334960000002
119,347.6923829999996,158.20507799999996,-30.1281740000004,165.12841800000024,115.76904300000024,100.0,132.82031300000017,150.76904300000024,135.12841800000024,80.12841800000024,50.38476599999922,109.74365200000011,162.43603499999972,89.23095699999976
120,350.3847659999992,148.58984400000008,-25.38452099999995,166.6665039999998,102.05126999999993,98.20507799999996,133.7177729999994,152.17968800000017,129.61523400000078,71.2822270000006,40.38476599999922,109.87158199999976,160.51269500000035,95.12841800000024
121,337.82031300000017,130.12841800000024,-22.564209000000574,155.76904300000024,80.38476599999922,97.05126999999993,126.6665039999998,143.9741210000002,115.51269500000035,52.30761700000039,28.589844000000085,105.38476599999922,145.12841800000024,94.10253900000043
122,314.3588869999994,112.56396500000028,-21.025634999999966,137.82031300000017,65.64111300000059,97.05126999999993,117.94873000000007,133.20507799999996,102.17968800000017,37.56396500000028,21.153809000000365,99.74365200000011,125.25634799999989,85.51269500000035
123,294.3588869999994,106.9228520000006,-20.1281740000004,125.76904300000024,73.46142599999985,98.9741210000002,116.15380900000036,130.51269500000035,100.89746099999957,40.897460999999566,25.0,98.20507799999996,114.48730499999965,76.0258789999998
124,287.3076170000004,112.69238299999961,-21.794922000000042,124.87158199999976,102.94873000000007,101.41015599999992,122.56396500000028,138.7177729999994,113.58984400000008,60.0,37.82031300000017,102.30761700000039,117.94873000000007,70.0
125,287.5639650000003,115.89746099999957,-27.435790999999426,127.05126999999993,132.43603499999972,101.53857400000015,128.9741210000002,148.20507799999996,127.17968800000017,75.38476599999922,45.76904300000024,106.6665039999998,127.82031300000017,64.35888699999941
126,282.5639650000003,104.35888699999941,-34.10253899999998,121.79492200000004,138.20507799999996,97.94873000000007,126.0258789999998,146.79492200000004,126.9228520000006,68.7177729999994,36.53857400000015,104.48730499999965,130.12841800000024,53.20507799999996
127,268.0771479999994,79.74365200000011,-36.53857400000015,110.76904300000024,118.58984400000008,93.3334960000002,115.0,134.23095699999976,112.43603499999972,42.69238299999961,12.948730000000069,95.76904300000024,120.0,36.666503999999804
128,251.15380900000036,53.20507799999996,-32.69238299999961,103.46142599999985,93.3334960000002,91.15380900000036,106.2822270000006,122.94873000000007,98.20507799999996,20.384765999999217,-9.61547900000005,87.94873000000007,105.25634799999989,20.641113000000587
129,242.6923829999996,33.589844000000085,-28.974365000000034,102.43603499999972,82.43603499999972,92.69238299999961,107.69238299999961,122.30761700000039,96.79492200000004,21.282227000000603,-20.25634799999989,88.84619099999964,96.2822270000006,10.256347999999889
130,250.0,24.358886999999413,-33.46142599999985,99.74365200000011,86.2822270000006,95.51269500000035,115.51269500000035,128.3334960000002,105.12841800000024,42.94873000000007,-21.28198199999997,97.69238299999961,95.12841800000024,6.410155999999915
131,272.6923829999996,29.871581999999762,-46.41015600000037,90.76904300000024,90.64111300000059,96.0258789999998,119.48730499999965,129.48730499999965,110.64111300000059,65.25634799999989,-19.61547900000005,107.05126999999993,96.0258789999998,7.692382999999609
132,298.84619099999964,55.897460999999566,-57.82055700000001,81.9228520000006,83.46142599999985,93.20507799999996,114.35888699999941,120.38476599999922,105.38476599999922,69.61523400000078,-14.230713000000378,109.74365200000011,96.0258789999998,13.717772999999397
133,306.9228520000006,100.38476599999922,-57.17944299999999,83.20507799999996,67.43603499999972,89.35888699999941,104.87158199999976,107.17968800000017,93.9741210000002,54.35888699999941,0.12841800000023795,104.74365200000011,97.56396500000028,23.205077999999958
134,277.5639650000003,143.3334960000002,-44.10253899999998,96.2822270000006,56.025878999999804,87.56396500000028,99.87158199999976,100.76904300000024,87.82031300000017,33.333496000000196,19.871581999999762,97.94873000000007,100.64111300000059,28.205077999999958
135,211.15380900000036,154.3588869999994,-28.71801800000003,114.23095699999976,61.666503999999804,89.23095699999976,105.0,108.0771479999994,94.87158199999976,25.128418000000238,29.74365200000011,97.05126999999993,99.35888699999941,16.282227000000603
136,135.2563479999999,118.7177729999994,-22.435790999999426,130.0,87.56396500000028,93.58984400000008,119.48730499999965,128.7177729999994,115.25634799999989,41.153809000000365,20.128418000000238,106.53857400000015,90.76904300000024,-16.923095999999987
137,91.0258789999998,55.0,-26.538574000000153,140.38476599999922,126.2822270000006,99.23095699999976,137.43603499999972,156.15380900000036,143.0771479999994,78.9741210000002,1.9228520000006029,123.7177729999994,83.46142599999985,-57.82055700000001
138,104.74365200000011,2.0512699999999313,-32.051270000000386,143.46142599999985,163.0771479999994,103.9741210000002,151.6665039999998,181.41015599999992,168.0771479999994,121.41015599999992,-2.9487300000000687,140.51269500000035,91.53857400000015,-80.89746100000002
139,165.6411130000006,-14.230713000000378,-30.0,139.61523400000078,183.46142599999985,105.64111300000059,157.05126999999993,195.51269500000035,180.76904300000024,145.89746099999957,16.153809000000365,147.56396500000028,116.41015599999992,-70.64111300000013
140,231.41015599999992,-1.9228520000006029,-21.025634999999966,139.61523400000078,181.6665039999998,102.94873000000007,154.10253900000043,195.89746099999957,177.3076170000004,138.84619099999964,45.0,141.0258789999998,142.05126999999993,-33.71801800000003
141,257.82031300000017,9.743652000000111,-15.512939000000188,162.6923829999996,162.3076170000004,96.2822270000006,146.9228520000006,187.17968800000017,161.41015599999992,104.74365200000011,55.0,125.12841800000024,147.6923829999996,7.051269999999931
142,233.58984400000008,-1.5385740000001533,-23.846190999999635,220.76904300000024,133.9741210000002,88.20507799999996,139.3588869999994,176.2822270000006,140.76904300000024,61.410155999999915,24.871581999999762,109.23095699999976,124.87158199999976,30.51269500000035
143,190.2563479999999,-31.41015600000037,-46.53857400000015,304.10253900000043,101.53857400000015,80.38476599999922,131.15380900000036,166.0258789999998,120.12841800000024,24.230956999999762,-41.41015600000037,100.12841800000024,83.9741210000002,29.48730499999965
144,178.9741210000002,-52.69238299999961,-70.76928699999962,388.3334960000002,67.94873000000007,75.0,120.76904300000024,155.76904300000024,100.89746099999957,-0.6411130000005869,-113.20507799999996,98.0771479999994,47.05126999999993,15.512695000000349
145,230.2563479999999,-32.948729999999614,-76.53857400000015,458.84619099999964,42.69238299999961,75.25634799999989,112.17968800000017,150.0,87.82031300000017,-11.538574000000153,-147.56420900000057,99.23095699999976,34.23095699999976,14.487304999999651
146,330.3847659999992,44.48730499999965,-50.25634799999989,523.3334960000002,39.102539000000434,84.48730499999965,113.58984400000008,159.87158199999976,89.48730499999965,-5.641113000000132,-118.46142599999985,101.79492200000004,53.20507799999996,51.410155999999915
147,430.51269500000035,167.56396500000028,1.2822270000006029,599.3588869999994,56.666503999999804,101.2822270000006,127.43603499999972,190.6411130000006,107.56396500000028,14.230956999999762,-40.25634799999989,104.74365200000011,95.0,130.2563479999999
148,483.5898440000001,301.79492200000004,53.333496000000196,696.794922,72.94873000000007,117.69238299999961,143.9741210000002,230.89746099999957,127.94873000000007,32.30761700000039,40.12841800000024,104.10253900000043,140.0,229.87158199999976
149,481.15380900000036,412.6923829999996,80.38476599999922,818.205078,61.9228520000006,126.15380900000036,149.48730499999965,261.0258789999998,131.2822270000006,29.230956999999762,83.20507799999996,95.38476599999922,172.43603499999972,321.6665039999998
150,460.12841800000024,483.46142599999985,76.41015599999992,964.2309569999998,23.589844000000085,126.79492200000004,142.6923829999996,273.9741210000002,114.61523400000078,1.5385740000001533,91.41015599999992,80.89746099999957,192.43603499999972,392.6923829999996
151,465.51269500000035,511.4101559999999,57.94873000000007,1124.2309569999998,-11.794922000000042,127.69238299999961,136.9228520000006,283.84619099999964,97.30761700000039,-33.07690400000001,102.94873000000007,72.05126999999993,214.48730499999965,448.9741210000002
152,506.0258789999998,496.53857400000015,47.56396500000028,1263.8461909999996,-13.461425999999847,136.15380900000036,146.6665039999998,309.3588869999994,101.79492200000004,-53.33325200000036,150.38476599999922,78.46142599999985,251.2822270000006,502.6923829999996
153,550.0,447.3076170000004,54.102539000000434,1339.1025390000004,20.641113000000587,151.6665039999998,170.76904300000024,353.9741210000002,129.87158199999976,-54.61547900000005,230.6411130000006,97.17968800000017,302.05126999999993,561.0258789999998
154,565.5126950000003,397.82031300000017,68.58984400000008,1334.4873049999997,61.410155999999915,166.53857400000015,193.0771479999994,404.23095699999976,161.6665039999998,-49.8718259999996,316.6665039999998,114.61523400000078,355.76904300000024,627.4360349999997
155,557.1796880000002,402.3076170000004,74.74365200000011,1281.9228520000006,75.0,173.7177729999994,197.56396500000028,444.6152340000008,174.48730499999965,-55.51293900000019,389.87158199999976,119.10253900000043,404.7436520000001,703.5898440000001
156,558.8461909999996,494.10253900000043,64.74365200000011,1237.8203130000002,50.76904300000024,172.43603499999972,182.3076170000004,471.79492200000004,162.17968800000017,-76.92309599999999,452.4360349999997,110.38476599999922,450.0,783.205078
157,594.8715819999998,643.3334960000002,44.102539000000434,1241.6665039999998,6.922852000000603,167.94873000000007,158.20507799999996,494.48730499999965,136.41015599999992,-107.94872999999961,511.4101559999999,97.56396500000028,494.10253900000043,847.1796880000002
158,653.7177729999994,766.0258789999998,26.410155999999915,1297.4360349999997,-24.487060999999812,166.53857400000015,140.12841800000024,523.7177729999994,116.41015599999992,-135.64111300000013,564.4873049999997,89.23095699999976,535.3847659999992,874.3588869999994
159,703.4614259999998,787.5639650000003,21.153809000000365,1383.0771479999994,-18.58984399999963,172.17968800000017,137.05126999999993,565.6411130000006,116.0258789999998,-147.3076170000004,607.6923829999996,88.7177729999994,574.6152340000008,867.4360349999997
160,723.8461909999996,706.0258789999998,26.153809000000365,1468.0771479999994,27.82031300000017,184.7436520000001,148.84619099999964,618.5898440000001,137.43603499999972,-136.66674799999964,649.8715819999998,93.84619099999964,623.5898440000001,860.0
161,718.4614259999998,596.1538090000004,29.358886999999413,1523.7177729999994,92.30761700000039,199.10253900000043,167.05126999999993,671.4101559999999,168.84619099999964,-110.64111300000013,704.6152340000008,100.0,694.8715819999998,887.0512699999999
162,699.4873049999997,549.7436520000001,21.025878999999804,1530.8974609999996,138.58984400000008,206.6665039999998,179.3588869999994,706.1538090000004,189.10253900000043,-90.51293900000019,771.5385740000002,101.79492200000004,782.1796880000002,945.5126950000003
163,675.2563479999999,606.9228520000006,5.512695000000349,1493.8461909999996,141.2822270000006,202.43603499999972,177.43603499999972,710.1284180000002,183.3334960000002,-96.92309599999999,834.4873049999997,95.89746099999957,858.5898440000001,992.9487300000001
164,651.5385740000002,730.3847659999992,2.4360349999997197,1446.6665039999998,107.30761700000039,190.12841800000024,163.3334960000002,691.4101559999999,156.53857400000015,-129.4870609999998,880.0,84.23095699999976,900.8974609999996,989.2309569999998
165,636.6665039999998,838.3334960000002,30.0,1437.05127,71.53857400000015,180.89746099999957,147.3076170000004,674.7436520000001,131.0258789999998,-165.1281740000004,911.4101559999999,73.84619099999964,913.5898440000001,935.0
166,642.5639650000003,867.3076170000004,85.64111300000059,1494.1025390000004,66.6665039999998,183.7177729999994,137.17968800000017,681.794922,126.0258789999998,-179.4870609999998,942.8203130000002,70.89746099999957,926.4101559999999,870.1284180000002
167,676.2822270000006,818.8461909999996,142.82031300000017,1607.94873,97.05126999999993,197.3076170000004,131.41015599999992,711.4101559999999,141.15380900000036,-169.8718259999996,982.9487300000001,74.74365200000011,967.6923829999996,838.7177729999994
168,732.1796880000002,755.8974609999996,169.10253900000043,1737.6923829999996,142.17968800000017,211.15380900000036,123.0771479999994,743.4614259999998,158.7177729999994,-154.8718259999996,1028.9741210000002,78.20507799999996,1040.0,853.8461909999996
169,790.2563479999999,754.4873049999997,151.53857400000015,1838.7177729999994,177.43603499999972,214.7436520000001,108.3334960000002,757.0512699999999,162.05126999999993,-154.35888699999987,1071.410156,74.74365200000011,1119.1025390000004,889.8715819999998
170,825.7690430000002,843.8461909999996,103.7177729999994,1885.5126950000003,190.89746099999957,204.87158199999976,89.87158199999976,745.3847659999992,147.17968800000017,-173.71801800000003,1101.6665039999998,63.589844000000085,1173.0771479999994,902.1796880000002
171,826.2822270000006,981.1538090000004,52.30761700000039,1883.205078,187.56396500000028,187.3076170000004,73.84619099999964,717.4360349999997,123.20507799999996,-203.33325200000036,1119.2309569999998,48.0771479999994,1186.6665039999998,860.6411130000006
172,801.6665039999998,1085.1284180000002,18.589844000000085,1865.1284180000002,185.0,172.3076170000004,64.87158199999976,690.1284180000002,103.0771479999994,-227.3076170000004,1135.7690430000002,32.43603499999972,1172.8203130000002,775.2563479999999
173,779.1025390000004,1099.2309569999998,7.179688000000169,1874.2309569999998,201.6665039999998,167.6923829999996,64.23095699999976,677.6923829999996,95.12841800000024,-235.38452099999995,1170.6411130000006,20.641113000000587,1161.6665039999998,690.3847659999992
174,781.4101559999999,1034.4873049999997,10.256347999999889,1931.1538090000004,243.46142599999985,173.84619099999964,68.58984400000008,682.8203130000002,97.56396500000028,-229.8718259999996,1233.3334960000002,15.512695000000349,1175.8974609999996,647.5639650000003
175,809.6152340000008,956.0258789999998,17.82031300000017,2016.0258789999998,298.7177729999994,183.58984400000008,71.53857400000015,694.7436520000001,100.64111300000059,-223.46142599999985,1309.8715819999998,16.666503999999804,1215.5126950000003,651.2822270000006
176,844.3588869999994,931.9228520000006,25.0,2087.3076170000004,348.7177729999994,188.3334960000002,69.10253900000043,699.3588869999994,96.0258789999998,-226.28198199999997,1368.589844,20.769043000000238,1259.3588869999994,670.8974609999996
177,865.3847659999992,986.0258789999998,33.46142599999985,2120.7690430000002,383.7177729999994,184.48730499999965,61.53857400000015,691.9228520000006,84.87158199999976,-236.15380900000036,1386.0258789999998,22.69238299999961,1283.4614259999998,672.5639650000003
178,869.2309569999998,1083.9741210000002,45.64111300000059,2126.538574,408.46142599999985,175.89746099999957,53.46142599999985,678.8461909999996,75.64111300000059,-241.79492200000004,1368.0771479999994,19.871581999999762,1277.94873,646.794922
179,865.3847659999992,1157.1796880000002,58.589844000000085,2130.6411130000006,433.46142599999985,169.48730499999965,49.102539000000434,669.4873049999997,75.0,-235.38452099999995,1345.256348,13.846190999999635,1252.1796880000002,607.3076170000004
180,859.2309569999998,1147.6923829999996,63.7177729999994,2147.179688,463.9741210000002,169.7436520000001,49.23095699999976,667.0512699999999,81.9228520000006,-222.179443,1344.3588869999994,8.205077999999958,1225.7690430000002,568.7177729999994
181,846.0258789999998,1054.6152340000008,51.79492200000004,2170.256348,497.6923829999996,174.61523400000078,51.9228520000006,667.6923829999996,89.48730499999965,-214.61547900000005,1366.6665039999998,6.025878999999804,1213.3334960000002,532.4360349999997
182,821.6665039999998,944.2309569999998,19.102539000000434,2187.179688,527.0512699999999,179.23095699999976,55.51269500000035,667.0512699999999,93.46142599999985,-220.64111300000013,1389.743652,7.307617000000391,1214.6152340000008,493.9741210000002
183,797.5639650000003,903.0771479999994,-29.487060999999812,2192.179688,544.2309569999998,180.12841800000024,58.7177729999994,664.7436520000001,95.0,-236.923096,1387.8203130000002,10.512695000000349,1214.743652,456.9228520000006
184,797.1796880000002,965.7690430000002,-83.07690400000001,2189.8715819999998,545.1284180000002,177.82031300000017,59.87158199999976,662.0512699999999,96.79492200000004,-252.820557,1350.1284180000002,13.205077999999958,1198.0771479999994,433.9741210000002
185,835.1284180000002,1083.589844,-130.5129390000002,2188.974121,531.5385740000002,175.0,57.30761700000039,656.9228520000006,99.23095699999976,-260.64111300000013,1287.4360349999997,12.692382999999609,1164.4873049999997,432.4360349999997
186,898.5898440000001,1166.0258789999998,-163.58984399999963,2195.8974609999996,512.9487300000001,174.23095699999976,50.38476599999922,645.2563479999999,99.61523400000078,-259.35888699999987,1227.3076170000004,6.410155999999915,1130.7690430000002,444.87158199999976
187,952.5639650000003,1155.3847659999992,-179.7436520000001,2210.256348,503.7177729999994,176.2822270000006,41.153809000000365,626.5385740000002,96.0258789999998,-253.46142599999985,1197.5639650000003,-5.256347999999889,1116.410156,454.7436520000001
188,963.5898440000001,1068.4614259999998,-183.97436500000003,2225.8974609999996,515.5126950000003,180.12841800000024,33.0771479999994,606.5385740000002,90.0,-248.076904,1204.8715819999998,-17.69238299999961,1123.205078,448.46142599999985
189,923.3334960000002,975.8974609999996,-186.02563499999997,2235.8974609999996,550.2563479999999,183.58984400000008,28.589844000000085,593.3334960000002,85.0,-246.41015600000037,1225.0,-24.487060999999812,1132.1796880000002,423.46142599999985
190,857.6923829999996,945.7690430000002,-193.71801800000003,2237.820313,599.3588869999994,185.0,28.205077999999958,591.5385740000002,84.23095699999976,-248.33325200000036,1221.9228520000006,-22.820557000000008,1119.3588869999994,389.6152340000008
191,815.2563479999999,995.0,-206.66674799999964,2238.205078,652.9487300000001,184.3588869999994,32.17968800000017,601.0258789999998,91.53857400000015,-248.71801800000003,1180.6411130000006,-14.743652000000111,1080.1284180000002,366.79492200000004
192,837.1796880000002,1080.3847659999992,-218.84619099999964,2249.1025390000004,707.1796880000002,183.58984400000008,40.76904300000024,617.3076170000004,108.20507799999996,-241.923096,1122.6923829999996,-5.897461000000021,1035.6411130000006,373.0771479999994
193,923.205078,1133.4614259999998,-225.5129390000002,2278.8461909999996,762.1796880000002,183.0771479999994,50.897460999999566,631.1538090000004,128.7177729999994,-228.58984399999963,1087.05127,-2.0512699999999313,1012.8203130000002,409.3588869999994
194,1025.7690430000002,1111.1538090000004,-228.84619099999964,2322.4360349999997,816.5385740000002,181.6665039999998,56.153809000000365,632.0512699999999,141.15380900000036,-218.33325200000036,1096.794922,-6.794922000000042,1018.7177729999994,456.4101559999999
195,1080.5126950000003,1025.7690430000002,-235.0,2363.205078,869.4873049999997,178.46142599999985,53.20507799999996,617.3076170000004,137.82031300000017,-219.61547900000005,1142.5639650000003,-18.076904000000013,1032.1796880000002,489.10253900000043
196,1053.7177729999994,930.1284180000002,-245.5129390000002,2383.7177729999994,923.4614259999998,175.2563479999999,46.79492200000004,598.5898440000001,125.12841800000024,-228.20507799999996,1192.6923829999996,-27.948729999999614,1022.3076170000004,493.84619099999964
197,966.5385740000002,872.0512699999999,-256.02563499999997,2374.615234000001,979.6152340000008,175.2563479999999,45.897460999999566,593.0771479999994,119.35888699999941,-229.35888699999987,1215.8974609999996,-27.179442999999992,975.0,473.7177729999994
198,876.794922,859.8715819999998,-260.64111300000013,2337.6923829999996,1026.9228520000006,179.87158199999976,54.102539000000434,606.1538090000004,130.51269500000035,-213.58984399999963,1199.6152340000008,-13.333252000000357,904.3588869999994,441.9228520000006
199,836.6665039999998,867.5639650000003,-258.076904,2285.8974609999996,1043.9741210000002,186.2822270000006,65.64111300000059,625.0,152.17968800000017,-188.076904,1154.4873049999997,5.256347999999889,842.4360349999997,415.2563479999999
200,862.1796880000002,868.3334960000002,-252.9487299999996,2241.025879,1013.9741210000002,190.12841800000024,69.61523400000078,629.7436520000001,167.94873000000007,-169.8718259999996,1108.3334960000002,15.384765999999217,817.3076170000004,411.15380900000036
201,933.0771479999994,861.9228520000006,-250.2563479999999,2222.6923829999996,939.1025390000004,188.3334960000002,59.61523400000078,610.2563479999999,165.12841800000024,-171.79492200000004,1089.8715819999998,8.461425999999847,835.0,441.2822270000006
202,1012.5639650000003,868.4614259999998,-252.179443,2232.820313,842.5639650000003,181.41015599999992,38.846190999999635,572.1796880000002,143.20507799999996,-193.58984399999963,1111.9228520000006,-13.58984399999963,876.9228520000006,503.20507799999996
203,1068.7177729999994,900.5126950000003,-257.0512700000004,2251.666504,755.8974609999996,173.58984400000008,16.794922000000042,531.9228520000006,112.56396500000028,-222.9487299999996,1162.05127,-40.38452099999995,912.4360349999997,575.6411130000006
204,1086.794922,943.5898440000001,-260.5129390000002,2256.9228520000006,707.5639650000003,170.38476599999922,4.487304999999651,507.94873000000007,90.12841800000024,-241.66674799999964,1213.4614259999998,-58.846190999999635,919.3588869999994,629.2309569999998
205,1070.6411130000006,965.1284180000002,-257.4357909999994,2243.8461909999996,712.3076170000004,175.51269500000035,8.846190999999635,512.0512699999999,90.89746099999957,-235.76928699999962,1244.2309569999998,-59.8718259999996,897.5639650000003,645.8974609999996
206,1035.1284180000002,943.3334960000002,-245.38452099999995,2227.179688,763.4614259999998,188.9741210000002,28.846190999999635,543.3334960000002,120.0,-203.33325200000036,1250.7690430000002,-43.846190999999635,866.0258789999998,631.4101559999999
207,997.1796880000002,885.1284180000002,-227.43579099999943,2223.205078,830.6411130000006,205.51269500000035,55.0,585.6411130000006,165.51269500000035,-158.97436500000003,1242.94873,-20.1281740000004,845.5126950000003,608.7177729999994
208,970.0,821.0258789999998,-211.02563499999997,2233.8461909999996,873.9741210000002,216.6665039999998,73.0771479999994,614.1025390000004,203.46142599999985,-126.15380900000036,1229.8715819999998,-2.6923829999996087,843.3334960000002,599.7436520000001
209,960.2563479999999,782.0512699999999,-202.820557,2247.179688,869.6152340000008,216.79492200000004,74.87158199999976,612.3076170000004,214.48730499999965,-121.66674799999964,1213.0771479999994,-0.6411130000005869,850.6411130000006,609.4873049999997
210,966.794922,779.4873049999997,-202.6923829999996,2249.743652,825.6411130000006,207.6923829999996,62.94873000000007,584.4873049999997,197.6923829999996,-143.076904,1191.0258789999998,-12.051270000000386,851.6665039999998,626.1538090000004
211,980.2563479999999,801.794922,-205.38452099999995,2236.2822270000006,773.4614259999998,196.41015599999992,47.30761700000039,551.2822270000006,169.48730499999965,-172.3076170000004,1164.743652,-26.538574000000153,836.1538090000004,633.7177729999994
212,987.5639650000003,825.5126950000003,-205.5129390000002,2210.256348,740.2563479999999,189.87158199999976,35.897460999999566,531.2822270000006,148.20507799999996,-191.15380900000036,1138.205078,-35.0,805.8974609999996,627.8203130000002
213,980.2563479999999,833.205078,-202.56420900000057,2180.6411130000006,730.3847659999992,190.0,29.871581999999762,527.3076170000004,141.6665039999998,-193.46142599999985,1116.410156,-35.89746100000002,773.9741210000002,619.1025390000004
214,963.5898440000001,824.4873049999997,-198.076904,2158.461426,729.4873049999997,193.9741210000002,27.69238299999961,530.6411130000006,147.43603499999972,-182.43579099999943,1106.410156,-33.974365000000034,757.4360349999997,624.1025390000004
215,954.1025390000004,812.4360349999997,-193.33325200000036,2153.333496,725.3847659999992,198.7177729999994,30.25634799999989,534.3588869999994,161.41015599999992,-162.0512700000004,1113.9741210000002,-32.564209000000574,767.3076170000004,651.5385740000002
216,965.8974609999996,809.1025390000004,-188.97436500000003,2166.025879,716.9228520000006,202.3076170000004,40.0,538.9741210000002,181.0258789999998,-135.5129390000002,1136.9228520000006,-31.153809000000365,799.1025390000004,692.6923829999996
217,993.7177729999994,813.4614259999998,-186.923096,2181.794922,708.4614259999998,203.20507799999996,54.87158199999976,546.6665039999998,200.51269500000035,-110.0,1159.2309569999998,-28.461425999999847,832.9487300000001,725.7690430000002
218,1014.3588869999994,813.5898440000001,-189.61547900000005,2177.94873,698.5898440000001,200.89746099999957,66.9228520000006,553.9741210000002,210.38476599999922,-97.69238299999961,1160.256348,-25.641113000000132,844.1025390000004,731.4101559999999
219,1005.7690430000002,799.2309569999998,-197.9487299999996,2139.1025390000004,681.1538090000004,195.12841800000024,69.35888699999941,554.4873049999997,204.23095699999976,-105.76928699999962,1131.2822270000006,-25.769286999999622,820.2563479999999,706.794922
220,965.7690430000002,772.5639650000003,-209.10253899999998,2071.666504,654.2309569999998,187.6923829999996,62.30761700000039,545.1284180000002,186.41015599999992,-127.69238299999961,1084.6152340000008,-29.74365200000011,770.6411130000006,666.0258789999998
221,914.1025390000004,746.794922,-218.20507799999996,1998.9741210000002,624.2309569999998,181.2822270000006,51.025878999999804,528.9741210000002,169.10253900000043,-147.9487299999996,1043.9741210000002,-35.89746100000002,718.8461909999996,629.8715819999998
222,877.4360349999997,735.2563479999999,-221.923096,1945.1284180000002,603.7177729999994,177.94873000000007,41.2822270000006,513.0771479999994,162.3076170000004,-154.8718259999996,1026.5385740000002,-41.41015600000037,686.0258789999998,611.794922
223,870.2563479999999,739.8715819999998,-221.41015600000037,1918.8461909999996,602.3076170000004,178.9741210000002,37.43603499999972,504.3588869999994,167.94873000000007,-147.3076170000004,1032.4360349999997,-43.33325200000036,678.8461909999996,612.1796880000002
224,888.0771479999994,749.8715819999998,-220.1281740000004,1911.5385740000002,621.0258789999998,183.9741210000002,42.05126999999993,507.4360349999997,182.17968800000017,-130.2563479999999,1049.4873049999997,-39.74365200000011,689.1025390000004,622.3076170000004
225,913.4614259999998,750.7690430000002,-221.15380900000036,1905.256348,648.5898440000001,191.15380900000036,54.23095699999976,521.5385740000002,198.46142599999985,-109.74365200000011,1063.589844,-31.153809000000365,702.8203130000002,630.2563479999999
226,929.2309569999998,736.1538090000004,-225.76928699999962,1884.1025390000004,665.6411130000006,196.9228520000006,67.94873000000007,537.5639650000003,209.87158199999976,-92.17944299999999,1063.3334960000002,-21.923095999999987,708.205078,627.8203130000002
227,927.0512699999999,712.0512699999999,-232.0512700000004,1844.4873049999997,657.6923829999996,198.58984400000008,74.48730499999965,543.5898440000001,211.53857400000015,-82.17944299999999,1043.3334960000002,-17.820557000000008,698.7177729999994,613.3334960000002
228,911.2822270000006,688.3334960000002,-237.179443,1796.410156,628.9741210000002,196.0258789999998,70.25634799999989,535.0,204.7436520000001,-79.8718259999996,1007.6923829999996,-20.641113000000132,676.4101559999999,592.6923829999996
229,894.1025390000004,669.3588869999994,-239.10253899999998,1755.256348,600.7690430000002,192.82031300000017,59.87158199999976,519.3588869999994,197.3076170000004,-78.97436500000003,969.7436520000001,-25.89746100000002,650.5126950000003,574.7436520000001
230,886.5385740000002,652.3076170000004,-238.46142599999985,1726.9228520000006,591.6665039999998,192.43603499999972,52.30761700000039,509.3588869999994,196.9228520000006,-73.20507799999996,941.2822270000006,-27.051270000000386,631.0258789999998,565.2563479999999
231,889.7436520000001,631.6665039999998,-237.56420900000057,1702.05127,599.6152340000008,195.38476599999922,52.69238299999961,510.0,202.43603499999972,-64.23071300000038,921.6665039999998,-22.051270000000386,620.8974609999996,561.0258789999998
232,895.7690430000002,603.4614259999998,-238.33325200000036,1666.410156,605.2563479999999,199.3588869999994,58.846190999999635,515.5126950000003,205.51269500000035,-59.23071300000038,899.7436520000001,-15.641113000000132,614.1025390000004,554.4873049999997
233,898.205078,565.7690430000002,-241.15380900000036,1615.1284180000002,591.1538090000004,201.6665039999998,65.51269500000035,517.1796880000002,201.0258789999998,-61.66674799999964,868.3334960000002,-13.461425999999847,602.3076170000004,541.4101559999999
234,899.3588869999994,517.5639650000003,-245.1281740000004,1557.05127,559.3588869999994,202.05126999999993,69.23095699999976,512.8203130000002,193.20507799999996,-64.74365200000011,833.3334960000002,-16.666747999999643,583.205078,526.1538090000004
235,907.4360349999997,458.84619099999964,-251.41015600000037,1504.6152340000008,526.2822270000006,201.79492200000004,69.10253900000043,506.79492200000004,190.2563479999999,-58.71801800000003,806.9228520000006,-21.41015600000037,560.6411130000006,515.2563479999999
236,926.6665039999998,391.2822270000006,-261.66674799999964,1461.9228520000006,504.3588869999994,200.2563479999999,66.53857400000015,502.6923829999996,195.38476599999922,-41.28198199999997,793.7177729999994,-23.205077999999958,538.9741210000002,511.79492200000004
237,955.8974609999996,317.3076170000004,-275.5129390000002,1424.743652,491.6665039999998,195.89746099999957,64.35888699999941,501.53857400000015,205.12841800000024,-18.71801800000003,787.5639650000003,-19.10253899999998,519.1025390000004,513.8461909999996
238,992.6923829999996,241.9228520000006,-288.71801800000003,1388.7177729999994,477.05126999999993,188.3334960000002,67.43603499999972,503.3334960000002,215.76904300000024,2.0512699999999313,779.3588869999994,-9.358886999999868,499.87158199999976,519.6152340000008
239,1035.1284180000002,170.2563479999999,-297.0512700000004,1352.94873,452.05126999999993,179.48730499999965,78.20507799999996,507.6923829999996,226.6665039999998,19.48730499999965,764.3588869999994,3.077147999999397,480.3847659999992,528.0771479999994
240,1079.1025390000004,104.74365200000011,-298.97436500000003,1316.5385740000002,417.94873000000007,172.3076170000004,93.3334960000002,511.79492200000004,236.2822270000006,33.974121000000196,741.1538090000004,13.974121000000196,458.0771479999994,536.2822270000006
241,1117.1796880000002,44.35888699999941,-296.41015600000037,1276.1538090000004,383.46142599999985,167.6923829999996,105.0,509.3588869999994,240.12841800000024,42.94873000000007,709.1025390000004,18.589844000000085,429.87158199999976,538.7177729999994
242,1146.2822270000006,-11.794922000000042,-289.2307130000004,1230.0,359.23095699999976,165.0,108.7177729999994,496.79492200000004,235.0,45.12841800000024,670.6411130000006,15.897460999999566,396.6665039999998,531.9228520000006
243,1171.794922,-61.025634999999966,-275.5129390000002,1182.4360349999997,351.15380900000036,161.9228520000006,108.84619099999964,477.5639650000003,224.61523400000078,44.74365200000011,633.7177729999994,9.871581999999762,364.48730499999965,518.7177729999994
244,1201.1538090000004,-99.48706099999981,-255.64111300000013,1141.9228520000006,355.51269500000035,156.2822270000006,113.9741210000002,459.87158199999976,217.6923829999996,49.35888699999941,605.5126950000003,5.512695000000349,340.6411130000006,505.76904300000024
245,1233.8461909999996,-127.69238299999961,-236.66674799999964,1111.410156,358.9741210000002,146.53857400000015,128.9741210000002,447.5639650000003,218.84619099999964,62.05126999999993,584.8715819999998,5.0,325.3847659999992,495.2563479999999
246,1260.1284180000002,-150.89746100000002,-231.02563499999997,1083.8461909999996,347.3076170000004,133.0771479999994,150.51269500000035,437.82031300000017,224.23095699999976,78.46142599999985,560.8974609999996,6.410155999999915,310.51269500000035,483.20507799999996
247,1273.589844,-172.6923829999996,-248.46142599999985,1047.4360349999997,319.3588869999994,120.0,170.76904300000024,425.12841800000024,227.82031300000017,92.56396500000028,524.8715819999998,6.922852000000603,287.6923829999996,465.2563479999999
248,1280.5126950000003,-189.7436520000001,-287.5642090000006,995.0,291.9228520000006,112.69238299999961,183.7177729999994,409.10253900000043,228.0771479999994,102.56396500000028,478.84619099999964,6.666503999999804,257.3076170000004,442.94873000000007
249,1294.4873049999997,-196.15380900000036,-335.2563479999999,927.8203130000002,288.0771479999994,113.58984400000008,188.20507799999996,393.9741210000002,228.9741210000002,109.10253900000043,434.48730499999965,8.077147999999397,228.0771479999994,422.5639650000003
250,1323.7177729999994,-192.0512700000004,-371.53857400000015,853.8461909999996,316.0258789999998,120.25634799999989,186.53857400000015,382.82031300000017,233.20507799999996,112.82031300000017,400.76904300000024,13.077147999999397,209.23095699999976,408.9741210000002
251,1364.6152340000008,-185.38452099999995,-377.4357909999994,782.6923829999996,361.6665039999998,127.05126999999993,182.82031300000017,373.9741210000002,239.10253900000043,114.87158199999976,377.6923829999996,20.51269500000035,202.6923829999996,402.05126999999993
252,1407.5639650000003,-182.9487299999996,-345.0,722.5639650000003,400.3847659999992,131.2822270000006,181.6665039999998,364.10253900000043,243.7177729999994,119.48730499999965,361.15380900000036,28.077147999999397,202.82031300000017,399.23095699999976
253,1446.5385740000002,-184.10253899999998,-281.28198199999997,674.8715819999998,414.3588869999994,135.89746099999957,185.6411130000006,351.79492200000004,246.79492200000004,132.56396500000028,348.3334960000002,34.23095699999976,201.6665039999998,398.7177729999994
254,1479.2309569999998,-183.33325200000036,-205.1281740000004,633.9741210000002,402.5639650000003,145.2563479999999,194.23095699999976,338.20507799999996,250.2563479999999,154.10253900000043,338.46142599999985,39.102539000000434,193.84619099999964,399.23095699999976
255,1505.6411130000006,-177.3076170000004,-136.79492200000004,591.5385740000002,378.46142599999985,160.0,203.0771479999994,324.23095699999976,254.48730499999965,176.53857400000015,330.51269500000035,43.20507799999996,179.48730499999965,398.9741210000002
256,1526.5385740000002,-167.3076170000004,-87.43579099999943,546.4101559999999,359.48730499999965,175.12841800000024,208.20507799999996,308.46142599999985,258.84619099999964,189.23095699999976,322.4360349999997,46.79492200000004,163.20507799999996,396.0258789999998
257,1543.0771479999994,-157.6923829999996,-57.30761700000039,508.3334960000002,355.51269500000035,184.10253900000043,208.46142599999985,288.9741210000002,262.4360349999997,187.94873000000007,312.82031300000017,49.87158199999976,150.51269500000035,389.7436520000001
258,1553.8461909999996,-153.20507799999996,-41.41015600000037,489.3588869999994,363.46142599999985,183.9741210000002,205.6411130000006,263.5898440000001,263.84619099999964,176.53857400000015,300.0,52.30761700000039,143.46142599999985,380.0
259,1553.9741210000002,-158.076904,-34.8718259999996,493.0771479999994,371.53857400000015,177.05126999999993,200.51269500000035,230.51269500000035,260.0,162.43603499999972,281.0258789999998,52.94873000000007,136.0258789999998,365.6411130000006
260,1537.5639650000003,-173.58984399999963,-34.74365200000011,511.15380900000036,373.0771479999994,168.58984400000008,192.05126999999993,190.38476599999922,247.05126999999993,150.38476599999922,253.7177729999994,50.76904300000024,118.58984400000008,345.12841800000024
261,1504.743652,-196.79492200000004,-38.46142599999985,530.5126950000003,373.9741210000002,162.94873000000007,179.3588869999994,147.6923829999996,224.61523400000078,140.12841800000024,220.51269500000035,45.51269500000035,85.0,319.48730499999965
262,1462.05127,-221.41015600000037,-42.435790999999426,543.7177729999994,386.2822270000006,160.89746099999957,162.43603499999972,109.23095699999976,197.43603499999972,129.10253900000043,187.17968800000017,38.0771479999994,39.61523400000078,292.5639650000003
263,1417.1796880000002,-242.56420900000057,-43.20507799999996,551.4101559999999,413.20507799999996,160.12841800000024,143.0771479999994,78.58984400000008,170.76904300000024,114.48730499999965,157.56396500000028,29.615234000000783,-6.538574000000153,267.05126999999993
264,1374.4873049999997,-259.7436520000001,-37.564209000000574,557.8203130000002,442.94873000000007,156.9228520000006,123.7177729999994,54.23095699999976,147.6923829999996,96.41015599999992,130.51269500000035,21.410155999999915,-42.435790999999426,243.58984400000008
265,1336.1538090000004,-273.46142599999985,-21.538574000000153,566.4101559999999,458.9741210000002,150.89746099999957,107.94873000000007,32.43603499999972,129.61523400000078,79.61523400000078,104.35888699999941,15.0,-62.69238299999961,222.56396500000028
266,1305.0,-282.9487299999996,7.820313000000169,578.4614259999998,458.5898440000001,145.2563479999999,99.35888699999941,11.538574000000153,118.0771479999994,70.25634799999989,81.2822270000006,12.948730000000069,-69.74365200000011,206.0258789999998
267,1282.3076170000004,-286.53857400000015,48.20507799999996,592.5639650000003,459.10253900000043,143.9741210000002,98.58984400000008,-7.692382999999609,113.46142599999985,70.51269500000035,66.0258789999998,16.025878999999804,-70.1281740000004,195.2563479999999
268,1264.6152340000008,-285.5129390000002,90.76904300000024,604.1025390000004,484.23095699999976,147.56396500000028,101.53857400000015,-25.1281740000004,112.43603499999972,74.48730499999965,58.974121000000196,21.922852000000603,-73.07690400000001,187.3076170000004
269,1245.3847659999992,-284.8718259999996,124.61523400000078,605.3847659999992,543.9741210000002,151.79492200000004,102.56396500000028,-42.948729999999614,108.3334960000002,72.82031300000017,54.48730499999965,25.51269500000035,-84.74365200000011,176.15380900000036
270,1220.6411130000006,-289.2307130000004,144.23095699999976,590.3847659999992,625.1284180000002,152.05126999999993,97.82031300000017,-63.46142599999985,96.79492200000004,61.153809000000365,45.0,23.333496000000196,-105.51293900000019,158.9741210000002
271,1192.05127,-299.35888699999987,152.94873000000007,560.3847659999992,702.5639650000003,147.3076170000004,87.82031300000017,-86.15380900000036,78.84619099999964,43.7177729999994,27.69238299999961,16.153809000000365,-129.23071300000038,139.7436520000001
272,1162.4360349999997,-313.076904,160.51269500000035,524.2309569999998,757.4360349999997,140.38476599999922,75.64111300000059,-108.46142599999985,60.0,28.077147999999397,5.3847659999992175,7.820313000000169,-149.10253899999998,125.38476599999922
273,1130.3847659999992,-327.820557,176.41015599999992,492.5639650000003,785.7690430000002,135.2563479999999,64.61523400000078,-128.33325200000036,44.74365200000011,17.05126999999993,-17.30761700000039,2.8203130000001693,-163.20507799999996,118.84619099999964
274,1092.5639650000003,-342.6923829999996,205.38476599999922,471.6665039999998,796.6665039999998,132.82031300000017,55.76904300000024,-146.66674799999964,32.94873000000007,7.820313000000169,-37.82055700000001,2.3076170000003913,-175.5129390000002,116.15380900000036
275,1050.6411130000006,-355.2563479999999,245.0,461.6665039999998,804.4873049999997,132.05126999999993,49.48730499999965,-164.35888699999987,21.922852000000603,-3.2050779999999577,-55.25634799999989,3.9741210000001956,-190.2563479999999,110.51269500000035
276,1011.794922,-360.897461,285.89746099999957,457.05126999999993,821.0258789999998,131.2822270000006,45.25634799999989,-180.5129390000002,10.769043000000238,-14.487060999999812,-68.58984399999963,4.743652000000111,-207.43579099999943,99.23095699999976
277,981.4101559999999,-358.97436500000003,315.3847659999992,448.3334960000002,848.5898440000001,129.48730499999965,42.17968800000017,-193.71801800000003,-0.8974609999995664,-22.564209000000574,-78.71801800000003,3.077147999999397,-223.97436500000003,83.84619099999964
278,954.7436520000001,-356.28198199999997,324.3588869999994,426.0258789999998,878.7177729999994,125.25634799999989,36.79492200000004,-206.15380900000036,-14.743652000000111,-27.564209000000574,-90.38452099999995,-0.8974609999995664,-239.7436520000001,65.25634799999989
279,921.0258789999998,-363.46142599999985,313.84619099999964,386.15380900000036,898.205078,118.0771479999994,25.897460999999566,-222.43579099999943,-32.948729999999614,-34.10253899999998,-109.61547900000005,-6.538574000000153,-258.20507799999996,42.56396500000028
280,875.5126950000003,-384.4870609999998,295.0,333.0771479999994,898.3334960000002,109.10253900000043,9.487304999999651,-244.61547900000005,-54.74365200000011,-46.28198199999997,-137.43579099999943,-13.205077999999958,-282.5642090000006,17.17968800000017
281,825.2563479999999,-412.179443,281.0258789999998,277.17968800000017,879.7436520000001,102.05126999999993,-7.564209000000574,-269.4870609999998,-74.61547900000005,-62.69238299999961,-167.179443,-20.38452099999995,-310.0,-5.128174000000399
282,783.7177729999994,-434.2307130000004,278.7177729999994,227.43603499999972,853.0771479999994,99.74365200000011,-18.71801800000003,-289.7436520000001,-86.66674799999964,-76.15380900000036,-188.97436500000003,-26.025634999999966,-332.820557,-16.666747999999643
283,760.7690430000002,-441.41015600000037,287.3076170000004,188.58984400000008,835.0,103.3334960000002,-19.8718259999996,-299.2307130000004,-87.94872999999961,-79.23071300000038,-196.923096,-28.205077999999958,-343.20507799999996,-14.8718259999996
284,755.7690430000002,-433.20507799999996,301.6665039999998,161.41015599999992,839.6152340000008,110.76904300000024,-11.923095999999987,-296.15380900000036,-79.8718259999996,-70.76928699999962,-191.923096,-25.769286999999622,-338.71801800000003,-4.743652000000111
285,758.3334960000002,-417.3076170000004,316.9228520000006,143.0771479999994,867.6923829999996,118.0771479999994,-0.769043000000238,-284.4870609999998,-67.69238299999961,-57.69238299999961,-181.28198199999997,-19.74365200000011,-324.7436520000001,4.358886999999413
286,753.0771479999994,-405.1281740000004,329.7436520000001,126.41015599999992,902.5639650000003,121.79492200000004,6.538574000000153,-273.33325200000036,-58.846190999999635,-51.41015600000037,-175.64111300000013,-13.58984399999963,-311.79492200000004,4.358886999999413
287,731.6665039999998,-404.35888699999987,338.5898440000001,103.58984400000008,920.8974609999996,120.12841800000024,6.410155999999915,-270.7692869999996,-58.974365000000034,-57.948729999999614,-181.66674799999964,-10.38452099999995,-308.46142599999985,-6.41015600000037
288,699.7436520000001,-412.3076170000004,345.12841800000024,73.0771479999994,912.6923829999996,115.0,1.6665039999998044,-277.3076170000004,-67.56420900000057,-70.76928699999962,-195.89746100000002,-10.641113000000132,-315.2563479999999,-20.769286999999622
289,675.0,-417.5642090000006,354.23095699999976,43.7177729999994,889.8715819999998,111.15380900000036,-0.256347999999889,-283.71801800000003,-75.89746100000002,-74.61547900000005,-205.64111300000013,-11.025634999999966,-323.20507799999996,-26.794922000000042
290,670.8974609999996,-410.7692869999996,370.3847659999992,28.333496000000196,874.2309569999998,112.05126999999993,6.410155999999915,-279.4870609999998,-74.8718259999996,-59.74365200000011,-199.7436520000001,-7.948729999999614,-322.4357909999994,-17.30761700000039
291,683.5898440000001,-393.46142599999985,392.6923829999996,32.43603499999972,875.7690430000002,116.6665039999998,20.51269500000035,-262.0512700000004,-62.564209000000574,-32.82055700000001,-179.23071300000038,-0.6411130000005869,-311.53857400000015,1.6665039999998044
292,695.1284180000002,-376.02563499999997,414.7436520000001,47.69238299999961,883.4614259999998,120.38476599999922,34.23095699999976,-240.64111300000013,-46.66674799999964,-12.948729999999614,-157.820557,6.922852000000603,-298.46142599999985,15.0
293,689.6152340000008,-367.6923829999996,428.0771479999994,58.333496000000196,876.0258789999998,118.7177729999994,40.76904300000024,-228.46142599999985,-37.564209000000574,-13.846190999999635,-149.8718259999996,10.512695000000349,-293.58984399999963,11.666503999999804
294,667.6923829999996,-368.076904,429.48730499999965,53.589844000000085,843.3334960000002,112.30761700000039,38.846190999999635,-232.3076170000004,-39.74365200000011,-31.923095999999987,-159.10253899999998,8.846190999999635,-299.8718259999996,-5.0
295,642.6923829999996,-370.0,422.6923829999996,34.23095699999976,793.7177729999994,106.2822270000006,32.43603499999972,-247.6923829999996,-49.48706099999981,-49.35888699999987,-177.179443,5.128418000000238,-311.79492200000004,-21.41015600000037
296,625.8974609999996,-368.46142599999985,414.23095699999976,9.871581999999762,745.1284180000002,104.74365200000011,26.666503999999804,-264.2307130000004,-59.61547900000005,-51.79492200000004,-193.46142599999985,3.077147999999397,-321.79492200000004,-26.794922000000042
297,616.6665039999998,-364.7436520000001,408.3334960000002,-10.897461000000021,708.3334960000002,107.82031300000017,23.974121000000196,-273.84619099999964,-65.76928699999962,-40.0,-203.20507799999996,3.846190999999635,-327.6923829999996,-22.435790999999426
298,606.0258789999998,-363.58984399999963,404.10253900000043,-25.769286999999622,680.1284180000002,111.53857400000015,23.461425999999847,-276.28198199999997,-68.71801800000003,-27.179442999999992,-209.10253899999998,5.641113000000587,-331.79492200000004,-18.461425999999847
299,586.9228520000006,-366.28198199999997,398.7177729999994,-38.07690400000001,652.3076170000004,113.3334960000002,22.82031300000017,-275.1281740000004,-70.51293900000019,-23.974365000000034,-215.2563479999999,6.025878999999804,-335.897461,-22.179442999999992
300,562.5639650000003,-366.79492200000004,390.76904300000024,-50.76928699999962,622.8203130000002,113.9741210000002,22.56396500000028,-272.4357909999994,-70.64111300000013,-28.71801800000003,-220.64111300000013,5.0,-336.923096,-30.38452099999995
301,544.4873049999997,-357.179443,382.3076170000004,-63.58984399999963,599.6152340000008,116.2822270000006,26.025878999999804,-266.02563499999997,-65.51293900000019,-30.38452099999995,-220.76928699999962,5.256347999999889,-328.71801800000003,-33.07690400000001
302,542.0512699999999,-335.64111300000013,377.17968800000017,-74.35888699999987,589.4873049999997,121.6665039999998,35.51269500000035,-253.20507799999996,-53.46142599999985,-20.512939000000188,-212.820557,9.487304999999651,-309.7436520000001,-25.0
303,553.3334960000002,-311.53857400000015,377.94873000000007,-84.48706099999981,587.4360349999997,127.69238299999961,48.7177729999994,-235.76928699999962,-38.33325200000036,-2.8203119999998307,-200.76928699999962,17.05126999999993,-287.179443,-11.153809000000365
304,563.9741210000002,-298.84619099999964,382.3076170000004,-99.8718259999996,577.5639650000003,129.48730499999965,59.102539000000434,-221.15380900000036,-27.564209000000574,9.743652000000111,-193.46142599999985,23.974121000000196,-273.33325200000036,-3.3334960000001956
305,559.2309569999998,-303.84619099999964,384.6152340000008,-125.64111300000013,546.9228520000006,125.64111300000059,61.2822270000006,-216.66674799999964,-26.538574000000153,7.43603499999972,-196.923096,26.538574000000153,-275.7692869999996,-8.333252000000357
306,537.6923829999996,-318.076904,381.53857400000015,-159.61547900000005,499.87158199999976,119.10253900000043,56.53857400000015,-222.0512700000004,-32.051270000000386,-6.153809000000365,-207.820557,24.871581999999762,-289.4870609999998,-21.666747999999643
307,513.8461909999996,-323.46142599999985,375.51269500000035,-191.15380900000036,457.17968800000017,116.2822270000006,52.94873000000007,-227.3076170000004,-33.33325200000036,-15.1281740000004,-213.71801800000003,23.077147999999397,-299.8718259999996,-29.8718259999996
308,505.2563479999999,-307.179443,372.4360349999997,-209.7436520000001,437.5639650000003,120.51269500000035,58.0771479999994,-221.79492200000004,-21.538574000000153,-5.128174000000399,-203.84619099999964,25.769043000000238,-294.8718259999996,-22.30761700000039
309,515.3847659999992,-274.8718259999996,375.2563479999999,-214.4870609999998,439.87158199999976,129.7436520000001,71.53857400000015,-204.61547900000005,0.769043000000238,21.410155999999915,-181.41015600000037,33.46142599999985,-276.15380900000036,-2.4360349999997197
310,530.0,-246.79492200000004,380.12841800000024,-216.41015600000037,444.10253900000043,136.53857400000015,84.10253900000043,-187.0512700000004,19.48730499999965,45.897460999999566,-163.33325200000036,41.410155999999915,-259.35888699999987,13.717772999999397
311,531.2822270000006,-240.64111300000013,380.6411130000006,-227.0512700000004,431.53857400000015,135.12841800000024,86.2822270000006,-181.923096,20.769043000000238,50.12841800000024,-165.1281740000004,44.102539000000434,-259.4870609999998,11.666503999999804
312,514.6152340000008,-255.0,374.23095699999976,-246.53857400000015,402.3076170000004,125.64111300000059,77.30761700000039,-190.5129390000002,5.128418000000238,33.20507799999996,-184.61547900000005,40.897460999999566,-275.64111300000013,-7.435790999999426
313,491.53857400000015,-272.179443,364.7436520000001,-263.58984399999963,373.46142599999985,114.23095699999976,65.64111300000059,-201.28198199999997,-12.564209000000574,12.43603499999972,-204.4870609999998,35.76904300000024,-292.5642090000006,-27.179442999999992
314,476.6665039999998,-274.8718259999996,358.20507799999996,-267.820557,360.51269500000035,107.05126999999993,61.410155999999915,-201.66674799999964,-16.538574000000153,6.922852000000603,-208.46142599999985,33.846190999999635,-294.8718259999996,-31.923095999999987
315,473.84619099999964,-260.7692869999996,357.5639650000003,-260.1281740000004,364.10253900000043,106.2822270000006,67.69238299999961,-189.4870609999998,-3.846190999999635,20.769043000000238,-195.0,36.153809000000365,-280.1281740000004,-20.89746100000002
316,474.87158199999976,-241.28198199999997,361.0258789999998,-252.0512700000004,371.9228520000006,109.35888699999941,79.48730499999965,-173.97436500000003,14.871581999999762,42.43603499999972,-175.5129390000002,40.51269500000035,-259.8718259999996,-6.538574000000153
317,468.9741210000002,-229.7436520000001,363.9741210000002,-254.35888699999987,372.94873000000007,112.56396500000028,88.84619099999964,-165.38452099999995,26.794922000000042,57.56396500000028,-162.179443,43.7177729999994,-247.56420900000057,-1.5385740000001533
318,453.0771479999994,-228.84619099999964,363.7177729999994,-266.15380900000036,366.4101559999999,114.35888699999941,91.0258789999998,-166.15380900000036,27.69238299999961,61.025878999999804,-159.10253899999998,44.74365200000011,-246.66674799999964,-7.820557000000008
319,433.46142599999985,-232.0512700000004,361.4101559999999,-277.6923829999996,359.48730499999965,115.38476599999922,87.69238299999961,-170.0,23.846190999999635,57.82031300000017,-162.56420900000057,45.12841800000024,-250.5129390000002,-17.69238299999961
320,418.84619099999964,-230.76928699999962,359.48730499999965,-279.35888699999987,357.3076170000004,116.41015599999992,83.46142599999985,-169.23071300000038,23.717772999999397,56.153809000000365,-166.53857400000015,47.56396500000028,-250.5129390000002,-22.564209000000574
321,413.9741210000002,-222.6923829999996,359.23095699999976,-270.897461,356.79492200000004,117.05126999999993,82.30761700000039,-162.3076170000004,29.48730499999965,59.61523400000078,-168.20507799999996,52.05126999999993,-243.20507799999996,-20.38452099999995
322,416.4101559999999,-211.41015600000037,359.23095699999976,-260.5129390000002,351.6665039999998,116.53857400000015,85.0,-154.4870609999998,36.53857400000015,66.41015599999992,-168.076904,56.025878999999804,-232.56420900000057,-15.512939000000188
323,420.3847659999992,-201.79492200000004,357.94873000000007,-256.41015600000037,341.15380900000036,115.0,89.48730499999965,-151.28198199999997,38.974121000000196,72.94873000000007,-167.43579099999943,56.2822270000006,-223.97436500000003,-12.820557000000008
324,422.17968800000017,-193.97436500000003,356.2822270000006,-259.7436520000001,333.0771479999994,114.35888699999941,95.25634799999989,-152.0512700000004,37.43603499999972,78.0771479999994,-165.0,53.333496000000196,-218.97436500000003,-12.179442999999992
325,421.9228520000006,-184.10253899999998,356.15380900000036,-263.84619099999964,337.05126999999993,116.53857400000015,102.69238299999961,-150.0,38.0771479999994,83.46142599999985,-158.71801800000003,51.153809000000365,-214.8718259999996,-9.61547900000005
326,421.6665039999998,-170.2563479999999,358.84619099999964,-263.33325200000036,352.17968800000017,121.0258789999998,111.15380900000036,-140.38452099999995,46.2822270000006,90.51269500000035,-148.46142599999985,53.0771479999994,-208.71801800000003,-2.8203119999998307
327,420.6411130000006,-156.41015600000037,361.9228520000006,-260.38452099999995,364.87158199999976,124.35888699999941,116.9228520000006,-126.66674799999964,60.64111300000059,98.3334960000002,-138.71801800000003,58.46142599999985,-201.41015600000037,5.769043000000238
328,415.51269500000035,-148.46142599999985,361.53857400000015,-262.3076170000004,359.48730499999965,122.56396500000028,116.15380900000036,-117.56420900000057,73.20507799999996,103.46142599999985,-135.38452099999995,63.20507799999996,-196.28198199999997,10.641113000000587
329,405.51269500000035,-149.10253899999998,355.89746099999957,-273.84619099999964,332.05126999999993,115.38476599999922,108.58984400000008,-119.35888699999987,75.64111300000059,102.56396500000028,-141.02563499999997,64.10253900000043,-196.53857400000015,8.589844000000085
330,394.23095699999976,-154.7436520000001,347.5639650000003,-291.66674799999964,294.6152340000008,106.15380900000036,98.46142599999985,-130.2563479999999,66.79492200000004,94.74365200000011,-152.820557,60.76904300000024,-202.9487299999996,0.6411130000005869
331,387.05126999999993,-159.4870609999998,341.9228520000006,-308.076904,265.3847659999992,99.61523400000078,91.2822270000006,-141.923096,53.20507799999996,83.20507799999996,-163.97436500000003,56.79492200000004,-212.820557,-8.461425999999847
332,385.6411130000006,-159.23071300000038,342.3076170000004,-316.923096,255.0,98.58984400000008,90.12841800000024,-146.28198199999997,44.35888699999941,73.3334960000002,-168.84619099999964,56.53857400000015,-221.53857400000015,-13.846190999999635
333,386.9228520000006,-154.35888699999987,347.5639650000003,-318.33325200000036,260.12841800000024,103.3334960000002,94.74365200000011,-140.64111300000013,45.64111300000059,70.38476599999922,-166.41015600000037,61.025878999999804,-224.61547900000005,-13.333252000000357
334,385.89746099999957,-147.3076170000004,353.3334960000002,-316.53857400000015,269.48730499999965,111.53857400000015,102.17968800000017,-129.35888699999987,55.0,76.0258789999998,-160.2563479999999,67.43603499999972,-220.5129390000002,-8.076904000000013
335,379.3588869999994,-140.38452099999995,355.0,-316.28198199999997,273.7177729999994,119.23095699999976,108.84619099999964,-118.97436500000003,66.2822270000006,88.7177729999994,-154.8718259999996,71.79492200000004,-210.2563479999999,-1.2822270000006029
336,367.82031300000017,-134.7436520000001,352.17968800000017,-318.97436500000003,269.87158199999976,123.3334960000002,112.69238299999961,-114.23071300000038,73.84619099999964,103.7177729999994,-151.923096,71.79492200000004,-198.20507799999996,3.717772999999397
337,353.9741210000002,-130.76928699999962,347.3076170000004,-323.33325200000036,260.12841800000024,122.82031300000017,113.58984400000008,-115.1281740000004,75.76904300000024,115.51269500000035,-151.53857400000015,69.23095699999976,-190.0,4.487304999999651
338,340.89746099999957,-129.23071300000038,343.5898440000001,-327.9487299999996,248.0771479999994,119.74365200000011,112.82031300000017,-118.46142599999985,73.7177729999994,119.10253900000043,-152.820557,67.17968800000017,-190.2563479999999,-0.38476599999921746
339,331.2822270000006,-130.5129390000002,342.05126999999993,-333.46142599999985,236.15380900000036,117.17968800000017,112.17968800000017,-121.28198199999997,69.74365200000011,113.0771479999994,-155.2563479999999,67.30761700000039,-199.7436520000001,-8.974365000000034
340,326.4101559999999,-133.46142599999985,340.51269500000035,-341.15380900000036,225.12841800000024,116.41015599999992,112.30761700000039,-122.05127000000039,65.51269500000035,100.51269500000035,-158.71801800000003,68.7177729999994,-214.8718259999996,-17.051270000000386
341,325.76904300000024,-134.4870609999998,336.79492200000004,-351.02563499999997,215.0,116.79492200000004,112.69238299999961,-121.15380900000036,62.43603499999972,88.3334960000002,-162.43579099999943,69.48730499999965,-228.84619099999964,-19.8718259999996
342,328.9741210000002,-128.84619099999964,331.0258789999998,-359.4870609999998,207.43603499999972,117.43603499999972,113.0771479999994,-118.07690400000001,63.0771479999994,83.7177729999994,-164.4870609999998,69.23095699999976,-234.23071300000038,-15.1281740000004
343,335.6411130000006,-114.23071300000038,326.53857400000015,-361.53857400000015,204.87158199999976,118.58984400000008,114.35888699999941,-111.53857400000015,69.87158199999976,90.38476599999922,-161.923096,69.61523400000078,-226.28198199999997,-4.743652000000111
344,345.0,-93.97436500000003,326.2822270000006,-356.02563499999997,207.6923829999996,120.12841800000024,117.43603499999972,-101.02563499999997,82.05126999999993,106.79492200000004,-153.97436500000003,72.94873000000007,-207.179443,6.794922000000042
345,353.0771479999994,-76.53857400000015,329.6152340000008,-347.0512700000004,212.3076170000004,120.89746099999957,121.6665039999998,-88.58984399999963,95.0,126.0258789999998,-143.20507799999996,79.35888699999941,-185.38452099999995,14.743652000000111
346,353.84619099999964,-69.48706099999981,332.3076170000004,-341.28198199999997,213.46142599999985,118.9741210000002,125.38476599999922,-78.46142599999985,103.58984400000008,140.2563479999999,-134.35888699999987,85.76904300000024,-171.28198199999997,15.512695000000349
347,344.10253900000043,-72.94872999999961,331.15380900000036,-342.5642090000006,209.10253900000043,114.23095699999976,127.82031300000017,-72.82055700000001,105.64111300000059,144.23095699999976,-130.89746100000002,88.84619099999964,-170.0,9.487304999999651
348,326.15380900000036,-80.0,326.0258789999998,-349.61547900000005,201.2822270000006,109.23095699999976,129.3588869999994,-69.8718259999996,104.23095699999976,138.46142599999985,-133.20507799999996,88.20507799999996,-178.97436500000003,0.12841800000023795
349,307.4360349999997,-82.56420900000057,319.87158199999976,-358.58984399999963,194.10253900000043,107.17968800000017,130.51269500000035,-66.92309599999999,103.58984400000008,128.20507799999996,-138.58984399999963,85.89746099999957,-190.38452099999995,-7.564209000000574
350,293.9741210000002,-78.97436500000003,315.0,-367.0512700000004,187.56396500000028,109.23095699999976,130.51269500000035,-63.58984399999963,104.87158199999976,119.74365200000011,-143.84619099999964,84.61523400000078,-197.0512700000004,-11.794922000000042
351,286.2822270000006,-74.74365200000011,311.2822270000006,-375.5129390000002,177.05126999999993,112.69238299999961,127.30761700000039,-63.20507799999996,104.61523400000078,116.2822270000006,-149.35888699999987,85.0,-197.9487299999996,-14.8718259999996
352,279.23095699999976,-77.17944299999999,306.9228520000006,-385.1281740000004,157.82031300000017,114.74365200000011,120.64111300000059,-68.97436500000003,98.58984400000008,116.0258789999998,-157.179443,85.25634799999989,-197.6923829999996,-20.25634799999989
353,269.23095699999976,-87.43579099999943,300.89746099999957,-395.2563479999999,131.0258789999998,114.23095699999976,113.7177729999994,-79.23071300000038,87.05126999999993,115.25634799999989,-168.46142599999985,83.84619099999964,-200.89746100000002,-28.71801800000003
354,257.6923829999996,-98.33325200000036,294.7436520000001,-402.820557,105.89746099999957,112.56396500000028,110.76904300000024,-87.43579099999943,76.6665039999998,112.82031300000017,-180.1281740000004,81.2822270000006,-207.43579099999943,-35.51293900000019
355,250.76904300000024,-100.1281740000004,291.79492200000004,-404.8718259999996,95.12841800000024,112.05126999999993,114.74365200000011,-86.41015600000037,76.15380900000036,112.30761700000039,-184.8718259999996,80.0,-210.76928699999962,-34.61547900000005
356,254.10253900000043,-88.07690400000001,294.23095699999976,-400.897461,105.51269500000035,113.0771479999994,124.74365200000011,-73.46142599999985,88.84619099999964,118.7177729999994,-176.79492200000004,82.30761700000039,-204.23071300000038,-23.205077999999958
357,266.79492200000004,-67.43579099999943,300.12841800000024,-394.35888699999987,131.53857400000015,114.48730499999965,135.76904300000024,-54.35888699999987,108.3334960000002,131.79492200000004,-157.0512700000004,87.43603499999972,-186.923096,-6.153809000000365
358,280.6411130000006,-50.76928699999962,304.23095699999976,-391.79492200000004,155.51269500000035,113.3334960000002,140.76904300000024,-40.0,122.30761700000039,144.87158199999976,-135.76928699999962,92.43603499999972,-166.41015600000037,6.025878999999804
359,284.3588869999994,-49.10253899999998,302.05126999999993,-398.33325200000036,158.58984400000008,108.46142599999985,135.89746099999957,-39.61547900000005,121.41015599999992,149.48730499999965,-126.15380900000036,94.48730499999965,-153.97436500000003,4.6152340000007825
360,271.6665039999998,-62.82055700000001,293.5898440000001,-413.71801800000003,134.61523400000078,101.6665039999998,123.0771479999994,-53.20507799999996,106.41015599999992,142.94873000000007,-134.4870609999998,92.56396500000028,-156.02563499999997,-10.256347999999889
361,247.82031300000017,-80.38452099999995,284.10253900000043,-431.66674799999964,96.15380900000036,96.2822270000006,110.51269500000035,-71.02563499999997,87.82031300000017,131.41015599999992,-155.38452099999995,87.82031300000017,-169.23071300000038,-28.461425999999847
362,226.15380900000036,-87.17944299999999,279.7436520000001,-443.20507799999996,66.2822270000006,95.64111300000059,106.2822270000006,-80.38452099999995,78.3334960000002,124.87158199999976,-175.64111300000013,83.0771479999994,-182.6923829999996,-37.30761700000039
363,217.6923829999996,-76.53857400000015,283.3334960000002,-442.9487299999996,62.56396500000028,100.0,112.69238299999961,-75.1281740000004,83.84619099999964,129.48730499999965,-183.076904,81.2822270000006,-186.41015600000037,-31.153809000000365
364,222.82031300000017,-55.0,292.17968800000017,-433.20507799999996,83.0771479999994,106.79492200000004,124.48730499999965,-59.48706099999981,99.23095699999976,142.6923829999996,-175.0,84.10253900000043,-178.84619099999964,-14.8718259999996
365,230.76904300000024,-36.153809000000365,299.48730499999965,-422.4357909999994,109.87158199999976,112.43603499999972,133.46142599999985,-43.71801800000003,113.3334960000002,155.6411130000006,-159.61547900000005,90.38476599999922,-166.15380900000036,-0.8974609999995664
366,229.87158199999976,-31.025634999999966,299.87158199999976,-419.2307130000004,121.9228520000006,114.48730499999965,135.2563479999999,-35.76928699999962,117.56396500000028,159.3588869999994,-148.58984399999963,96.15380900000036,-155.89746100000002,0.512695000000349
367,216.15380900000036,-41.41015600000037,293.0771479999994,-425.897461,111.53857400000015,113.20507799999996,131.53857400000015,-36.66674799999964,111.9228520000006,151.9228520000006,-149.10253899999998,98.0771479999994,-152.3076170000004,-10.769286999999622
368,195.6411130000006,-58.846190999999635,283.0771479999994,-437.0512700000004,88.3334960000002,110.0,127.69238299999961,-41.025634999999966,103.46142599999985,138.58984400000008,-159.23071300000038,95.89746099999957,-154.8718259999996,-26.153809000000365
369,177.94873000000007,-72.05127000000039,275.0,-443.71801800000003,69.48730499999965,106.2822270000006,127.94873000000007,-43.20507799999996,99.87158199999976,128.46142599999985,-170.0,92.69238299999961,-160.38452099999995,-35.38452099999995
370,168.20507799999996,-74.23071300000038,271.4101559999999,-441.41015600000037,64.87158199999976,102.56396500000028,131.9228520000006,-41.025634999999966,104.48730499999965,126.9228520000006,-173.58984399999963,91.53857400000015,-165.5129390000002,-35.1281740000004
371,162.6923829999996,-66.79492200000004,271.79492200000004,-433.20507799999996,69.61523400000078,100.12841800000024,135.76904300000024,-37.30761700000039,113.0771479999994,131.9228520000006,-169.23071300000038,93.3334960000002,-168.58984399999963,-29.8718259999996
372,153.84619099999964,-57.30761700000039,273.3334960000002,-427.6923829999996,70.38476599999922,99.61523400000078,136.15380900000036,-36.66674799999964,117.69238299999961,137.6923829999996,-162.9487299999996,96.0258789999998,-170.0,-26.794922000000042
373,137.17968800000017,-52.948729999999614,272.94873000000007,-432.3076170000004,58.333496000000196,101.2822270000006,131.9228520000006,-41.66674799999964,113.0771479999994,139.87158199999976,-161.41015600000037,96.53857400000015,-171.15380900000036,-29.61547900000005
374,115.76904300000024,-56.025634999999966,269.48730499999965,-447.3076170000004,36.79492200000004,103.46142599999985,124.48730499999965,-50.76928699999962,100.51269500000035,137.82031300000017,-166.15380900000036,93.0771479999994,-173.71801800000003,-36.41015600000037
375,98.58984400000008,-62.82055700000001,264.6152340000008,-465.38452099999995,18.077147999999397,104.10253900000043,116.53857400000015,-59.8718259999996,87.43603499999972,133.58984400000008,-173.33325200000036,87.05126999999993,-177.3076170000004,-42.30761700000039
376,93.58984400000008,-66.79492200000004,261.79492200000004,-476.53857400000015,13.461425999999847,102.43603499999972,110.89746099999957,-64.35888699999987,81.6665039999998,130.6411130000006,-176.66674799999964,82.43603499999972,-179.4870609999998,-42.564209000000574
377,102.43603499999972,-63.07690400000001,262.94873000000007,-475.7692869999996,24.871581999999762,100.25634799999989,110.0,-61.92309599999999,87.05126999999993,132.05126999999993,-173.33325200000036,82.69238299999961,-176.53857400000015,-36.153809000000365
378,118.9741210000002,-51.79492200000004,267.4360349999997,-465.5129390000002,44.35888699999941,99.61523400000078,114.35888699999941,-53.33325200000036,100.89746099999957,138.9741210000002,-165.1281740000004,88.58984400000008,-166.02563499999997,-26.41015600000037
379,133.9741210000002,-37.69238299999961,272.94873000000007,-453.97436500000003,60.25634799999989,102.17968800000017,122.17968800000017,-41.92309599999999,116.2822270000006,149.7436520000001,-156.02563499999997,96.9228520000006,-149.23071300000038,-19.358886999999868
380,140.76904300000024,-26.538574000000153,276.9228520000006,-447.0512700000004,64.74365200000011,106.53857400000015,130.2563479999999,-31.538574000000153,125.38476599999922,159.3588869999994,-148.33325200000036,103.3334960000002,-132.0512700000004,-18.333252000000357
381,138.84619099999964,-21.28198199999997,277.82031300000017,-445.64111300000013,57.05126999999993,110.38476599999922,135.12841800000024,-24.74365200000011,125.0,161.79492200000004,-141.79492200000004,105.12841800000024,-121.15380900000036,-22.051270000000386
382,132.43603499999972,-20.512939000000188,275.6411130000006,-445.897461,44.48730499999965,112.05126999999993,135.38476599999922,-21.538574000000153,117.94873000000007,155.38476599999922,-135.0,103.20507799999996,-119.8718259999996,-24.8718259999996
383,126.9228520000006,-19.74365200000011,272.3076170000004,-443.97436500000003,37.05126999999993,112.05126999999993,133.84619099999964,-20.1281740000004,112.17968800000017,144.7436520000001,-127.82055700000001,101.0258789999998,-125.25634799999989,-21.923095999999987
