,EEG.AF3,EEG.F7,EEG.F3,EEG.FC5,EEG.T7,EEG.P7,EEG.O1,EEG.O2,EEG.P8,EEG.T8,EEG.FC6,EEG.F4,EEG.F8,EEG.AF4
0,67.43603499999972,-17.820557000000008,103.46142599999985,26.282227000000603,112.17968800000017,102.94873000000007,114.23095699999976,123.84619099999964,120.0,126.2822270000006,120.51269500000035,103.3334960000002,42.30761700000039,94.23095699999976
1,64.10253900000043,-22.30761700000039,101.9228520000006,26.922852000000603,105.51269500000035,100.76904300000024,109.87158199999976,120.89746099999957,117.69238299999961,125.0,116.41015599999992,101.15380900000036,43.589844000000085,90.38476599999922
2,61.410155999999915,-25.89746100000002,102.43603499999972,27.05126999999993,98.7177729999994,99.61523400000078,107.05126999999993,119.74365200000011,115.51269500000035,121.53857400000015,110.89746099999957,100.64111300000059,42.94873000000007,87.56396500000028
3,63.974121000000196,-21.923095999999987,107.69238299999961,28.717772999999397,98.84619099999964,100.64111300000059,110.25634799999989,125.25634799999989,119.74365200000011,122.17968800000017,112.05126999999993,103.3334960000002,45.12841800000024,89.35888699999941
4,71.79492200000004,-12.051270000000386,115.25634799999989,31.153809000000365,104.87158199999976,102.56396500000028,117.94873000000007,134.61523400000078,128.46142599999985,126.9228520000006,120.89746099999957,107.30761700000039,49.74365200000011,95.38476599999922
5,81.15380900000036,-4.358886999999868,119.35888699999941,31.666503999999804,109.35888699999941,103.58984400000008,123.46142599999985,139.3588869999994,134.10253900000043,130.51269500000035,130.76904300000024,109.35888699999941,52.94873000000007,102.05126999999993
6,86.9228520000006,-4.487060999999812,116.15380900000036,28.461425999999847,106.41015599999992,102.43603499999972,120.76904300000024,133.84619099999964,129.7436520000001,127.56396500000028,132.94873000000007,108.0771479999994,52.69238299999961,104.61523400000078
7,85.76904300000024,-10.38452099999995,107.17968800000017,22.56396500000028,96.53857400000015,100.12841800000024,110.64111300000059,120.51269500000035,116.41015599999992,118.46142599999985,125.38476599999922,104.61523400000078,51.153809000000365,100.89746099999957
8,78.84619099999964,-15.512939000000188,98.46142599999985,16.794922000000042,86.2822270000006,98.3334960000002,99.74365200000011,108.3334960000002,102.30761700000039,108.84619099999964,113.3334960000002,101.53857400000015,50.76904300000024,93.3334960000002
9,72.05126999999993,-15.769286999999622,95.89746099999957,13.846190999999635,81.79492200000004,98.46142599999985,95.25634799999989,104.87158199999976,96.9228520000006,104.74365200000011,105.89746099999957,100.76904300000024,52.30761700000039,87.69238299999961
10,72.43603499999972,-13.461425999999847,101.15380900000036,13.846190999999635,84.61523400000078,100.64111300000059,99.87158199999976,110.51269500000035,102.43603499999972,107.05126999999993,108.58984400000008,102.56396500000028,54.61523400000078,89.61523400000078
11,82.94873000000007,-13.333252000000357,111.15380900000036,16.025878999999804,90.25634799999989,102.94873000000007,109.35888699999941,118.0771479999994,112.82031300000017,112.43603499999972,119.74365200000011,105.64111300000059,56.53857400000015,99.10253900000043
12,99.87158199999976,-16.28198199999997,119.87158199999976,19.230956999999762,93.3334960000002,103.9741210000002,116.0258789999998,120.0,118.9741210000002,116.41015599999992,132.94873000000007,107.94873000000007,59.102539000000434,111.53857400000015
13,116.79492200000004,-17.69238299999961,123.46142599999985,24.102539000000434,92.56396500000028,103.3334960000002,115.0,113.84619099999964,116.0258789999998,116.9228520000006,142.6923829999996,108.46142599999985,66.9228520000006,121.6665039999998
14,130.89746099999957,-12.435790999999426,123.20507799999996,31.922852000000603,90.64111300000059,101.79492200000004,107.69238299999961,104.10253900000043,106.2822270000006,114.87158199999976,148.58984400000008,108.20507799999996,86.6665039999998,129.10253900000043
15,143.84619099999964,0.256347999999889,123.3334960000002,42.05126999999993,90.64111300000059,100.64111300000059,100.0,96.9228520000006,96.41015599999992,113.0771479999994,154.23095699999976,109.23095699999976,121.2822270000006,136.41015599999992
16,158.58984400000008,16.282227000000603,127.69238299999961,52.56396500000028,93.0771479999994,100.38476599999922,97.30761700000039,96.15380900000036,91.9228520000006,113.58984400000008,163.20507799999996,112.82031300000017,164.3588869999994,147.17968800000017
17,176.9228520000006,31.282227000000603,137.17968800000017,61.53857400000015,96.0258789999998,100.25634799999989,101.0258789999998,100.38476599999922,94.35888699999941,116.15380900000036,176.53857400000015,117.82031300000017,201.9228520000006,163.3334960000002
18,198.84619099999964,43.20507799999996,149.61523400000078,69.35888699999941,98.7177729999994,100.0,108.3334960000002,106.41015599999992,101.0258789999998,119.48730499999965,191.41015599999992,122.56396500000028,222.3076170000004,185.2563479999999
19,222.6923829999996,52.94873000000007,162.3076170000004,78.58984400000008,102.17968800000017,100.12841800000024,114.48730499999965,111.0258789999998,107.94873000000007,122.69238299999961,203.7177729999994,126.41015599999992,225.0,211.0258789999998
20,245.0,61.53857400000015,172.94873000000007,91.9228520000006,107.94873000000007,101.15380900000036,115.64111300000059,113.20507799999996,112.17968800000017,126.2822270000006,211.79492200000004,130.38476599999922,220.38476599999922,237.43603499999972
21,261.6665039999998,69.87158199999976,180.6411130000006,109.87158199999976,115.38476599999922,102.43603499999972,111.53857400000015,113.9741210000002,113.7177729999994,130.51269500000035,217.3076170000004,135.0,221.6665039999998,261.15380900000036
22,271.53857400000015,78.0771479999994,186.41015599999992,129.87158199999976,121.0258789999998,102.17968800000017,105.38476599999922,114.48730499999965,113.9741210000002,134.48730499999965,223.46142599999985,139.61523400000078,233.7177729999994,281.9228520000006
23,277.82031300000017,86.6665039999998,191.79492200000004,149.48730499999965,122.17968800000017,100.12841800000024,101.53857400000015,115.38476599999922,114.87158199999976,136.53857400000015,231.15380900000036,142.94873000000007,248.20507799999996,301.79492200000004
24,285.2563479999999,95.76904300000024,197.94873000000007,167.6923829999996,119.61523400000078,97.69238299999961,101.9228520000006,116.0258789999998,116.53857400000015,136.2822270000006,237.43603499999972,143.84619099999964,249.7436520000001,321.79492200000004
25,293.3334960000002,104.35888699999941,204.48730499999965,185.0,116.15380900000036,96.53857400000015,105.0,115.51269500000035,117.69238299999961,134.61523400000078,237.43603499999972,141.9228520000006,229.10253900000043,339.48730499999965
26,295.89746099999957,109.87158199999976,208.9741210000002,200.38476599999922,113.7177729999994,96.9228520000006,107.30761700000039,113.20507799999996,116.2822270000006,132.43603499999972,229.61523400000078,137.82031300000017,192.17968800000017,351.4101559999999
27,289.10253900000043,110.38476599999922,210.51269500000035,212.56396500000028,112.30761700000039,97.05126999999993,107.43603499999972,109.48730499999965,111.79492200000004,130.2563479999999,218.58984400000008,132.94873000000007,157.05126999999993,358.46142599999985
28,277.4360349999997,107.69238299999961,210.76904300000024,221.9228520000006,111.53857400000015,95.76904300000024,106.15380900000036,106.2822270000006,106.41015599999992,128.9741210000002,213.0771479999994,130.2563479999999,140.51269500000035,367.05126999999993
29,272.4360349999997,107.30761700000039,214.48730499999965,232.05126999999993,112.82031300000017,93.20507799999996,105.76904300000024,105.64111300000059,103.7177729999994,129.48730499999965,219.23095699999976,131.79492200000004,146.53857400000015,382.94873000000007
30,280.6411130000006,116.0258789999998,223.9741210000002,246.9228520000006,117.56396500000028,90.76904300000024,107.05126999999993,108.20507799999996,105.51269500000035,131.6665039999998,234.7436520000001,137.17968800000017,165.2563479999999,403.5898440000001
31,296.6665039999998,138.46142599999985,237.3076170000004,267.6923829999996,125.51269500000035,90.0,109.48730499999965,112.17968800000017,111.15380900000036,133.9741210000002,249.48730499999965,144.10253900000043,184.48730499999965,418.46142599999985
32,308.20507799999996,174.87158199999976,248.9741210000002,290.2563479999999,133.7177729999994,90.64111300000059,111.79492200000004,115.38476599999922,117.30761700000039,135.12841800000024,254.10253900000043,148.9741210000002,203.0771479999994,418.3334960000002
33,307.05126999999993,223.0771479999994,255.0,309.3588869999994,139.23095699999976,91.41015599999992,113.46142599999985,116.6665039999998,121.0258789999998,135.0,247.56396500000028,150.12841800000024,236.79492200000004,404.23095699999976
34,295.76904300000024,278.84619099999964,254.87158199999976,321.53857400000015,140.12841800000024,90.64111300000059,114.23095699999976,116.41015599999992,120.89746099999957,133.9741210000002,238.7177729999994,148.9741210000002,309.48730499999965,386.6665039999998
35,284.48730499999965,338.7177729999994,252.05126999999993,328.46142599999985,136.6665039999998,87.82031300000017,114.10253900000043,115.89746099999957,118.0771479999994,132.82031300000017,237.6923829999996,147.82031300000017,434.3588869999994,377.17968800000017
36,282.17968800000017,399.3588869999994,251.15380900000036,335.51269500000035,131.53857400000015,84.23095699999976,112.94873000000007,115.76904300000024,115.12841800000024,132.3076170000004,247.6923829999996,147.56396500000028,601.4101559999999,380.6411130000006
37,287.6923829999996,458.9741210000002,254.7436520000001,347.4360349999997,128.58984400000008,81.9228520000006,110.64111300000059,115.76904300000024,114.35888699999941,132.6923829999996,262.4360349999997,147.56396500000028,782.6923829999996,391.79492200000004
38,290.89746099999957,516.6665039999998,260.89746099999957,363.3334960000002,130.12841800000024,81.9228520000006,107.69238299999961,114.87158199999976,115.76904300000024,133.7177729999994,271.6665039999998,146.79492200000004,950.6411130000006,398.9741210000002
39,281.0258789999998,574.7436520000001,265.0,377.5639650000003,134.48730499999965,83.7177729999994,105.0,112.05126999999993,117.17968800000017,134.10253900000043,270.89746099999957,145.6411130000006,1093.3334960000002,394.10253900000043
40,257.94873000000007,637.1796880000002,264.7436520000001,385.0,137.05126999999993,85.38476599999922,103.46142599999985,107.69238299999961,116.2822270000006,132.6923829999996,265.6411130000006,144.87158199999976,1217.6923829999996,380.3847659999992
41,234.23095699999976,706.5385740000002,262.5639650000003,386.9228520000006,133.7177729999994,85.76904300000024,103.0771479999994,103.0771479999994,111.79492200000004,128.58984400000008,265.51269500000035,145.51269500000035,1338.205078,369.23095699999976
42,224.23095699999976,782.0512699999999,262.94873000000007,391.53857400000015,125.38476599999922,85.0,102.94873000000007,99.61523400000078,105.12841800000024,122.56396500000028,276.15380900000036,147.3076170000004,1460.7690430000002,368.46142599999985
43,230.38476599999922,858.7177729999994,268.46142599999985,405.89746099999957,117.43603499999972,84.35888699999941,102.43603499999972,97.94873000000007,99.10253900000043,116.79492200000004,292.82031300000017,148.9741210000002,1577.8203130000002,374.7436520000001
44,242.3076170000004,928.5898440000001,276.9228520000006,429.6152340000008,115.76904300000024,85.12841800000024,101.15380900000036,97.43603499999972,96.41015599999992,114.10253900000043,307.05126999999993,148.84619099999964,1676.1538090000004,378.46142599999985
45,248.20507799999996,983.5898440000001,285.12841800000024,454.87158199999976,122.82031300000017,86.9228520000006,100.12841800000024,98.3334960000002,99.10253900000043,116.53857400000015,314.7436520000001,147.56396500000028,1750.8974609999996,375.76904300000024
46,244.7436520000001,1019.4873049999997,291.0258789999998,472.6923829999996,135.89746099999957,88.46142599999985,100.76904300000024,101.0258789999998,106.9228520000006,123.58984400000008,319.48730499999965,147.05126999999993,1809.8715819999998,371.79492200000004
47,236.2822270000006,1038.7177729999994,295.0,479.3588869999994,148.58984400000008,89.23095699999976,103.20507799999996,104.74365200000011,116.53857400000015,131.9228520000006,326.79492200000004,149.3588869999994,1864.6152340000008,373.0771479999994
48,227.43603499999972,1049.4873049999997,297.05126999999993,477.6923829999996,154.48730499999965,89.23095699999976,104.87158199999976,107.05126999999993,122.56396500000028,136.9228520000006,337.05126999999993,153.3334960000002,1918.9741210000002,378.46142599999985
49,219.10253900000043,1061.0258789999998,297.05126999999993,474.48730499999965,150.89746099999957,88.58984400000008,103.84619099999964,105.89746099999957,121.79492200000004,135.76904300000024,345.0,156.15380900000036,1967.94873,381.2822270000006
50,211.53857400000015,1079.2309569999998,296.15380900000036,474.87158199999976,141.0258789999998,87.69238299999961,100.51269500000035,102.05126999999993,116.53857400000015,130.38476599999922,346.2822270000006,155.2563479999999,2004.743652,377.4360349999997
51,207.05126999999993,1105.0,296.0258789999998,480.0,132.17968800000017,86.79492200000004,98.3334960000002,99.10253900000043,112.82031300000017,126.0258789999998,342.4360349999997,151.2822270000006,2027.5639650000003,370.89746099999957
52,208.84619099999964,1135.8974609999996,298.7177729999994,487.05126999999993,129.7436520000001,86.9228520000006,100.12841800000024,99.87158199999976,115.12841800000024,127.05126999999993,339.87158199999976,147.3076170000004,2040.6411130000006,369.23095699999976
53,215.76904300000024,1170.7690430000002,303.84619099999964,493.46142599999985,133.7177729999994,87.94873000000007,104.87158199999976,103.9741210000002,122.30761700000039,132.56396500000028,343.46142599999985,145.76904300000024,2051.538574,375.0
54,221.15380900000036,1210.0,308.46142599999985,498.7177729999994,138.58984400000008,88.9741210000002,108.7177729999994,108.0771479999994,129.10253900000043,137.3076170000004,352.3076170000004,147.43603499999972,2066.538574,383.20507799999996
55,216.15380900000036,1253.589844,309.6152340000008,502.94873000000007,139.10253900000043,88.84619099999964,108.3334960000002,109.23095699999976,130.76904300000024,136.79492200000004,360.51269500000035,149.7436520000001,2087.179688,385.3847659999992
56,197.17968800000017,1297.6923829999996,306.15380900000036,505.6411130000006,134.61523400000078,87.05126999999993,104.61523400000078,106.53857400000015,126.41015599999992,130.89746099999957,361.6665039999998,149.7436520000001,2109.743652,377.6923829999996
57,171.15380900000036,1336.2822270000006,299.7436520000001,506.15380900000036,129.3588869999994,85.0,101.0258789999998,102.05126999999993,119.23095699999976,124.10253900000043,353.84619099999964,146.41015599999992,2130.256348,364.48730499999965
58,152.56396500000028,1367.4360349999997,294.3588869999994,505.3847659999992,127.43603499999972,84.23095699999976,100.0,97.69238299999961,113.0771479999994,120.89746099999957,342.4360349999997,142.05126999999993,2149.615234000001,356.6665039999998
59,153.20507799999996,1396.1538090000004,293.9741210000002,506.9228520000006,130.6411130000006,85.12841800000024,100.89746099999957,95.64111300000059,110.64111300000059,123.0771479999994,336.79492200000004,140.2563479999999,2174.615234000001,361.9228520000006
60,171.0258789999998,1430.5126950000003,300.0,514.1025390000004,138.0771479999994,87.05126999999993,102.43603499999972,97.30761700000039,112.82031300000017,128.84619099999964,343.0771479999994,142.6923829999996,2209.3588869999994,377.94873000000007
61,189.10253900000043,1473.3334960000002,309.3588869999994,526.1538090000004,146.9228520000006,88.7177729999994,103.58984400000008,102.69238299999961,118.84619099999964,135.38476599999922,358.46142599999985,147.17968800000017,2247.4360349999997,391.53857400000015
62,189.7436520000001,1517.6923829999996,316.53857400000015,538.0771479999994,152.6923829999996,89.48730499999965,105.12841800000024,109.35888699999941,126.41015599999992,140.0,373.0771479999994,149.3588869999994,2273.205078,390.51269500000035
63,169.48730499999965,1553.589844,318.20507799999996,544.6152340000008,152.43603499999972,88.84619099999964,107.30761700000039,114.35888699999941,131.9228520000006,140.76904300000024,378.3334960000002,146.41015599999992,2275.7690430000002,375.2563479999999
64,142.94873000000007,1576.5385740000002,315.2563479999999,544.8715819999998,145.6411130000006,87.30761700000039,109.48730499999965,115.38476599999922,132.6923829999996,137.43603499999972,373.5898440000001,139.7436520000001,2258.0771479999994,358.84619099999964
65,129.10253900000043,1591.794922,312.05126999999993,542.8203130000002,136.6665039999998,85.76904300000024,110.38476599999922,112.05126999999993,128.20507799999996,131.53857400000015,365.0,133.7177729999994,2234.1025390000004,355.0
66,135.0,1607.94873,311.4101559999999,543.205078,130.76904300000024,85.64111300000059,108.9741210000002,106.41015599999992,120.76904300000024,125.12841800000024,359.3588869999994,131.41015599999992,2215.8974609999996,365.3847659999992
67,150.38476599999922,1628.9741210000002,313.20507799999996,546.5385740000002,130.38476599999922,87.05126999999993,105.38476599999922,100.89746099999957,113.20507799999996,120.25634799999989,358.9741210000002,133.0771479999994,2205.6411130000006,378.7177729999994
68,158.20507799999996,1653.3334960000002,314.7436520000001,549.2309569999998,134.3588869999994,88.84619099999964,101.2822270000006,97.43603499999972,108.20507799999996,117.05126999999993,360.89746099999957,136.15380900000036,2198.461426,381.9228520000006
69,148.46142599999985,1678.589844,313.7177729999994,547.8203130000002,139.48730499999965,90.12841800000024,98.58984400000008,96.53857400000015,107.05126999999993,115.0,361.53857400000015,137.17968800000017,2191.2822270000006,370.6411130000006
70,126.6665039999998,1706.6665039999998,311.15380900000036,543.4614259999998,143.7177729999994,91.15380900000036,98.84619099999964,97.94873000000007,109.74365200000011,114.23095699999976,359.87158199999976,135.2563479999999,2185.5126950000003,351.9228520000006
71,107.94873000000007,1740.256348,310.0,541.2822270000006,147.43603499999972,92.94873000000007,101.53857400000015,100.64111300000059,114.48730499999965,115.89746099999957,357.94873000000007,132.05126999999993,2184.615234000001,337.5639650000003
72,105.76904300000024,1778.589844,312.94873000000007,546.1538090000004,150.89746099999957,95.51269500000035,105.12841800000024,103.46142599999985,118.7177729999994,120.0,358.46142599999985,130.89746099999957,2188.461426,335.2563479999999
73,120.38476599999922,1814.743652,318.9741210000002,557.9487300000001,153.0771479999994,97.17968800000017,106.9228520000006,104.87158199999976,120.38476599999922,123.9741210000002,361.9228520000006,132.82031300000017,2193.333496,345.0
74,137.17968800000017,1840.6411130000006,323.46142599999985,570.3847659999992,151.53857400000015,96.15380900000036,105.25634799999989,103.7177729999994,118.7177729999994,123.9741210000002,365.76904300000024,136.0258789999998,2193.205078,358.3334960000002
75,137.94873000000007,1852.6923829999996,321.15380900000036,574.2309569999998,145.2563479999999,92.43603499999972,99.87158199999976,99.74365200000011,113.46142599999985,118.3334960000002,365.51269500000035,136.53857400000015,2184.615234000001,364.10253900000043
76,117.94873000000007,1855.7690430000002,311.6665039999998,566.0258789999998,135.6411130000006,88.20507799999996,92.82031300000017,93.46142599999985,105.64111300000059,108.0771479999994,358.46142599999985,132.3076170000004,2169.1025390000004,357.3076170000004
77,91.53857400000015,1859.3588869999994,300.76904300000024,550.5126950000003,127.05126999999993,86.6665039999998,87.43603499999972,87.17968800000017,98.3334960000002,98.0771479999994,347.6923829999996,125.76904300000024,2153.8461909999996,344.3588869999994
78,79.23095699999976,1870.0,296.15380900000036,538.205078,125.25634799999989,88.9741210000002,86.6665039999998,84.35888699999941,96.0258789999998,94.61523400000078,341.6665039999998,121.79492200000004,2147.05127,336.4101559999999
79,88.58984400000008,1887.3076170000004,300.89746099999957,536.6665039999998,132.43603499999972,94.23095699999976,90.76904300000024,87.94873000000007,100.89746099999957,101.2822270000006,347.05126999999993,123.20507799999996,2150.8974609999996,338.9741210000002
80,107.17968800000017,1905.1284180000002,310.51269500000035,545.0,145.6411130000006,99.61523400000078,97.94873000000007,96.41015599999992,111.15380900000036,115.51269500000035,362.3076170000004,128.58984400000008,2159.2309569999998,346.2822270000006
81,115.76904300000024,1918.4614259999998,317.05126999999993,555.8974609999996,156.0258789999998,102.43603499999972,104.48730499999965,105.0,120.64111300000059,128.58984400000008,377.6923829999996,133.7177729999994,2162.05127,348.7177729999994
82,106.9228520000006,1927.3076170000004,315.76904300000024,562.1796880000002,155.76904300000024,102.17968800000017,106.53857400000015,107.94873000000007,122.94873000000007,131.79492200000004,382.6923829999996,135.2563479999999,2154.3588869999994,342.5639650000003
83,89.61523400000078,1934.3588869999994,308.46142599999985,561.6665039999998,143.9741210000002,100.38476599999922,103.20507799999996,103.7177729999994,116.15380900000036,122.69238299999961,374.6152340000008,132.94873000000007,2139.8715819999998,333.84619099999964
84,79.35888699999941,1940.256348,301.79492200000004,557.3076170000004,129.10253900000043,98.9741210000002,97.43603499999972,95.76904300000024,104.87158199999976,107.94873000000007,361.0258789999998,129.3588869999994,2126.666504,330.89746099999957
85,83.46142599999985,1942.05127,301.53857400000015,554.7436520000001,122.56396500000028,99.61523400000078,93.9741210000002,90.51269500000035,97.56396500000028,98.58984400000008,352.94873000000007,127.82031300000017,2119.8715819999998,336.53857400000015
86,95.12841800000024,1936.794922,307.82031300000017,556.5385740000002,129.48730499999965,101.6665039999998,94.74365200000011,91.2822270000006,98.9741210000002,101.2822270000006,355.51269500000035,129.23095699999976,2117.5639650000003,345.51269500000035
87,99.74365200000011,1927.6923829999996,315.12841800000024,561.4101559999999,144.3588869999994,103.20507799999996,97.94873000000007,96.41015599999992,106.6665039999998,112.17968800000017,364.3588869999994,132.17968800000017,2112.94873,349.10253900000043
88,88.58984400000008,1922.8203130000002,317.6923829999996,565.8974609999996,157.56396500000028,102.43603499999972,100.12841800000024,100.89746099999957,113.7177729999994,121.53857400000015,370.3847659999992,134.10253900000043,2100.6411130000006,342.6923829999996
89,67.30761700000039,1926.9228520000006,315.12841800000024,567.5639650000003,163.0771479999994,100.25634799999989,99.61523400000078,101.6665039999998,115.64111300000059,122.56396500000028,368.5898440000001,133.7177729999994,2081.1538090000004,330.51269500000035
90,51.153809000000365,1935.5126950000003,312.3076170000004,566.794922,161.53857400000015,98.84619099999964,97.43603499999972,100.25634799999989,113.58984400000008,117.05126999999993,362.3076170000004,132.3076170000004,2060.0,321.79492200000004
91,51.025878999999804,1939.3588869999994,313.20507799999996,565.8974609999996,157.6923829999996,99.23095699999976,96.41015599999992,99.87158199999976,111.2822270000006,112.43603499999972,359.3588869999994,132.17968800000017,2043.205078,322.5639650000003
92,64.10253900000043,1934.3588869999994,316.9228520000006,565.8974609999996,155.6411130000006,100.89746099999957,98.0771479999994,102.05126999999993,111.9228520000006,114.23095699999976,364.10253900000043,133.7177729999994,2032.94873,330.3847659999992
93,77.56396500000028,1924.2309569999998,319.23095699999976,566.2822270000006,156.9228520000006,102.43603499999972,101.6665039999998,105.76904300000024,115.25634799999989,121.6665039999998,374.3588869999994,135.51269500000035,2026.0258789999998,337.82031300000017
94,80.51269500000035,1914.743652,318.46142599999985,567.1796880000002,160.38476599999922,102.82031300000017,105.38476599999922,108.84619099999964,118.46142599999985,128.3334960000002,383.3334960000002,136.6665039999998,2015.256348,339.3588869999994
95,71.2822270000006,1905.256348,315.89746099999957,568.3334960000002,163.3334960000002,101.9228520000006,107.30761700000039,108.9741210000002,118.3334960000002,127.43603499999972,385.2563479999999,136.79492200000004,1993.0771479999994,335.2563479999999
96,56.9228520000006,1887.6923829999996,313.46142599999985,568.4614259999998,163.3334960000002,100.25634799999989,106.0258789999998,105.0,113.7177729999994,117.43603499999972,379.48730499999965,136.2822270000006,1957.3076170000004,329.48730499999965
97,46.2822270000006,1854.2309569999998,310.76904300000024,564.8715819999998,161.53857400000015,99.10253900000043,102.43603499999972,98.84619099999964,107.43603499999972,105.0,370.89746099999957,134.61523400000078,1914.2309569999998,326.15380900000036
98,44.102539000000434,1802.4360349999997,307.17968800000017,555.8974609999996,161.53857400000015,100.38476599999922,99.61523400000078,95.12841800000024,105.38476599999922,100.51269500000035,367.3076170000004,132.17968800000017,1874.1025390000004,326.4101559999999
99,47.69238299999961,1734.4873049999997,303.20507799999996,542.0512699999999,164.61523400000078,104.87158199999976,100.51269500000035,97.69238299999961,110.89746099999957,108.7177729999994,372.6923829999996,130.51269500000035,1840.0,328.46142599999985
100,50.12841800000024,1652.6923829999996,300.0,525.5126950000003,167.82031300000017,111.2822270000006,105.76904300000024,105.51269500000035,121.53857400000015,123.7177729999994,384.6152340000008,131.6665039999998,1802.05127,329.23095699999976
101,45.12841800000024,1558.4614259999998,298.5898440000001,508.0771479999994,167.82031300000017,116.6665039999998,112.94873000000007,113.84619099999964,130.6411130000006,134.7436520000001,396.4101559999999,135.6411130000006,1745.0,326.9228520000006
102,31.410155999999915,1455.7690430000002,297.5639650000003,489.7436520000001,164.87158199999976,118.46142599999985,119.35888699999941,118.20507799999996,133.0771479999994,135.89746099999957,401.79492200000004,141.2822270000006,1663.205078,321.6665039999998
103,13.589844000000085,1350.6411130000006,293.84619099999964,467.5639650000003,162.94873000000007,116.9228520000006,122.69238299999961,117.82031300000017,128.3334960000002,129.87158199999976,398.0771479999994,145.2563479999999,1566.1538090000004,313.84619099999964
104,-0.8974609999995664,1247.4360349999997,283.9741210000002,436.4101559999999,163.58984400000008,114.74365200000011,122.17968800000017,113.58984400000008,120.12841800000024,122.82031300000017,387.05126999999993,144.61523400000078,1470.8974609999996,303.20507799999996
105,-5.0,1147.4360349999997,267.5639650000003,393.3334960000002,163.9741210000002,114.10253900000043,118.46142599999985,107.43603499999972,112.82031300000017,117.94873000000007,372.94873000000007,138.84619099999964,1388.4614259999998,289.87158199999976
106,4.102539000000434,1050.1284180000002,248.58984400000008,342.5639650000003,159.61523400000078,115.64111300000059,113.84619099999964,101.6665039999998,108.9741210000002,114.61523400000078,361.0258789999998,130.76904300000024,1315.7690430000002,275.89746099999957
107,24.48730499999965,957.6923829999996,233.46142599999985,294.23095699999976,149.7436520000001,117.94873000000007,111.6665039999998,98.84619099999964,109.74365200000011,111.2822270000006,353.7177729999994,125.64111300000059,1240.8974609999996,263.9741210000002
108,50.76904300000024,874.2309569999998,225.89746099999957,258.5898440000001,139.48730499999965,119.74365200000011,113.58984400000008,100.64111300000059,114.35888699999941,108.84619099999964,349.48730499999965,126.53857400000015,1154.743652,256.15380900000036
109,78.46142599999985,802.9487300000001,224.23095699999976,237.3076170000004,133.9741210000002,120.51269500000035,117.94873000000007,106.0258789999998,120.12841800000024,109.35888699999941,343.20507799999996,132.3076170000004,1060.8974609999996,251.53857400000015
110,106.79492200000004,744.7436520000001,222.05126999999993,222.6923829999996,133.20507799999996,120.89746099999957,121.0258789999998,111.53857400000015,123.20507799999996,112.82031300000017,330.76904300000024,137.6923829999996,974.3588869999994,246.15380900000036
111,137.56396500000028,700.1284180000002,212.94873000000007,203.3334960000002,131.79492200000004,121.9228520000006,119.48730499999965,113.58984400000008,120.38476599999922,116.2822270000006,313.0771479999994,137.6923829999996,911.0258789999998,237.3076170000004
112,172.17968800000017,669.8715819999998,195.6411130000006,172.43603499999972,124.61523400000078,124.23095699999976,113.20507799999996,110.51269500000035,112.30761700000039,115.51269500000035,295.3847659999992,131.15380900000036,876.2822270000006,224.61523400000078
113,208.9741210000002,652.9487300000001,174.7436520000001,132.05126999999993,111.2822270000006,127.30761700000039,104.61523400000078,104.10253900000043,102.69238299999961,109.23095699999976,282.3076170000004,121.0258789999998,859.8715819999998,210.51269500000035
114,243.7177729999994,644.7436520000001,156.53857400000015,89.35888699999941,96.15380900000036,129.7436520000001,97.82031300000017,97.43603499999972,96.0258789999998,99.61523400000078,274.10253900000043,111.6665039999998,844.3588869999994,197.56396500000028
115,273.3334960000002,639.6152340000008,143.7177729999994,52.05126999999993,85.51269500000035,130.6411130000006,95.64111300000059,93.58984400000008,93.9741210000002,91.15380900000036,266.6665039999998,105.76904300000024,818.205078,186.53857400000015
116,298.0771479999994,634.3588869999994,135.51269500000035,24.102539000000434,83.84619099999964,130.6411130000006,99.23095699999976,94.35888699999941,95.89746099999957,88.46142599999985,256.0258789999998,102.82031300000017,783.9741210000002,176.9228520000006
117,320.3847659999992,630.3847659999992,130.2563479999999,7.179688000000169,90.76904300000024,130.89746099999957,106.6665039999998,100.12841800000024,99.48730499999965,92.94873000000007,241.6665039999998,100.89746099999957,754.6152340000008,168.58984400000008
118,340.89746099999957,628.7177729999994,126.79492200000004,-0.8974609999995664,100.51269500000035,131.9228520000006,114.10253900000043,108.3334960000002,102.82031300000017,101.0258789999998,226.15380900000036,97.43603499999972,738.9741210000002,160.76904300000024
119,356.6665039999998,627.4360349999997,123.84619099999964,-5.897461000000021,105.38476599999922,133.0771479999994,118.3334960000002,114.61523400000078,103.7177729999994,106.53857400000015,212.3076170000004,91.9228520000006,733.3334960000002,152.6923829999996
120,365.51269500000035,622.3076170000004,120.51269500000035,-15.641113000000132,103.0771479999994,133.3334960000002,118.0771479999994,115.89746099999957,102.30761700000039,105.51269500000035,201.15380900000036,85.89746099999957,725.7690430000002,144.10253900000043
121,368.9741210000002,611.4101559999999,116.15380900000036,-33.974365000000034,98.46142599999985,132.43603499999972,115.51269500000035,114.10253900000043,101.41015599999992,100.76904300000024,192.3076170000004,82.69238299999961,708.4614259999998,135.89746099999957
122,372.3076170000004,596.4101559999999,111.15380900000036,-57.948729999999614,98.84619099999964,131.2822270000006,114.35888699999941,114.48730499999965,105.38476599999922,98.9741210000002,184.87158199999976,84.74365200000011,682.8203130000002,128.9741210000002
123,377.82031300000017,578.8461909999996,106.41015599999992,-80.51293900000019,105.51269500000035,130.51269500000035,115.76904300000024,119.87158199999976,114.61523400000078,104.23095699999976,177.43603499999972,90.38476599999922,656.1538090000004,122.69238299999961
124,383.5898440000001,557.4360349999997,101.53857400000015,-95.89746100000002,113.20507799999996,130.38476599999922,118.58984400000008,127.43603499999972,123.7177729999994,113.20507799999996,168.0771479999994,95.51269500000035,632.8203130000002,116.41015599999992
125,386.53857400000015,530.7690430000002,96.2822270000006,-102.30761700000039,115.51269500000035,130.38476599999922,120.0,131.41015599999992,126.2822270000006,119.48730499999965,155.89746099999957,96.2822270000006,611.9228520000006,109.74365200000011
126,385.89746099999957,499.48730499999965,90.76904300000024,-102.82055700000001,110.76904300000024,129.3588869999994,118.84619099999964,129.10253900000043,120.89746099999957,119.10253900000043,141.41015599999992,92.69238299999961,589.7436520000001,104.10253900000043
127,382.94873000000007,466.2822270000006,85.12841800000024,-102.94872999999961,102.82031300000017,126.9228520000006,115.89746099999957,122.82031300000017,111.9228520000006,113.3334960000002,126.6665039999998,86.79492200000004,564.6152340000008,100.0
128,379.6152340000008,434.23095699999976,79.35888699999941,-108.07690400000001,96.53857400000015,123.84619099999964,112.94873000000007,117.05126999999993,105.51269500000035,106.6665039999998,113.7177729999994,81.6665039999998,538.0771479999994,96.6665039999998
129,376.9228520000006,405.12841800000024,73.9741210000002,-119.23071300000038,94.48730499999965,120.89746099999957,111.79492200000004,115.64111300000059,104.87158199999976,103.3334960000002,104.61523400000078,79.74365200000011,513.3334960000002,92.82031300000017
130,375.0,379.87158199999976,70.89746099999957,-131.53857400000015,96.41015599999992,118.84619099999964,112.94873000000007,119.35888699999941,108.20507799999996,105.25634799999989,99.87158199999976,81.53857400000015,491.79492200000004,88.58984400000008
131,371.9228520000006,357.5639650000003,70.64111300000059,-139.10253899999998,99.87158199999976,117.56396500000028,114.23095699999976,125.51269500000035,110.89746099999957,110.76904300000024,96.79492200000004,84.87158199999976,469.6152340000008,85.38476599999922
132,365.12841800000024,335.0,71.15380900000036,-140.38452099999995,101.79492200000004,116.6665039999998,112.69238299999961,129.48730499999965,109.48730499999965,115.76904300000024,91.53857400000015,85.89746099999957,441.2822270000006,83.84619099999964
133,353.84619099999964,309.6152340000008,70.12841800000024,-139.7436520000001,101.2822270000006,116.15380900000036,107.82031300000017,128.84619099999964,104.10253900000043,116.15380900000036,82.82031300000017,82.94873000000007,405.2563479999999,83.46142599999985
134,341.15380900000036,282.3076170000004,66.41015599999992,-142.179443,99.10253900000043,116.2822270000006,102.82031300000017,125.64111300000059,99.23095699999976,112.30761700000039,73.58984400000008,77.94873000000007,367.6923829999996,83.0771479999994
135,332.05126999999993,257.05126999999993,61.666503999999804,-149.35888699999987,97.56396500000028,117.17968800000017,101.9228520000006,124.74365200000011,100.0,109.10253900000043,69.10253900000043,75.25634799999989,338.84619099999964,82.56396500000028
136,328.9741210000002,237.17968800000017,58.0771479999994,-158.71801800000003,98.3334960000002,118.0771479999994,106.53857400000015,128.3334960000002,107.30761700000039,110.76904300000024,70.38476599999922,77.05126999999993,322.82031300000017,81.6665039999998
137,329.7436520000001,222.05126999999993,55.897460999999566,-167.3076170000004,100.76904300000024,118.7177729999994,113.7177729999994,133.46142599999985,117.05126999999993,117.17968800000017,73.46142599999985,81.41015599999992,312.82031300000017,79.87158199999976
138,329.10253900000043,207.6923829999996,53.7177729999994,-174.10253899999998,102.94873000000007,119.10253900000043,119.10253900000043,134.7436520000001,122.82031300000017,122.82031300000017,71.6665039999998,84.10253900000043,296.6665039999998,76.0258789999998
139,323.7177729999994,190.51269500000035,49.61523400000078,-179.7436520000001,103.20507799999996,120.0,120.12841800000024,130.38476599999922,121.15380900000036,122.82031300000017,62.94873000000007,82.30761700000039,267.4360349999997,70.0
140,313.7177729999994,170.38476599999922,44.23095699999976,-184.8718259999996,101.79492200000004,121.2822270000006,117.94873000000007,123.3334960000002,114.61523400000078,116.79492200000004,50.64111300000059,76.9228520000006,229.61523400000078,63.20507799999996
141,302.17968800000017,150.6411130000006,39.61523400000078,-188.84619099999964,99.61523400000078,122.69238299999961,115.38476599999922,118.46142599999985,109.23095699999976,110.0,41.025878999999804,71.2822270000006,195.0,57.94873000000007
142,292.6923829999996,134.10253900000043,37.43603499999972,-191.41015600000037,97.94873000000007,123.7177729999994,114.74365200000011,119.10253900000043,109.23095699999976,107.69238299999961,37.82031300000017,68.0771479999994,172.43603499999972,55.897460999999566
143,286.2822270000006,120.76904300000024,38.20507799999996,-194.7436520000001,98.20507799999996,123.46142599999985,116.15380900000036,124.35888699999941,113.84619099999964,111.15380900000036,40.0,68.46142599999985,160.76904300000024,56.666503999999804
144,280.12841800000024,107.69238299999961,39.102539000000434,-201.79492200000004,101.0258789999998,122.17968800000017,117.94873000000007,130.51269500000035,118.46142599999985,116.6665039999998,42.43603499999972,71.2822270000006,151.0258789999998,57.94873000000007
145,270.6411130000006,91.79492200000004,36.79492200000004,-213.33325200000036,105.51269500000035,120.25634799999989,118.3334960000002,133.7177729999994,119.23095699999976,118.58984400000008,40.0,73.9741210000002,132.56396500000028,56.53857400000015
146,256.0258789999998,71.41015599999992,29.615234000000783,-227.43579099999943,108.3334960000002,118.7177729999994,116.6665039999998,132.6923829999996,115.51269500000035,114.10253900000043,30.51269500000035,74.23095699999976,101.9228520000006,51.153809000000365
147,238.46142599999985,47.82031300000017,20.384765999999217,-240.2563479999999,106.2822270000006,117.94873000000007,113.7177729999994,129.7436520000001,109.87158199999976,105.64111300000059,18.205077999999958,71.6665039999998,64.61523400000078,43.589844000000085
148,223.46142599999985,24.615234000000783,14.871581999999762,-248.97436500000003,100.38476599999922,118.3334960000002,112.05126999999993,128.0771479999994,106.15380900000036,98.9741210000002,10.384765999999217,68.7177729999994,30.25634799999989,38.46142599999985
149,215.38476599999922,6.410155999999915,18.077147999999397,-252.820557,95.51269500000035,119.10253900000043,113.84619099999964,130.6411130000006,107.05126999999993,99.10253900000043,12.948730000000069,68.7177729999994,5.512695000000349,38.589844000000085
150,214.61523400000078,-5.256347999999889,28.333496000000196,-254.10253899999998,96.6665039999998,119.48730499999965,119.23095699999976,136.9228520000006,112.82031300000017,106.2822270000006,24.102539000000434,72.56396500000028,-10.0,43.589844000000085
151,216.9228520000006,-12.179442999999992,38.974121000000196,-256.15380900000036,104.23095699999976,119.48730499999965,125.25634799999989,144.10253900000043,121.2822270000006,116.15380900000036,35.76904300000024,78.0771479999994,-22.179442999999992,49.74365200000011
152,217.56396500000028,-18.333252000000357,43.0771479999994,-261.02563499999997,113.46142599999985,119.23095699999976,128.9741210000002,148.3334960000002,128.58984400000008,123.46142599999985,39.35888699999941,82.43603499999972,-36.92309599999999,53.20507799999996
153,214.7436520000001,-25.89746100000002,39.74365200000011,-267.3076170000004,118.7177729999994,119.10253900000043,129.23095699999976,148.84619099999964,132.3076170000004,125.64111300000059,33.7177729999994,84.74365200000011,-55.64111300000013,52.94873000000007
154,210.51269500000035,-34.61547900000005,33.7177729999994,-271.41015600000037,118.0771479999994,119.23095699999976,127.56396500000028,147.82031300000017,132.56396500000028,124.35888699999941,25.51269500000035,85.51269500000035,-76.02563499999997,50.76904300000024
155,207.56396500000028,-43.974365000000034,31.025878999999804,-271.28198199999997,114.35888699999941,119.10253900000043,126.53857400000015,147.94873000000007,132.05126999999993,123.20507799999996,22.56396500000028,85.89746099999957,-95.1281740000004,49.61523400000078
156,206.41015599999992,-53.71801800000003,33.7177729999994,-268.46142599999985,111.9228520000006,118.7177729999994,127.43603499999972,149.61523400000078,132.17968800000017,124.23095699999976,27.05126999999993,86.0258789999998,-111.79492200000004,50.25634799999989
157,204.7436520000001,-65.0,38.46142599999985,-266.923096,112.05126999999993,118.46142599999985,129.23095699999976,150.6411130000006,133.0771479999994,126.0258789999998,34.48730499999965,85.89746099999957,-127.43579099999943,50.76904300000024
158,199.87158199999976,-78.58984399999963,40.51269500000035,-269.102539,112.56396500000028,118.46142599999985,129.87158199999976,148.84619099999964,133.46142599999985,126.0258789999998,38.333496000000196,85.25634799999989,-144.10253899999998,48.846190999999635
159,191.0258789999998,-93.84619099999964,37.56396500000028,-274.61547900000005,111.2822270000006,118.46142599999985,127.43603499999972,144.3588869999994,132.56396500000028,123.20507799999996,35.12841800000024,84.74365200000011,-162.3076170000004,44.48730499999965
160,180.12841800000024,-108.58984399999963,31.282227000000603,-281.28198199999997,108.0771479999994,117.94873000000007,122.56396500000028,139.7436520000001,130.2563479999999,119.35888699999941,26.794922000000042,84.61523400000078,-180.89746100000002,39.87158199999976
161,169.61523400000078,-120.64111300000013,24.871581999999762,-286.923096,106.0258789999998,117.05126999999993,117.43603499999972,137.94873000000007,127.82031300000017,117.43603499999972,18.846190999999635,84.87158199999976,-197.6923829999996,37.43603499999972
162,161.0258789999998,-129.8718259999996,21.410155999999915,-291.79492200000004,108.0771479999994,116.6665039999998,115.12841800000024,140.12841800000024,126.0258789999998,118.58984400000008,15.0,85.0,-211.53857400000015,37.30761700000039
163,153.9741210000002,-139.10253899999998,20.897460999999566,-296.79492200000004,113.20507799999996,117.43603499999972,116.41015599999992,144.3588869999994,125.12841800000024,120.64111300000059,15.128418000000238,84.48730499999965,-223.46142599999985,37.56396500000028
164,146.6665039999998,-151.02563499999997,20.641113000000587,-302.0512700000004,117.30761700000039,118.3334960000002,119.10253900000043,146.2822270000006,124.23095699999976,120.12841800000024,15.512695000000349,82.56396500000028,-235.76928699999962,35.897460999999566
165,138.20507799999996,-166.28198199999997,17.30761700000039,-305.38452099999995,115.76904300000024,117.94873000000007,119.61523400000078,142.82031300000017,121.53857400000015,114.87158199999976,12.17968800000017,78.58984400000008,-251.28198199999997,31.538574000000153
166,129.7436520000001,-181.79492200000004,11.282227000000603,-304.8718259999996,108.20507799999996,116.79492200000004,116.6665039999998,134.61523400000078,116.53857400000015,106.41015599999992,3.9741210000001956,73.0771479999994,-270.897461,26.025878999999804
167,123.20507799999996,-193.33325200000036,6.025878999999804,-300.7692869999996,99.35888699999941,116.53857400000015,112.69238299999961,126.6665039999998,110.89746099999957,98.9741210000002,-5.38452099999995,68.46142599999985,-291.923096,22.30761700000039
168,119.61523400000078,-198.076904,5.3847659999992175,-295.1281740000004,96.0258789999998,118.58984400000008,111.9228520000006,124.48730499999965,108.20507799999996,97.17968800000017,-10.256347999999889,67.05126999999993,-309.102539,22.05126999999993
169,118.58984400000008,-196.79492200000004,10.128418000000238,-290.0,101.41015599999992,121.6665039999998,116.15380900000036,129.87158199999976,111.2822270000006,102.43603499999972,-7.179442999999992,69.35888699999941,-318.33325200000036,25.25634799999989
170,118.46142599999985,-194.10253899999998,16.794922000000042,-286.02563499999997,112.82031300000017,123.3334960000002,123.20507799999996,139.7436520000001,119.35888699999941,111.6665039999998,1.9228520000006029,73.9741210000002,-319.8718259999996,29.871581999999762
171,118.20507799999996,-195.0,21.794922000000042,-282.9487299999996,123.20507799999996,122.43603499999972,129.23095699999976,148.7177729999994,128.7177729999994,119.87158199999976,11.666503999999804,78.20507799999996,-318.71801800000003,34.35888699999941
172,117.30761700000039,-201.15380900000036,23.461425999999847,-279.7436520000001,126.41015599999992,120.38476599999922,132.43603499999972,153.3334960000002,135.2563479999999,124.23095699999976,17.30761700000039,80.76904300000024,-320.38452099999995,37.56396500000028
173,116.2822270000006,-210.76928699999962,22.94873000000007,-275.7692869999996,121.6665039999998,119.61523400000078,133.58984400000008,153.46142599999985,137.43603499999972,125.0,17.56396500000028,81.79492200000004,-327.9487299999996,38.974121000000196
174,114.74365200000011,-220.76928699999962,22.43603499999972,-270.64111300000013,112.43603499999972,121.6665039999998,133.9741210000002,151.15380900000036,135.51269500000035,123.7177729999994,13.846190999999635,82.17968800000017,-339.61547900000005,38.589844000000085
175,112.43603499999972,-229.23071300000038,22.69238299999961,-265.5129390000002,104.23095699999976,125.64111300000059,133.7177729999994,148.46142599999985,131.53857400000015,121.6665039999998,9.102539000000434,82.69238299999961,-352.179443,36.666503999999804
176,108.3334960000002,-235.64111300000013,23.461425999999847,-261.28198199999997,100.0,128.58984400000008,132.17968800000017,146.15380900000036,127.17968800000017,118.46142599999985,6.410155999999915,82.94873000000007,-362.6923829999996,34.102539000000434
177,102.30761700000039,-241.02563499999997,23.717772999999397,-258.33325200000036,99.74365200000011,127.94873000000007,128.9741210000002,143.7177729999994,123.46142599999985,113.58984400000008,6.794922000000042,81.79492200000004,-370.38452099999995,31.538574000000153
178,95.25634799999989,-246.66674799999964,23.461425999999847,-256.79492200000004,101.41015599999992,123.58984400000008,124.87158199999976,139.7436520000001,120.38476599999922,107.56396500000028,8.974121000000196,78.58984400000008,-376.41015600000037,29.615234000000783
179,89.10253900000043,-253.58984399999963,22.56396500000028,-257.179443,102.82031300000017,117.69238299999961,120.76904300000024,133.7177729999994,116.9228520000006,102.05126999999993,10.128418000000238,74.23095699999976,-382.6923829999996,28.461425999999847
180,85.64111300000059,-261.923096,21.538574000000153,-260.0,103.46142599999985,113.58984400000008,117.30761700000039,127.43603499999972,113.0771479999994,98.58984400000008,8.717772999999397,71.41015599999992,-390.5129390000002,27.94873000000007
181,85.0,-270.7692869999996,20.641113000000587,-264.61547900000005,103.20507799999996,113.0771479999994,115.38476599999922,124.23095699999976,110.25634799999989,98.84619099999964,5.769043000000238,71.9228520000006,-399.2307130000004,28.077147999999397
182,86.0258789999998,-278.58984399999963,20.128418000000238,-268.71801800000003,102.69238299999961,115.38476599999922,115.12841800000024,126.79492200000004,111.15380900000036,102.94873000000007,4.102539000000434,75.51269500000035,-407.3076170000004,28.846190999999635
183,85.76904300000024,-284.2307130000004,19.871581999999762,-268.97436500000003,102.69238299999961,118.0771479999994,116.2822270000006,134.23095699999976,116.9228520000006,109.10253900000043,5.641113000000587,80.76904300000024,-413.33325200000036,30.897460999999566
184,82.30761700000039,-287.4357909999994,20.128418000000238,-264.4870609999998,103.58984400000008,119.10253900000043,117.94873000000007,142.56396500000028,125.25634799999989,114.61523400000078,9.615234000000783,84.74365200000011,-417.5642090000006,34.102539000000434
185,76.41015599999992,-289.2307130000004,20.51269500000035,-258.20507799999996,104.61523400000078,118.20507799999996,119.48730499999965,147.05126999999993,132.05126999999993,117.69238299999961,13.846190999999635,86.0258789999998,-421.79492200000004,37.30761700000039
186,70.89746099999957,-291.15380900000036,21.282227000000603,-255.1281740000004,104.10253900000043,117.69238299999961,120.51269500000035,145.6411130000006,134.23095699999976,117.94873000000007,16.538574000000153,84.74365200000011,-426.79492200000004,38.846190999999635
187,68.3334960000002,-294.35888699999987,22.56396500000028,-258.20507799999996,101.53857400000015,118.58984400000008,120.64111300000059,140.2563479999999,131.6665039999998,115.25634799999989,17.05126999999993,82.82031300000017,-433.076904,37.94873000000007
188,68.7177729999994,-299.35888699999987,24.102539000000434,-265.1281740000004,98.20507799999996,120.12841800000024,119.48730499999965,134.10253900000043,126.15380900000036,110.25634799999989,15.512695000000349,81.79492200000004,-441.15380900000036,35.0
189,68.7177729999994,-306.66674799999964,24.358886999999413,-271.41015600000037,95.0,120.12841800000024,116.2822270000006,129.3588869999994,119.48730499999965,103.0771479999994,11.282227000000603,81.6665039999998,-451.53857400000015,30.769043000000238
190,65.76904300000024,-315.7692869999996,22.94873000000007,-273.33325200000036,92.56396500000028,118.20507799999996,111.41015599999992,126.15380900000036,113.3334960000002,95.0,4.487304999999651,81.53857400000015,-463.71801800000003,26.410155999999915
191,60.0,-324.2307130000004,20.641113000000587,-270.2563479999999,91.0258789999998,116.0258789999998,106.9228520000006,124.10253900000043,109.35888699999941,88.9741210000002,-2.1796869999998307,80.89746099999957,-474.8718259999996,24.230956999999762
192,55.64111300000059,-328.20507799999996,19.871581999999762,-263.58984399999963,91.6665039999998,116.41015599999992,105.64111300000059,123.84619099999964,109.48730499999965,88.7177729999994,-3.846190999999635,80.76904300000024,-480.1281740000004,26.282227000000603
193,57.30761700000039,-325.0,23.077147999999397,-255.64111300000013,96.79492200000004,120.0,109.61523400000078,127.30761700000039,114.48730499999965,96.0258789999998,2.5639650000002803,82.17968800000017,-477.0512700000004,33.0771479999994
194,65.51269500000035,-315.897461,30.128418000000238,-248.58984399999963,106.15380900000036,125.76904300000024,117.82031300000017,135.12841800000024,123.9741210000002,108.3334960000002,15.0,85.0,-468.33325200000036,42.30761700000039
195,75.64111300000059,-306.41015600000037,38.7177729999994,-243.97436500000003,116.2822270000006,131.0258789999998,126.15380900000036,145.2563479999999,134.48730499999965,119.74365200000011,26.666503999999804,87.82031300000017,-460.5129390000002,49.61523400000078
196,80.51269500000035,-303.076904,44.87158199999976,-242.3076170000004,122.05126999999993,133.58984400000008,130.51269500000035,152.82031300000017,141.2822270000006,124.48730499999965,31.410155999999915,89.10253900000043,-460.1281740000004,50.64111300000059
197,76.41015599999992,-309.61547900000005,45.25634799999989,-243.076904,120.25634799999989,133.20507799999996,128.9741210000002,153.46142599999985,141.0258789999998,120.89746099999957,27.56396500000028,88.46142599999985,-468.71801800000003,44.35888699999941
198,65.64111300000059,-324.102539,39.87158199999976,-246.02563499999997,111.6665039999998,130.76904300000024,122.94873000000007,146.41015599999992,133.84619099999964,112.05126999999993,18.333496000000196,86.41015599999992,-482.3076170000004,34.48730499999965
199,54.35888699999941,-339.8718259999996,31.538574000000153,-250.5129390000002,101.15380900000036,128.3334960000002,116.2822270000006,136.0258789999998,123.9741210000002,102.82031300000017,9.358886999999413,84.61523400000078,-494.35888699999987,27.17968800000017
200,47.94873000000007,-350.38452099999995,25.0,-255.5129390000002,94.48730499999965,126.9228520000006,112.56396500000028,128.46142599999985,117.05126999999993,97.43603499999972,4.6152340000007825,84.10253900000043,-500.2563479999999,26.410155999999915
201,47.69238299999961,-352.9487299999996,23.461425999999847,-258.84619099999964,94.74365200000011,127.17968800000017,113.58984400000008,127.56396500000028,116.2822270000006,97.05126999999993,4.487304999999651,85.0,-499.61547900000005,31.282227000000603
202,51.53857400000015,-349.7436520000001,27.17968800000017,-258.97436500000003,100.51269500000035,128.7177729999994,118.3334960000002,132.05126999999993,120.25634799999989,100.12841800000024,7.43603499999972,86.53857400000015,-496.15380900000036,37.56396500000028
203,55.25634799999989,-346.15380900000036,32.94873000000007,-256.02563499999997,107.05126999999993,130.38476599999922,123.58984400000008,136.79492200000004,124.48730499999965,103.3334960000002,10.384765999999217,87.56396500000028,-494.2307130000004,41.025878999999804
204,56.153809000000365,-346.923096,37.30761700000039,-252.43579099999943,108.9741210000002,130.89746099999957,126.6665039999998,138.0771479999994,124.74365200000011,103.7177729999994,11.666503999999804,87.69238299999961,-495.5129390000002,40.0
205,54.61523400000078,-351.923096,38.589844000000085,-250.89746100000002,105.0,130.2563479999999,126.53857400000015,135.2563479999999,120.51269500000035,101.53857400000015,10.897460999999566,87.43603499999972,-498.46142599999985,36.410155999999915
206,52.30761700000039,-356.923096,37.56396500000028,-252.179443,99.10253900000043,128.20507799999996,124.10253900000043,131.15380900000036,115.25634799999989,99.10253900000043,9.487304999999651,87.82031300000017,-499.7436520000001,33.974121000000196
207,49.87158199999976,-357.6923829999996,36.410155999999915,-255.38452099999995,97.17968800000017,125.25634799999989,121.0258789999998,128.7177729999994,112.43603499999972,98.3334960000002,8.846190999999635,88.20507799999996,-498.46142599999985,34.48730499999965
208,46.2822270000006,-354.4870609999998,36.2822270000006,-257.9487299999996,101.41015599999992,121.53857400000015,118.3334960000002,128.84619099999964,113.3334960000002,98.84619099999964,9.743652000000111,87.56396500000028,-496.79492200000004,37.30761700000039
209,41.025878999999804,-351.28198199999997,37.05126999999993,-258.076904,108.9741210000002,117.82031300000017,116.2822270000006,130.2563479999999,116.0258789999998,98.9741210000002,11.922852000000603,85.64111300000059,-496.79492200000004,39.48730499999965
210,36.666503999999804,-352.179443,38.0771479999994,-255.0,114.74365200000011,115.38476599999922,115.76904300000024,131.41015599999992,118.3334960000002,98.46142599999985,14.743652000000111,84.48730499999965,-496.79492200000004,39.74365200000011
211,36.153809000000365,-356.66674799999964,38.846190999999635,-250.1281740000004,115.76904300000024,114.74365200000011,117.17968800000017,131.9228520000006,119.10253900000043,99.35888699999941,18.461425999999847,85.89746099999957,-493.84619099999964,39.102539000000434
212,40.64111300000059,-360.64111300000013,39.102539000000434,-246.15380900000036,112.82031300000017,115.64111300000059,120.25634799999989,132.3076170000004,119.10253900000043,103.3334960000002,22.17968800000017,90.0,-487.0512700000004,39.48730499999965
213,47.05126999999993,-360.38452099999995,38.7177729999994,-245.2563479999999,108.7177729999994,116.9228520000006,122.94873000000007,133.20507799999996,119.10253900000043,109.10253900000043,24.358886999999413,94.48730499999965,-480.38452099999995,41.153809000000365
214,50.51269500000035,-356.53857400000015,37.94873000000007,-247.56420900000057,105.64111300000059,117.82031300000017,123.0771479999994,133.9741210000002,119.23095699999976,112.94873000000007,23.589844000000085,96.79492200000004,-478.71801800000003,42.56396500000028
215,48.46142599999985,-352.820557,37.17968800000017,-250.38452099999995,104.35888699999941,118.0771479999994,120.76904300000024,133.84619099999964,118.7177729999994,111.9228520000006,21.025878999999804,95.51269500000035,-483.20507799999996,41.9228520000006
216,42.43603499999972,-352.9487299999996,37.17968800000017,-251.15380900000036,103.84619099999964,118.20507799999996,117.56396500000028,132.43603499999972,117.56396500000028,107.30761700000039,20.128418000000238,91.53857400000015,-490.1281740000004,39.61523400000078
217,36.79492200000004,-357.179443,38.20507799999996,-248.84619099999964,103.46142599999985,118.46142599999985,116.0258789999998,130.6411130000006,117.17968800000017,103.58984400000008,23.333496000000196,87.56396500000028,-493.33325200000036,38.333496000000196
218,35.0,-361.923096,40.0,-244.35888699999987,102.94873000000007,119.10253900000043,116.6665039999998,129.7436520000001,118.7177729999994,104.61523400000078,30.128418000000238,86.0258789999998,-490.0,39.61523400000078
219,37.30761700000039,-363.71801800000003,41.410155999999915,-240.2563479999999,102.82031300000017,119.74365200000011,118.20507799999996,130.12841800000024,121.41015599999992,110.0,36.025878999999804,87.43603499999972,-482.179443,42.05126999999993
220,41.025878999999804,-361.66674799999964,41.025878999999804,-238.97436500000003,103.0771479999994,120.0,118.7177729999994,130.89746099999957,122.94873000000007,115.64111300000059,36.9228520000006,90.0,-475.5129390000002,42.82031300000017
221,44.102539000000434,-357.3076170000004,39.102539000000434,-240.0,103.58984400000008,120.12841800000024,117.30761700000039,131.0258789999998,122.30761700000039,117.56396500000028,32.43603499999972,91.9228520000006,-473.46142599999985,41.153809000000365
222,46.410155999999915,-352.6923829999996,37.30761700000039,-240.76928699999962,103.84619099999964,120.25634799999989,115.64111300000059,130.6411130000006,121.0258789999998,115.0,26.538574000000153,93.0771479999994,-475.64111300000013,39.102539000000434
223,49.102539000000434,-349.61547900000005,37.82031300000017,-238.71801800000003,103.58984400000008,120.12841800000024,115.51269500000035,130.51269500000035,121.15380900000036,111.41015599999992,23.846190999999635,94.61523400000078,-478.076904,39.61523400000078
224,51.9228520000006,-348.20507799999996,40.64111300000059,-235.1281740000004,102.82031300000017,119.23095699999976,118.0771479999994,131.15380900000036,123.46142599999985,110.0,25.769043000000238,96.79492200000004,-477.6923829999996,43.20507799999996
225,53.46142599999985,-348.20507799999996,43.333496000000196,-233.58984399999963,102.05126999999993,117.94873000000007,121.79492200000004,132.3076170000004,126.2822270000006,112.30761700000039,30.384765999999217,98.20507799999996,-474.4870609999998,47.43603499999972
226,52.43603499999972,-348.58984399999963,43.46142599999985,-236.15380900000036,102.43603499999972,116.79492200000004,124.10253900000043,133.84619099999964,127.82031300000017,116.2822270000006,34.102539000000434,97.69238299999961,-471.15380900000036,49.23095699999976
227,48.846190999999635,-348.71801800000003,40.0,-241.923096,104.23095699999976,116.15380900000036,124.23095699999976,135.76904300000024,126.9228520000006,118.3334960000002,34.48730499999965,95.12841800000024,-470.897461,47.56396500000028
228,43.846190999999635,-350.0,34.48730499999965,-248.20507799999996,105.0,116.2822270000006,122.94873000000007,137.17968800000017,123.9741210000002,115.38476599999922,30.897460999999566,91.79492200000004,-475.1281740000004,43.20507799999996
229,39.35888699999941,-354.2307130000004,28.974121000000196,-253.58984399999963,100.76904300000024,116.53857400000015,121.79492200000004,136.2822270000006,119.35888699999941,106.79492200000004,24.358886999999413,88.58984400000008,-483.58984399999963,38.0771479999994
230,36.025878999999804,-362.179443,24.74365200000011,-257.6923829999996,90.0,116.79492200000004,121.0258789999998,131.2822270000006,113.20507799999996,95.51269500000035,16.538574000000153,85.51269500000035,-494.35888699999987,34.35888699999941
231,33.0771479999994,-371.02563499999997,22.05126999999993,-260.64111300000013,76.53857400000015,117.05126999999993,119.35888699999941,122.69238299999961,106.53857400000015,86.41015599999992,8.333496000000196,82.05126999999993,-504.4870609999998,33.20507799999996
232,30.384765999999217,-375.64111300000013,20.51269500000035,-261.79492200000004,68.0771479999994,117.43603499999972,115.64111300000059,113.46142599999985,101.15380900000036,83.0771479999994,1.153809000000365,78.7177729999994,-510.38452099999995,34.35888699999941
233,29.230956999999762,-373.076904,20.769043000000238,-260.7692869999996,70.51269500000035,117.94873000000007,110.64111300000059,107.82031300000017,98.84619099999964,85.89746099999957,-2.8203119999998307,77.05126999999993,-509.2307130000004,35.897460999999566
234,30.51269500000035,-365.0,22.82031300000017,-257.820557,82.94873000000007,118.3334960000002,106.6665039999998,108.20507799999996,99.61523400000078,91.9228520000006,-1.6665039999998044,78.0771479999994,-502.0512700000004,36.410155999999915
235,33.7177729999994,-356.66674799999964,26.538574000000153,-254.23071300000038,97.94873000000007,118.7177729999994,105.25634799999989,112.82031300000017,102.17968800000017,97.05126999999993,4.871581999999762,81.53857400000015,-493.20507799999996,36.410155999999915
236,36.79492200000004,-352.9487299999996,30.897460999999566,-251.02563499999997,106.6665039999998,118.84619099999964,106.41015599999992,117.82031300000017,105.0,97.94873000000007,13.589844000000085,85.38476599999922,-488.20507799999996,37.56396500000028
237,38.0771479999994,-354.35888699999987,35.12841800000024,-247.820557,105.76904300000024,118.46142599999985,109.10253900000043,120.12841800000024,107.30761700000039,94.87158199999976,20.25634799999989,87.69238299999961,-488.46142599999985,40.51269500000035
238,38.20507799999996,-357.4357909999994,38.46142599999985,-243.84619099999964,99.35888699999941,117.94873000000007,112.30761700000039,119.35888699999941,108.9741210000002,91.15380900000036,21.794922000000042,87.94873000000007,-491.15380900000036,44.23095699999976
239,38.46142599999985,-357.6923829999996,40.25634799999989,-238.84619099999964,94.61523400000078,117.30761700000039,115.89746099999957,117.69238299999961,110.12841800000024,91.15380900000036,18.974121000000196,87.43603499999972,-491.53857400000015,47.05126999999993
240,38.974121000000196,-354.4870609999998,40.51269500000035,-233.71801800000003,94.74365200000011,117.05126999999993,118.7177729999994,117.43603499999972,111.41015599999992,95.38476599999922,14.871581999999762,87.56396500000028,-487.9487299999996,47.94873000000007
241,37.94873000000007,-351.53857400000015,39.102539000000434,-230.1281740000004,96.41015599999992,117.17968800000017,119.23095699999976,118.46142599999985,111.9228520000006,99.74365200000011,11.922852000000603,88.46142599999985,-483.46142599999985,46.410155999999915
242,32.56396500000028,-354.102539,35.897460999999566,-229.4870609999998,94.48730499999965,117.56396500000028,116.15380900000036,118.20507799999996,109.74365200000011,98.3334960000002,9.487304999999651,88.3334960000002,-484.35888699999987,42.30761700000039
243,22.30761700000039,-363.71801800000003,31.025878999999804,-232.43579099999943,86.79492200000004,117.56396500000028,109.87158199999976,113.9741210000002,103.3334960000002,89.10253900000043,5.512695000000349,85.51269500000035,-493.33325200000036,36.666503999999804
244,10.128418000000238,-376.53857400000015,25.384765999999217,-238.46142599999985,76.53857400000015,117.05126999999993,103.3334960000002,106.15380900000036,94.35888699999941,76.0258789999998,-1.153809000000365,80.51269500000035,-507.0512700000004,31.666503999999804
245,0.512695000000349,-386.41015600000037,20.897460999999566,-244.7436520000001,69.48730499999965,115.89746099999957,99.87158199999976,98.58984400000008,86.79492200000004,66.6665039999998,-8.71801800000003,76.0258789999998,-518.076904,29.358886999999413
246,-3.077147999999397,-389.4870609999998,18.974121000000196,-246.66674799999964,69.35888699999941,114.87158199999976,100.51269500000035,95.89746099999957,84.48730499999965,66.0258789999998,-14.487060999999812,74.61523400000078,-521.025635,30.25634799999989
247,-0.769043000000238,-386.41015600000037,20.897460999999566,-240.89746100000002,75.25634799999989,114.48730499999965,104.61523400000078,99.48730499999965,86.79492200000004,72.94873000000007,-15.897461000000021,76.79492200000004,-515.1281740000004,32.94873000000007
248,5.897460999999566,-380.2563479999999,26.666503999999804,-228.076904,83.7177729999994,115.0,110.12841800000024,106.9228520000006,91.6665039999998,82.43603499999972,-11.794922000000042,80.76904300000024,-504.2307130000004,35.897460999999566
249,15.0,-372.9487299999996,35.51269500000035,-212.179443,92.43603499999972,116.2822270000006,115.64111300000059,114.87158199999976,97.69238299999961,90.0,-2.0512699999999313,84.74365200000011,-492.6923829999996,39.23095699999976
250,25.25634799999989,-363.97436500000003,45.76904300000024,-198.84619099999964,100.76904300000024,117.69238299999961,121.0258789999998,122.30761700000039,106.15380900000036,95.51269500000035,11.538574000000153,88.3334960000002,-482.3076170000004,43.974121000000196
251,34.61523400000078,-352.9487299999996,54.48730499999965,-192.43579099999943,108.84619099999964,118.7177729999994,126.2822270000006,129.10253900000043,117.69238299999961,100.89746099999957,24.871581999999762,91.79492200000004,-473.84619099999964,50.38476599999922
252,40.25634799999989,-342.6923829999996,58.333496000000196,-193.97436500000003,114.23095699999976,119.23095699999976,130.38476599999922,134.61523400000078,129.10253900000043,106.53857400000015,32.56396500000028,94.48730499999965,-468.46142599999985,56.025878999999804
253,39.23095699999976,-338.20507799999996,55.0,-200.64111300000013,114.10253900000043,118.84619099999964,130.38476599999922,136.2822270000006,133.58984400000008,110.38476599999922,31.410155999999915,94.48730499999965,-468.20507799999996,56.79492200000004
254,32.17968800000017,-342.4357909999994,46.025878999999804,-207.3076170000004,107.94873000000007,117.69238299999961,125.51269500000035,132.43603499999972,127.69238299999961,109.74365200000011,22.94873000000007,91.2822270000006,-473.20507799999996,51.53857400000015
255,23.846190999999635,-351.66674799999964,37.30761700000039,-209.8718259999996,98.7177729999994,116.2822270000006,118.3334960000002,125.38476599999922,115.0,105.25634799999989,13.077147999999397,86.79492200000004,-480.2563479999999,43.46142599999985
256,19.615234000000783,-358.97436500000003,34.61523400000078,-207.820557,91.0258789999998,115.12841800000024,113.84619099999964,119.61523400000078,103.9741210000002,100.0,8.461425999999847,84.23095699999976,-484.7436520000001,37.82031300000017
257,21.025878999999804,-360.2563479999999,39.48730499999965,-204.10253899999998,87.17968800000017,114.74365200000011,114.10253900000043,117.94873000000007,100.51269500000035,96.79492200000004,11.538574000000153,85.51269500000035,-485.2563479999999,37.56396500000028
258,24.358886999999413,-356.923096,47.56396500000028,-202.0512700000004,86.79492200000004,115.51269500000035,117.17968800000017,120.12841800000024,104.23095699999976,96.41015599999992,18.846190999999635,89.87158199999976,-483.46142599999985,42.05126999999993
259,25.641113000000587,-353.076904,53.333496000000196,-202.3076170000004,89.35888699999941,117.17968800000017,119.23095699999976,123.84619099999964,110.89746099999957,98.7177729999994,25.384765999999217,94.87158199999976,-481.53857400000015,47.94873000000007
260,24.48730499999965,-350.64111300000013,54.35888699999941,-202.3076170000004,94.74365200000011,118.9741210000002,119.35888699999941,127.82031300000017,116.6665039999998,103.3334960000002,29.230956999999762,99.23095699999976,-478.71801800000003,52.17968800000017
261,24.48730499999965,-347.5642090000006,53.0771479999994,-199.10253899999998,102.82031300000017,120.12841800000024,119.35888699999941,132.82031300000017,120.76904300000024,109.48730499999965,31.666503999999804,101.79492200000004,-473.71801800000003,53.974121000000196
262,27.82031300000017,-341.02563499999997,52.82031300000017,-191.66674799999964,110.89746099999957,120.64111300000059,121.41015599999992,138.58984400000008,124.23095699999976,115.76904300000024,34.35888699999941,102.17968800000017,-466.79492200000004,53.974121000000196
263,33.46142599999985,-332.4357909999994,55.0,-182.56420900000057,114.35888699999941,120.38476599999922,125.0,144.10253900000043,127.56396500000028,119.87158199999976,37.05126999999993,100.76904300000024,-461.28198199999997,53.974121000000196
264,37.56396500000028,-325.897461,57.43603499999972,-175.38452099999995,110.51269500000035,120.12841800000024,127.82031300000017,147.17968800000017,129.48730499999965,119.74365200000011,37.94873000000007,98.0771479999994,-460.1281740000004,53.846190999999635
265,37.43603499999972,-325.7692869999996,57.17968800000017,-172.43579099999943,101.0258789999998,119.74365200000011,127.30761700000039,146.2822270000006,128.46142599999985,115.12841800000024,35.25634799999989,95.12841800000024,-464.7436520000001,52.82031300000017
266,32.43603499999972,-332.4357909999994,53.20507799999996,-174.4870609999998,91.6665039999998,118.9741210000002,123.0771479999994,141.53857400000015,123.84619099999964,108.20507799999996,28.846190999999635,92.69238299999961,-473.20507799999996,50.0
267,25.0,-342.179443,46.79492200000004,-180.89746100000002,86.79492200000004,117.69238299999961,116.9228520000006,134.3588869999994,117.43603499999972,101.53857400000015,21.153809000000365,91.15380900000036,-482.3076170000004,45.25634799999989
268,17.69238299999961,-349.7436520000001,40.38476599999922,-188.97436500000003,86.41015599999992,116.15380900000036,111.2822270000006,127.43603499999972,112.43603499999972,96.79492200000004,15.384765999999217,91.0258789999998,-489.102539,39.87158199999976
269,12.948730000000069,-351.923096,36.025878999999804,-194.7436520000001,87.05126999999993,114.87158199999976,107.82031300000017,122.82031300000017,111.15380900000036,94.87158199999976,13.333496000000196,91.53857400000015,-492.4357909999994,36.153809000000365
270,10.897460999999566,-348.71801800000003,34.35888699999941,-194.35888699999987,86.0258789999998,114.61523400000078,106.53857400000015,121.6665039999998,113.7177729999994,95.64111300000059,14.743652000000111,90.89746099999957,-492.9487299999996,35.76904300000024
271,11.025878999999804,-343.20507799999996,34.74365200000011,-186.66674799999964,83.9741210000002,115.51269500000035,107.05126999999993,122.94873000000007,117.17968800000017,98.58984400000008,17.30761700000039,88.0771479999994,-491.923096,38.846190999999635
272,12.56396500000028,-338.46142599999985,36.79492200000004,-174.61547900000005,84.10253900000043,117.43603499999972,109.35888699999941,124.48730499999965,118.84619099999964,102.43603499999972,18.846190999999635,84.35888699999941,-490.1281740000004,43.974121000000196
273,15.384765999999217,-334.7436520000001,40.897460999999566,-162.9487299999996,89.35888699999941,119.23095699999976,112.82031300000017,125.89746099999957,118.84619099999964,106.79492200000004,19.871581999999762,82.43603499999972,-486.53857400000015,48.846190999999635
274,19.615234000000783,-329.8718259999996,47.05126999999993,-155.1281740000004,99.23095699999976,119.87158199999976,116.53857400000015,127.69238299999961,120.0,111.53857400000015,22.82031300000017,84.61523400000078,-479.35888699999987,52.43603499999972
275,24.615234000000783,-322.820557,53.846190999999635,-151.41015600000037,109.10253900000043,119.35888699999941,119.10253900000043,130.6411130000006,124.48730499999965,116.53857400000015,29.230956999999762,90.38476599999922,-468.58984399999963,54.48730499999965
276,28.461425999999847,-315.7692869999996,58.846190999999635,-149.23071300000038,113.3334960000002,118.20507799999996,120.0,133.46142599999985,130.89746099999957,121.2822270000006,38.20507799999996,96.53857400000015,-456.66674799999964,55.25634799999989
277,29.230956999999762,-312.5642090000006,60.25634799999989,-146.28198199999997,109.48730499999965,117.30761700000039,119.35888699999941,133.9741210000002,135.2563479999999,124.87158199999976,46.410155999999915,99.48730499999965,-446.79492200000004,55.0
278,26.666503999999804,-315.0,58.0771479999994,-142.56420900000057,100.25634799999989,116.79492200000004,117.56396500000028,131.6665039999998,134.87158199999976,126.41015599999992,50.25634799999989,97.82031300000017,-441.41015600000037,54.23095699999976
279,22.69238299999961,-320.897461,54.35888699999941,-139.8718259999996,91.79492200000004,116.2822270000006,115.0,127.82031300000017,130.0,125.51269500000035,48.846190999999635,93.20507799999996,-440.0,53.846190999999635
280,19.358886999999413,-325.7692869999996,51.2822270000006,-139.23071300000038,88.7177729999994,115.12841800000024,111.79492200000004,123.7177729999994,123.3334960000002,122.17968800000017,43.7177729999994,88.46142599999985,-441.79492200000004,54.102539000000434
281,17.30761700000039,-326.923096,49.87158199999976,-140.5129390000002,91.53857400000015,113.58984400000008,108.0771479999994,119.35888699999941,117.43603499999972,116.9228520000006,37.69238299999961,85.38476599999922,-445.897461,54.102539000000434
282,16.410155999999915,-324.2307130000004,50.0,-141.923096,97.17968800000017,112.56396500000028,105.25634799999989,115.25634799999989,114.10253900000043,112.05126999999993,34.102539000000434,84.74365200000011,-450.5129390000002,53.0771479999994
283,16.794922000000042,-318.71801800000003,51.153809000000365,-141.02563499999997,102.56396500000028,112.56396500000028,105.38476599999922,113.58984400000008,113.9741210000002,110.38476599999922,34.87158199999976,86.41015599999992,-452.4357909999994,51.79492200000004
284,19.102539000000434,-311.41015600000037,52.56396500000028,-136.02563499999997,105.89746099999957,113.58984400000008,109.74365200000011,115.76904300000024,116.53857400000015,112.69238299999961,38.846190999999635,89.74365200000011,-449.61547900000005,51.2822270000006
285,21.794922000000042,-304.2307130000004,53.333496000000196,-127.69238299999961,106.15380900000036,115.0,115.76904300000024,120.38476599999922,119.23095699999976,116.6665039999998,41.9228520000006,93.20507799999996,-443.33325200000036,52.05126999999993
286,23.205077999999958,-298.58984399999963,53.7177729999994,-118.84619099999964,103.7177729999994,116.0258789999998,119.23095699999976,123.58984400000008,119.74365200000011,118.20507799999996,41.153809000000365,95.51269500000035,-437.820557,53.7177729999994
287,22.94873000000007,-294.61547900000005,54.61523400000078,-112.30761700000039,100.38476599999922,116.41015599999992,118.3334960000002,123.46142599999985,117.94873000000007,116.2822270000006,38.333496000000196,96.15380900000036,-435.5129390000002,55.12841800000024
288,22.82031300000017,-291.02563499999997,57.30761700000039,-108.20507799999996,99.48730499999965,115.89746099999957,115.38476599999922,121.0258789999998,116.0258789999998,113.84619099999964,38.333496000000196,96.79492200000004,-435.5129390000002,56.2822270000006
289,24.615234000000783,-286.79492200000004,61.666503999999804,-103.84619099999964,102.30761700000039,115.12841800000024,113.7177729999994,119.48730499999965,116.2822270000006,115.51269500000035,44.61523400000078,98.20507799999996,-434.7436520000001,57.30761700000039
290,27.69238299999961,-283.076904,66.15380900000036,-98.20507799999996,107.56396500000028,115.0,114.87158199999976,120.51269500000035,119.10253900000043,121.0258789999998,54.23095699999976,99.87158199999976,-431.79492200000004,58.20507799999996
291,28.589844000000085,-282.179443,67.82031300000017,-93.07690400000001,111.15380900000036,115.25634799999989,117.05126999999993,123.0771479999994,122.17968800000017,125.76904300000024,60.38476599999922,100.25634799999989,-428.076904,58.589844000000085
292,24.358886999999413,-285.897461,64.35888699999941,-91.53857400000015,109.74365200000011,115.76904300000024,117.05126999999993,123.7177729999994,122.56396500000028,124.87158199999976,58.0771479999994,98.7177729999994,-426.53857400000015,57.56396500000028
293,15.641113000000587,-293.20507799999996,56.9228520000006,-95.1281740000004,104.10253900000043,115.76904300000024,113.7177729999994,120.38476599999922,119.35888699999941,117.82031300000017,48.46142599999985,95.51269500000035,-428.33325200000036,55.25634799999989
294,6.282227000000603,-301.02563499999997,49.48730499999965,-102.05127000000039,97.82031300000017,115.64111300000059,108.84619099999964,114.87158199999976,114.61523400000078,108.20507799999996,38.20507799999996,92.17968800000017,-432.5642090000006,52.56396500000028
295,1.4101559999999154,-305.7692869999996,46.410155999999915,-107.82055700000001,94.23095699999976,115.64111300000059,106.79492200000004,110.89746099999957,111.41015599999992,101.2822270000006,33.589844000000085,90.51269500000035,-436.53857400000015,50.64111300000059
296,4.743652000000111,-304.8718259999996,49.61523400000078,-108.71801800000003,95.25634799999989,115.89746099999957,110.12841800000024,112.05126999999993,111.79492200000004,100.89746099999957,37.30761700000039,91.79492200000004,-436.66674799999964,50.897460999999566
297,15.897460999999566,-297.3076170000004,57.94873000000007,-103.46142599999985,100.51269500000035,116.41015599999992,117.69238299999961,118.84619099999964,116.2822270000006,107.56396500000028,46.666503999999804,96.0258789999998,-430.897461,54.23095699999976
298,29.871581999999762,-286.41015600000037,67.17968800000017,-94.61547900000005,106.9228520000006,116.9228520000006,125.25634799999989,127.82031300000017,122.56396500000028,117.30761700000039,56.2822270000006,101.6665039999998,-421.02563499999997,59.87158199999976
299,38.846190999999635,-278.20507799999996,73.0771479999994,-86.41015600000037,110.38476599999922,117.17968800000017,128.20507799999996,132.82031300000017,126.41015599999992,123.58984400000008,60.64111300000059,105.76904300000024,-412.9487299999996,64.35888699999941
300,37.94873000000007,-277.6923829999996,73.58984400000008,-82.17944299999999,108.46142599999985,117.05126999999993,125.0,129.3588869999994,125.12841800000024,122.17968800000017,58.0771479999994,106.15380900000036,-412.3076170000004,64.74365200000011
301,29.102539000000434,-283.46142599999985,70.12841800000024,-81.66674799999964,102.82031300000017,116.6665039999998,118.46142599999985,119.48730499999965,119.10253900000043,114.23095699999976,51.666503999999804,103.58984400000008,-418.84619099999964,60.897460999999566
302,20.384765999999217,-288.33325200000036,66.0258789999998,-82.30761700000039,98.58984400000008,116.2822270000006,112.82031300000017,110.38476599999922,112.56396500000028,106.0258789999998,47.17968800000017,100.25634799999989,-425.5129390000002,56.666503999999804
303,19.358886999999413,-285.897461,64.48730499999965,-81.28198199999997,100.25634799999989,116.0258789999998,111.6665039999998,108.7177729999994,110.0,103.58984400000008,47.56396500000028,98.46142599999985,-425.0,56.025878999999804
304,26.282227000000603,-276.66674799999964,66.41015599999992,-78.07690400000001,108.3334960000002,116.0258789999998,114.61523400000078,115.38476599999922,112.94873000000007,108.46142599999985,51.53857400000015,98.9741210000002,-415.897461,59.61523400000078
305,34.61523400000078,-268.076904,69.74365200000011,-74.61547900000005,117.94873000000007,115.64111300000059,118.58984400000008,125.38476599999922,118.58984400000008,116.79492200000004,55.12841800000024,101.0258789999998,-404.61547900000005,64.61523400000078
306,37.05126999999993,-266.53857400000015,72.05126999999993,-72.56420900000057,123.58984400000008,115.0,120.25634799999989,132.94873000000007,122.82031300000017,123.0771479999994,55.897460999999566,103.20507799999996,-398.58984399999963,66.9228520000006
307,31.410155999999915,-271.923096,71.2822270000006,-71.92309599999999,123.3334960000002,115.0,119.35888699999941,135.2563479999999,123.0771479999994,123.7177729999994,54.48730499999965,104.48730499999965,-400.897461,64.61523400000078
308,22.05126999999993,-278.71801800000003,67.82031300000017,-71.15380900000036,118.9741210000002,116.0258789999998,117.56396500000028,133.20507799999996,120.25634799999989,118.58984400000008,52.69238299999961,104.35888699999941,-408.46142599999985,59.102539000000434
309,15.128418000000238,-281.41015600000037,63.46142599999985,-70.25634799999989,112.94873000000007,117.43603499999972,116.41015599999992,129.3588869999994,116.79492200000004,110.51269500000035,51.666503999999804,102.69238299999961,-415.5129390000002,53.589844000000085
310,13.717772999999397,-278.84619099999964,60.0,-70.89746100000002,106.53857400000015,117.82031300000017,116.0258789999998,125.76904300000024,114.23095699999976,103.3334960000002,50.38476599999922,100.25634799999989,-418.076904,51.153809000000365
311,16.794922000000042,-274.2307130000004,58.0771479999994,-73.33325200000036,99.74365200000011,116.2822270000006,115.25634799999989,122.82031300000017,112.05126999999993,99.74365200000011,47.82031300000017,98.84619099999964,-415.897461,52.43603499999972
312,20.769043000000238,-271.41015600000037,57.43603499999972,-75.0,93.84619099999964,113.58984400000008,113.58984400000008,120.38476599999922,109.61523400000078,100.38476599999922,44.102539000000434,99.35888699999941,-410.897461,55.64111300000059
313,22.82031300000017,-271.53857400000015,57.69238299999961,-72.30761700000039,90.64111300000059,111.15380900000036,111.2822270000006,118.58984400000008,106.79492200000004,103.20507799999996,40.25634799999989,101.0258789999998,-406.41015600000037,57.82031300000017
314,22.17968800000017,-273.076904,57.94873000000007,-65.1281740000004,91.41015599999992,110.64111300000059,109.87158199999976,117.43603499999972,104.10253900000043,105.12841800000024,37.69238299999961,101.2822270000006,-405.0,57.56396500000028
315,19.615234000000783,-273.46142599999985,58.0771479999994,-57.30761700000039,95.38476599999922,112.17968800000017,110.25634799999989,116.53857400000015,102.05126999999993,104.23095699999976,36.79492200000004,98.84619099999964,-406.53857400000015,55.64111300000059
316,16.922852000000603,-271.53857400000015,58.0771479999994,-53.71801800000003,99.87158199999976,115.64111300000059,112.05126999999993,115.51269500000035,101.41015599999992,101.9228520000006,37.17968800000017,95.0,-408.46142599999985,53.846190999999635
317,15.256347999999889,-267.9487299999996,58.7177729999994,-54.74365200000011,103.0771479999994,118.7177729999994,114.35888699999941,115.12841800000024,102.43603499999972,101.15380900000036,38.333496000000196,92.05126999999993,-407.179443,53.974121000000196
318,13.846190999999635,-265.1281740000004,59.61523400000078,-57.30761700000039,103.84619099999964,119.10253900000043,115.64111300000059,115.76904300000024,104.61523400000078,103.3334960000002,39.102539000000434,91.53857400000015,-401.79492200000004,55.64111300000059
319,11.666503999999804,-265.897461,59.61523400000078,-56.79492200000004,102.30761700000039,115.38476599999922,114.87158199999976,116.9228520000006,106.53857400000015,107.17968800000017,38.333496000000196,92.82031300000017,-395.5129390000002,56.79492200000004
320,8.205077999999958,-269.61547900000005,58.20507799999996,-51.53857400000015,100.12841800000024,109.48730499999965,112.69238299999961,116.9228520000006,106.6665039999998,109.74365200000011,36.153809000000365,93.9741210000002,-392.179443,55.897460999999566
321,5.256347999999889,-272.3076170000004,56.666503999999804,-42.69238299999961,98.9741210000002,104.87158199999976,110.89746099999957,115.38476599999922,105.51269500000035,109.61523400000078,34.23095699999976,93.0771479999994,-393.20507799999996,53.46142599999985
322,5.0,-269.7436520000001,56.666503999999804,-34.74365200000011,99.74365200000011,103.0771479999994,110.89746099999957,113.20507799999996,104.61523400000078,107.69238299999961,34.87158199999976,90.12841800000024,-396.79492200000004,51.53857400000015
323,7.948730000000069,-262.6923829999996,58.46142599999985,-32.051270000000386,101.15380900000036,104.10253900000043,112.43603499999972,111.6665039999998,104.87158199999976,105.89746099999957,37.94873000000007,87.17968800000017,-400.0,51.410155999999915
324,11.794922000000042,-255.89746100000002,60.51269500000035,-35.64111300000013,101.2822270000006,106.41015599999992,113.7177729999994,110.89746099999957,105.51269500000035,104.48730499999965,40.897460999999566,86.53857400000015,-401.15380900000036,52.82031300000017
325,13.077147999999397,-253.20507799999996,60.64111300000059,-41.79492200000004,100.0,108.3334960000002,113.20507799999996,110.64111300000059,104.61523400000078,102.94873000000007,41.666503999999804,89.23095699999976,-399.8718259999996,54.74365200000011
326,10.641113000000587,-253.58984399999963,58.589844000000085,-45.25634799999989,99.61523400000078,108.46142599999985,111.0258789999998,110.38476599999922,101.6665039999998,100.76904300000024,40.38476599999922,93.46142599999985,-396.79492200000004,56.153809000000365
327,6.666503999999804,-252.9487299999996,56.410155999999915,-42.82055700000001,103.0771479999994,107.17968800000017,108.9741210000002,110.38476599999922,99.48730499999965,99.23095699999976,39.35888699999941,97.30761700000039,-392.4357909999994,56.153809000000365
328,5.128418000000238,-248.20507799999996,57.43603499999972,-35.89746100000002,110.12841800000024,106.15380900000036,109.35888699999941,111.0258789999998,100.64111300000059,100.25634799999989,41.153809000000365,99.48730499999965,-386.923096,55.897460999999566
329,8.846190999999635,-240.38452099999995,62.69238299999961,-27.820557000000008,117.43603499999972,106.41015599999992,112.69238299999961,112.94873000000007,105.38476599999922,104.61523400000078,46.410155999999915,100.12841800000024,-380.0,56.2822270000006
330,16.410155999999915,-234.10253899999998,69.23095699999976,-21.794922000000042,121.0258789999998,107.82031300000017,117.05126999999993,115.38476599999922,111.15380900000036,110.51269500000035,52.56396500000028,99.35888699999941,-373.20507799999996,57.43603499999972
331,22.05126999999993,-234.4870609999998,72.17968800000017,-18.974365000000034,118.58984400000008,108.7177729999994,118.7177729999994,115.89746099999957,113.84619099999964,113.9741210000002,55.0,97.30761700000039,-369.4870609999998,57.69238299999961
332,20.0,-243.33325200000036,68.46142599999985,-19.230713000000378,110.89746099999957,107.82031300000017,115.0,112.17968800000017,110.25634799999989,111.6665039999998,50.51269500000035,93.9741210000002,-371.53857400000015,55.12841800000024
333,9.102539000000434,-256.02563499999997,59.87158199999976,-21.025634999999966,101.0258789999998,105.89746099999957,106.9228520000006,104.48730499999965,101.41015599999992,104.10253900000043,40.51269500000035,89.61523400000078,-379.102539,50.64111300000059
334,-3.717772999999397,-263.71801800000003,52.56396500000028,-22.30761700000039,94.10253900000043,104.35888699999941,99.35888699999941,96.9228520000006,92.43603499999972,95.38476599999922,31.410155999999915,85.76904300000024,-386.79492200000004,47.94873000000007
335,-8.846190999999635,-258.84619099999964,52.43603499999972,-20.641113000000132,94.61523400000078,105.12841800000024,97.69238299999961,95.64111300000059,90.12841800000024,91.6665039999998,30.641113000000587,85.51269500000035,-387.5642090000006,51.025878999999804
336,-1.4101559999999154,-242.179443,60.64111300000059,-15.38452099999995,102.82031300000017,107.94873000000007,103.46142599999985,102.69238299999961,96.9228520000006,95.64111300000059,40.38476599999922,90.12841800000024,-378.20507799999996,59.74365200000011
337,13.974121000000196,-222.9487299999996,71.6665039999998,-8.205077999999958,113.7177729999994,110.89746099999957,112.17968800000017,113.84619099999964,108.20507799999996,103.9741210000002,55.0,97.82031300000017,-363.58984399999963,69.35888699999941
338,26.025878999999804,-212.820557,77.56396500000028,-3.3334960000001956,120.38476599999922,111.0258789999998,117.17968800000017,120.89746099999957,115.25634799999989,110.51269500000035,64.74365200000011,103.7177729999994,-353.076904,73.46142599999985
339,26.666503999999804,-216.79492200000004,74.87158199999976,-3.3334960000001956,119.23095699999976,107.82031300000017,115.12841800000024,118.3334960000002,112.94873000000007,110.51269500000035,63.333496000000196,104.61523400000078,-353.46142599999985,69.10253900000043
340,16.025878999999804,-229.35888699999987,67.69238299999961,-7.179442999999992,112.56396500000028,103.58984400000008,108.20507799999996,109.23095699999976,104.48730499999965,105.64111300000059,53.333496000000196,100.51269500000035,-362.9487299999996,59.61523400000078
341,2.4360349999997197,-239.7436520000001,63.0771479999994,-10.641113000000132,105.64111300000059,101.15380900000036,102.43603499999972,101.15380900000036,97.82031300000017,100.25634799999989,42.82031300000017,94.48730499999965,-373.33325200000036,51.410155999999915
342,-6.025634999999966,-241.66674799999964,64.61523400000078,-10.641113000000132,102.05126999999993,101.79492200000004,101.41015599999992,99.61523400000078,97.56396500000028,97.43603499999972,38.333496000000196,89.74365200000011,-377.6923829999996,48.7177729999994
343,-7.179442999999992,-237.43579099999943,68.84619099999964,-7.820557000000008,101.2822270000006,104.61523400000078,103.84619099999964,102.94873000000007,101.0258789999998,95.64111300000059,39.23095699999976,87.43603499999972,-375.38452099999995,51.153809000000365
344,-5.0,-233.71801800000003,70.38476599999922,-6.153809000000365,100.76904300000024,107.30761700000039,106.15380900000036,105.76904300000024,101.9228520000006,91.9228520000006,40.12841800000024,87.05126999999993,-371.28198199999997,54.87158199999976
345,-3.9741210000001956,-234.4870609999998,66.9228520000006,-8.71801800000003,99.87158199999976,107.94873000000007,105.64111300000059,105.0,97.43603499999972,87.05126999999993,36.53857400000015,87.43603499999972,-370.2563479999999,55.897460999999566
346,-5.641113000000132,-238.20507799999996,60.897460999999566,-15.512939000000188,100.12841800000024,106.15380900000036,102.94873000000007,102.05126999999993,90.64111300000059,84.48730499999965,28.974121000000196,87.94873000000007,-372.179443,53.846190999999635
347,-7.692382999999609,-240.64111300000013,57.30761700000039,-22.435790999999426,102.30761700000039,103.46142599999985,100.89746099999957,100.76904300000024,87.05126999999993,86.9228520000006,21.794922000000042,87.94873000000007,-373.84619099999964,50.76904300000024
348,-7.948729999999614,-239.35888699999987,58.974121000000196,-23.205077999999958,104.48730499999965,101.9228520000006,101.2822270000006,102.82031300000017,89.48730499999965,92.17968800000017,18.205077999999958,87.43603499999972,-372.179443,49.23095699999976
349,-6.794922000000042,-235.89746100000002,64.61523400000078,-15.769286999999622,103.3334960000002,102.43603499999972,103.3334960000002,106.2822270000006,95.38476599999922,95.12841800000024,18.589844000000085,86.15380900000036,-368.58984399999963,50.25634799999989
350,-6.025634999999966,-234.61547900000005,69.87158199999976,-3.3334960000001956,97.69238299999961,103.58984400000008,104.48730499999965,107.05126999999993,99.61523400000078,92.82031300000017,20.0,84.74365200000011,-366.28198199999997,52.05126999999993
351,-6.923095999999987,-237.179443,71.2822270000006,7.179688000000169,90.12841800000024,103.84619099999964,102.82031300000017,103.7177729999994,98.84619099999964,86.9228520000006,20.0,84.61523400000078,-367.0512700000004,52.69238299999961
352,-8.205077999999958,-241.53857400000015,69.10253900000043,9.871581999999762,85.38476599999922,102.82031300000017,99.61523400000078,98.84619099999964,94.35888699999941,82.56396500000028,19.358886999999413,87.17968800000017,-368.58984399999963,51.53857400000015
353,-8.076904000000013,-243.076904,65.76904300000024,4.230956999999762,86.6665039999998,101.53857400000015,98.3334960000002,97.82031300000017,90.76904300000024,84.10253900000043,20.641113000000587,92.17968800000017,-367.0512700000004,50.0
354,-6.538574000000153,-238.97436500000003,64.35888699999941,-5.769286999999622,92.82031300000017,101.15380900000036,100.64111300000059,103.7177729999994,92.30761700000039,91.41015599999992,25.641113000000587,97.82031300000017,-360.897461,49.23095699999976
355,-5.128174000000399,-230.38452099999995,65.64111300000059,-13.333252000000357,99.87158199999976,102.56396500000028,104.87158199999976,114.10253900000043,99.48730499999965,101.0258789999998,33.0771479999994,101.79492200000004,-351.923096,49.48730499999965
356,-4.871825999999601,-222.0512700000004,68.58984400000008,-13.846190999999635,103.46142599999985,105.64111300000059,107.56396500000028,123.20507799999996,108.58984400000008,108.58984400000008,39.61523400000078,102.82031300000017,-343.46142599999985,50.76904300000024
357,-5.38452099999995,-218.58984399999963,70.64111300000059,-7.307617000000391,102.82031300000017,109.48730499999965,106.9228520000006,125.51269500000035,115.0,112.05126999999993,42.30761700000039,101.15380900000036,-338.46142599999985,52.69238299999961
358,-5.641113000000132,-220.64111300000013,70.38476599999922,0.769043000000238,100.38476599999922,112.56396500000028,104.10253900000043,121.15380900000036,116.15380900000036,112.05126999999993,41.153809000000365,98.7177729999994,-337.4357909999994,55.0
359,-4.487060999999812,-225.1281740000004,68.58984400000008,4.487304999999651,100.25634799999989,114.10253900000043,102.17968800000017,114.35888699999941,113.46142599999985,110.64111300000059,39.23095699999976,97.56396500000028,-337.820557,56.53857400000015
360,-1.153809000000365,-226.41015600000037,68.20507799999996,2.3076170000003913,104.61523400000078,114.61523400000078,103.58984400000008,110.89746099999957,110.76904300000024,110.12841800000024,40.51269500000035,98.7177729999994,-336.02563499999997,57.17968800000017
361,4.871581999999762,-221.28198199999997,71.2822270000006,-2.3076170000003913,112.69238299999961,115.51269500000035,108.46142599999985,114.35888699999941,111.79492200000004,111.9228520000006,46.410155999999915,101.79492200000004,-329.4870609999998,57.30761700000039
362,12.17968800000017,-211.28198199999997,76.53857400000015,-5.38452099999995,120.25634799999989,116.9228520000006,114.61523400000078,123.46142599999985,117.17968800000017,115.76904300000024,54.87158199999976,104.35888699999941,-319.2307130000004,58.0771479999994
363,17.82031300000017,-202.3076170000004,81.0258789999998,-6.538574000000153,122.17968800000017,118.20507799999996,119.48730499999965,132.94873000000007,124.48730499999965,120.25634799999989,61.79492200000004,105.0,-309.2307130000004,59.87158199999976
364,18.717772999999397,-200.0,81.53857400000015,-8.333252000000357,117.05126999999993,118.3334960000002,121.15380900000036,137.43603499999972,129.87158199999976,123.7177729999994,64.48730499999965,103.84619099999964,-302.820557,61.666503999999804
365,13.974121000000196,-205.38452099999995,77.43603499999972,-12.948729999999614,108.3334960000002,117.30761700000039,119.87158199999976,134.7436520000001,130.6411130000006,125.25634799999989,62.82031300000017,102.69238299999961,-300.64111300000013,62.05126999999993
366,5.897460999999566,-213.71801800000003,70.76904300000024,-18.974365000000034,102.43603499999972,115.25634799999989,117.17968800000017,127.56396500000028,126.41015599999992,124.23095699999976,58.846190999999635,102.43603499999972,-300.7692869999996,60.897460999999566
367,-1.4101559999999154,-218.71801800000003,65.38476599999922,-22.564209000000574,103.46142599999985,113.58984400000008,115.12841800000024,121.41015599999992,120.0,121.53857400000015,55.51269500000035,102.94873000000007,-300.7692869999996,59.35888699999941
368,-4.230713000000378,-216.53857400000015,63.974121000000196,-21.153809000000365,110.0,113.20507799999996,114.35888699999941,120.64111300000059,115.51269500000035,119.23095699999976,54.35888699999941,103.58984400000008,-299.4870609999998,58.333496000000196
369,-1.9228520000006029,-209.7436520000001,66.79492200000004,-16.538574000000153,116.79492200000004,114.61523400000078,114.61523400000078,125.25634799999989,115.76904300000024,118.7177729999994,54.48730499999965,103.84619099999964,-297.9487299999996,57.82031300000017
370,2.8203130000001693,-203.97436500000003,70.64111300000059,-12.435790999999426,118.7177729999994,116.9228520000006,115.25634799999989,131.0258789999998,119.74365200000011,119.48730499999965,54.61523400000078,103.58984400000008,-297.6923829999996,57.30761700000039
371,6.666503999999804,-202.56420900000057,71.9228520000006,-12.307617000000391,114.74365200000011,118.58984400000008,115.76904300000024,133.46142599999985,123.58984400000008,120.0,53.7177729999994,102.94873000000007,-299.2307130000004,56.53857400000015
372,7.692382999999609,-203.97436500000003,69.35888699999941,-15.769286999999622,108.84619099999964,118.3334960000002,116.0258789999998,130.38476599999922,123.84619099999964,119.23095699999976,52.43603499999972,102.05126999999993,-301.02563499999997,56.2822270000006
373,6.538574000000153,-204.10253899999998,65.76904300000024,-18.974365000000034,106.9228520000006,116.41015599999992,116.15380900000036,123.9741210000002,119.87158199999976,117.30761700000039,51.666503999999804,101.6665039999998,-301.02563499999997,57.43603499999972
374,5.128418000000238,-200.76928699999962,64.61523400000078,-17.69238299999961,111.41015599999992,114.61523400000078,115.76904300000024,118.0771479999994,114.61523400000078,115.38476599999922,51.2822270000006,102.17968800000017,-297.9487299999996,59.87158199999976
375,5.3847659999992175,-195.64111300000013,66.79492200000004,-10.897461000000021,119.23095699999976,114.61523400000078,115.38476599999922,116.0258789999998,111.53857400000015,114.10253900000043,50.64111300000059,102.94873000000007,-292.4357909999994,62.56396500000028
376,7.179688000000169,-192.43579099999943,70.12841800000024,-2.4360349999997197,123.58984400000008,116.53857400000015,115.51269500000035,118.20507799999996,111.79492200000004,113.0771479999994,48.7177729999994,103.0771479999994,-287.179443,63.589844000000085
377,8.974121000000196,-193.97436500000003,70.89746099999957,1.2822270000006029,119.35888699999941,118.0771479999994,116.15380900000036,121.6665039999998,113.7177729999994,110.89746099999957,44.61523400000078,101.53857400000015,-285.5129390000002,61.666503999999804
378,8.846190999999635,-199.35888699999987,67.69238299999961,-2.4360349999997197,107.69238299999961,117.30761700000039,116.41015599999992,122.30761700000039,114.23095699999976,106.53857400000015,39.102539000000434,99.10253900000043,-288.58984399999963,57.30761700000039
379,6.922852000000603,-204.35888699999987,61.79492200000004,-10.641113000000132,96.0258789999998,113.46142599999985,115.0,117.30761700000039,111.41015599999992,101.0258789999998,34.23095699999976,96.6665039999998,-293.58984399999963,53.333496000000196
380,5.769043000000238,-204.4870609999998,57.05126999999993,-15.897461000000021,92.43603499999972,108.58984400000008,112.30761700000039,108.3334960000002,105.76904300000024,96.79492200000004,32.82031300000017,95.89746099999957,-295.5129390000002,52.69238299999961
381,8.205077999999958,-198.076904,57.05126999999993,-12.307617000000391,98.9741210000002,105.76904300000024,109.87158199999976,100.64111300000059,99.87158199999976,95.89746099999957,36.2822270000006,97.30761700000039,-291.28198199999997,56.79492200000004
382,15.0,-187.43579099999943,63.46142599999985,0.512695000000349,111.0258789999998,107.05126999999993,109.61523400000078,99.10253900000043,96.79492200000004,98.3334960000002,43.333496000000196,100.51269500000035,-281.923096,64.10253900000043
383,24.358886999999413,-177.0512700000004,74.10253900000043,16.538574000000153,120.76904300000024,111.9228520000006,111.41015599999992,103.9741210000002,98.3334960000002,102.30761700000039,50.76904300000024,103.9741210000002,-271.66674799999964,71.41015599999992
