,EEG.AF3,EEG.F7,EEG.F3,EEG.FC5,EEG.T7,EEG.P7,EEG.O1,EEG.O2,EEG.P8,EEG.T8,EEG.FC6,EEG.F4,EEG.F8,EEG.AF4
0,131.6665039999998,159.23095699999976,120.76904300000024,230.51269500000035,122.43603499999972,117.69238299999961,139.87158199999976,152.43603499999972,128.20507799999996,167.82031300000017,92.05126999999993,117.30761700000039,-21.41015600000037,111.2822270000006
1,124.61523400000078,147.17968800000017,114.35888699999941,210.2563479999999,109.74365200000011,115.0,134.23095699999976,145.89746099999957,127.30761700000039,160.89746099999957,86.2822270000006,116.41015599999992,-20.769286999999622,101.0258789999998
2,114.23095699999976,132.56396500000028,106.15380900000036,191.41015599999992,99.61523400000078,114.35888699999941,127.43603499999972,136.6665039999998,120.89746099999957,143.7177729999994,77.82031300000017,115.38476599999922,-21.666747999999643,90.25634799999989
3,102.94873000000007,120.0,97.94873000000007,173.7177729999994,94.87158199999976,115.25634799999989,121.9228520000006,124.10253900000043,108.20507799999996,118.7177729999994,68.20507799999996,113.0771479999994,-22.948729999999614,81.53857400000015
4,94.74365200000011,113.7177729999994,92.56396500000028,158.3334960000002,96.15380900000036,116.79492200000004,120.38476599999922,112.05126999999993,93.46142599999985,95.76904300000024,61.53857400000015,109.74365200000011,-22.051270000000386,77.17968800000017
5,93.46142599999985,115.89746099999957,92.56396500000028,147.43603499999972,101.41015599999992,117.94873000000007,123.84619099999964,107.30761700000039,84.74365200000011,85.76904300000024,62.17968800000017,107.30761700000039,-16.025634999999966,78.0771479999994
6,98.46142599999985,124.10253900000043,97.94873000000007,142.3076170000004,107.43603499999972,117.94873000000007,131.15380900000036,114.10253900000043,87.30761700000039,91.79492200000004,71.41015599999992,107.82031300000017,-5.0,83.0771479999994
7,106.15380900000036,132.82031300000017,105.76904300000024,141.53857400000015,111.41015599999992,117.43603499999972,138.7177729999994,129.10253900000043,98.84619099999964,106.41015599999992,84.87158199999976,111.2822270000006,7.051269999999931,90.0
8,111.79492200000004,137.43603499999972,112.05126999999993,141.53857400000015,113.0771479999994,117.56396500000028,142.94873000000007,143.20507799999996,112.05126999999993,118.3334960000002,96.41015599999992,116.15380900000036,16.282227000000603,96.2822270000006
9,113.3334960000002,136.9228520000006,114.74365200000011,139.7436520000001,114.35888699999941,118.20507799999996,142.17968800000017,148.46142599999985,120.38476599999922,120.76904300000024,102.56396500000028,119.74365200000011,21.153809000000365,100.38476599999922
10,112.69238299999961,133.3334960000002,114.10253900000043,135.2563479999999,116.2822270000006,118.3334960000002,137.6923829999996,144.23095699999976,122.43603499999972,115.38476599999922,103.7177729999994,120.25634799999989,23.589844000000085,101.9228520000006
11,112.30761700000039,130.0,111.6665039999998,129.23095699999976,118.7177729999994,117.43603499999972,132.43603499999972,136.0258789999998,121.2822270000006,108.9741210000002,102.56396500000028,117.82031300000017,26.282227000000603,101.0258789999998
12,113.0771479999994,128.9741210000002,109.10253900000043,123.46142599999985,119.61523400000078,116.2822270000006,129.48730499999965,132.3076170000004,121.0258789999998,107.30761700000039,102.94873000000007,114.87158199999976,30.384765999999217,99.61523400000078
13,114.35888699999941,131.2822270000006,107.94873000000007,120.76904300000024,118.0771479999994,116.15380900000036,130.89746099999957,137.3076170000004,124.23095699999976,111.6665039999998,106.6665039999998,114.35888699999941,35.897460999999566,100.0
14,115.64111300000059,135.51269500000035,109.10253900000043,122.17968800000017,114.35888699999941,116.53857400000015,135.38476599999922,149.3588869999994,129.87158199999976,118.84619099999964,113.0771479999994,117.43603499999972,41.9228520000006,103.84619099999964
15,116.41015599999992,138.0771479999994,111.15380900000036,126.0258789999998,109.74365200000011,116.6665039999998,139.10253900000043,160.89746099999957,134.3588869999994,124.35888699999941,117.94873000000007,121.0258789999998,46.79492200000004,109.74365200000011
16,116.41015599999992,136.15380900000036,112.17968800000017,129.7436520000001,106.9228520000006,116.15380900000036,138.46142599999985,165.12841800000024,134.61523400000078,126.15380900000036,118.20507799999996,121.53857400000015,49.48730499999965,113.84619099999964
17,116.2822270000006,131.15380900000036,111.79492200000004,133.20507799999996,108.58984400000008,115.51269500000035,133.9741210000002,161.41015599999992,132.17968800000017,126.6665039999998,116.2822270000006,118.7177729999994,50.64111300000059,114.48730499999965
18,118.3334960000002,128.7177729999994,112.82031300000017,139.61523400000078,116.53857400000015,115.64111300000059,130.2563479999999,156.2822270000006,132.82031300000017,130.2563479999999,119.48730499999965,116.15380900000036,53.46142599999985,114.61523400000078
19,124.61523400000078,134.23095699999976,118.20507799999996,151.41015599999992,128.7177729999994,116.53857400000015,132.17968800000017,157.6923829999996,141.15380900000036,139.48730499999965,132.56396500000028,117.94873000000007,61.153809000000365,118.84619099999964
20,133.84619099999964,146.53857400000015,127.05126999999993,166.0258789999998,138.84619099999964,117.56396500000028,140.2563479999999,167.43603499999972,155.2563479999999,152.05126999999993,152.05126999999993,124.10253900000043,73.3334960000002,128.0771479999994
21,141.15380900000036,158.7177729999994,134.87158199999976,177.3076170000004,140.76904300000024,117.94873000000007,149.61523400000078,179.3588869999994,167.05126999999993,162.94873000000007,167.05126999999993,130.51269500000035,85.0,137.82031300000017
22,142.17968800000017,162.6923829999996,136.6665039999998,179.87158199999976,133.3334960000002,117.30761700000039,153.84619099999964,184.61523400000078,169.23095699999976,168.20507799999996,168.9741210000002,133.0771479999994,90.25634799999989,142.05126999999993
23,138.3334960000002,157.05126999999993,131.6665039999998,175.38476599999922,121.6665039999998,116.41015599999992,149.48730499999965,178.9741210000002,161.41015599999992,168.20507799999996,158.46142599999985,131.15380900000036,88.0771479999994,139.48730499999965
24,135.89746099999957,148.9741210000002,124.48730499999965,170.51269500000035,113.3334960000002,115.64111300000059,138.9741210000002,166.41015599999992,149.87158199999976,166.41015599999992,145.76904300000024,126.6665039999998,82.82031300000017,135.12841800000024
25,140.89746099999957,147.82031300000017,120.89746099999957,172.17968800000017,111.79492200000004,115.38476599999922,128.0771479999994,154.61523400000078,142.17968800000017,166.15380900000036,143.46142599999985,123.46142599999985,82.05126999999993,135.89746099999957
26,154.48730499999965,157.43603499999972,124.23095699999976,182.05126999999993,114.87158199999976,115.64111300000059,122.69238299999961,150.0,141.41015599999992,168.20507799999996,155.6411130000006,124.23095699999976,90.51269500000035,145.89746099999957
27,172.17968800000017,172.43603499999972,133.7177729999994,197.17968800000017,117.82031300000017,116.15380900000036,124.74365200000011,153.7177729999994,144.61523400000078,170.51269500000035,176.53857400000015,129.23095699999976,107.69238299999961,163.0771479999994
28,188.3334960000002,183.58984400000008,145.6411130000006,212.94873000000007,117.69238299999961,116.41015599999992,132.05126999999993,162.6923829999996,147.17968800000017,171.0258789999998,194.7436520000001,136.53857400000015,128.3334960000002,181.9228520000006
29,200.12841800000024,186.2822270000006,156.41015599999992,226.0258789999998,115.25634799999989,116.2822270000006,139.23095699999976,171.0258789999998,146.0258789999998,169.61523400000078,201.9228520000006,142.05126999999993,146.0258789999998,196.6665039999998
30,208.20507799999996,184.7436520000001,162.94873000000007,236.0258789999998,112.43603499999972,115.89746099999957,141.53857400000015,173.84619099999964,141.79492200000004,167.17968800000017,197.56396500000028,143.58984400000008,155.51269500000035,205.38476599999922
31,215.2563479999999,189.10253900000043,164.87158199999976,245.2563479999999,110.0,115.76904300000024,138.20507799999996,169.48730499999965,136.79492200000004,164.61523400000078,187.82031300000017,141.53857400000015,156.41015599999992,210.12841800000024
32,224.48730499999965,207.17968800000017,164.10253900000043,256.2822270000006,108.20507799999996,116.2822270000006,132.3076170000004,161.0258789999998,132.94873000000007,162.3076170000004,181.79492200000004,139.10253900000043,152.6923829999996,215.38476599999922
33,237.17968800000017,239.10253900000043,163.84619099999964,269.87158199999976,108.84619099999964,117.17968800000017,128.58984400000008,153.58984400000008,130.6411130000006,160.2563479999999,185.12841800000024,139.10253900000043,149.61523400000078,224.61523400000078
34,252.43603499999972,276.6665039999998,166.2822270000006,283.84619099999964,113.58984400000008,117.94873000000007,129.3588869999994,150.51269500000035,128.84619099999964,158.7177729999994,195.51269500000035,142.17968800000017,149.48730499999965,237.17968800000017
35,266.6665039999998,310.12841800000024,171.15380900000036,295.12841800000024,122.17968800000017,118.3334960000002,132.3076170000004,151.15380900000036,126.53857400000015,157.6923829999996,205.0,146.53857400000015,150.76904300000024,249.3588869999994
36,276.6665039999998,333.7177729999994,177.05126999999993,301.79492200000004,130.89746099999957,118.20507799999996,133.3334960000002,151.9228520000006,122.82031300000017,156.0258789999998,204.7436520000001,150.0,148.9741210000002,256.9228520000006
37,281.4101559999999,348.84619099999964,181.41015599999992,304.6152340000008,134.61523400000078,117.82031300000017,129.61523400000078,148.9741210000002,118.0771479999994,152.17968800000017,192.56396500000028,150.51269500000035,140.6411130000006,258.9741210000002
38,283.5898440000001,360.51269500000035,182.82031300000017,305.76904300000024,130.6411130000006,117.05126999999993,122.56396500000028,141.9228520000006,113.3334960000002,145.89746099999957,173.7177729999994,147.82031300000017,125.76904300000024,256.79492200000004
39,285.6411130000006,373.0771479999994,180.76904300000024,307.5639650000003,121.0258789999998,116.2822270000006,115.89746099999957,132.94873000000007,109.35888699999941,139.10253900000043,155.89746099999957,142.94873000000007,107.69238299999961,252.6923829999996
40,288.5898440000001,386.9228520000006,176.53857400000015,311.4101559999999,111.9228520000006,115.76904300000024,113.20507799999996,125.38476599999922,105.76904300000024,134.3588869999994,143.58984400000008,137.94873000000007,89.87158199999976,247.94873000000007
41,291.4101559999999,399.48730499999965,172.05126999999993,316.79492200000004,109.10253900000043,115.76904300000024,114.23095699999976,120.76904300000024,101.9228520000006,131.6665039999998,136.9228520000006,134.7436520000001,74.48730499999965,242.82031300000017
42,292.5639650000003,407.94873000000007,168.58984400000008,321.15380900000036,113.3334960000002,116.15380900000036,116.0258789999998,118.58984400000008,96.79492200000004,128.7177729999994,132.6923829999996,133.84619099999964,61.025878999999804,236.6665039999998
43,290.3847659999992,412.17968800000017,165.89746099999957,320.76904300000024,119.35888699999941,116.53857400000015,114.61523400000078,116.15380900000036,89.74365200000011,121.9228520000006,127.43603499999972,133.0771479999994,47.30761700000039,228.84619099999964
44,284.23095699999976,413.84619099999964,162.56396500000028,313.7177729999994,120.0,116.2822270000006,108.7177729999994,111.2822270000006,80.76904300000024,110.64111300000059,119.87158199999976,130.0,31.666503999999804,218.84619099999964
45,274.6152340000008,415.3847659999992,157.94873000000007,302.82031300000017,112.56396500000028,115.25634799999989,100.64111300000059,103.9741210000002,71.15380900000036,97.30761700000039,111.0258789999998,124.74365200000011,15.0,207.6923829999996
46,263.5898440000001,417.82031300000017,152.43603499999972,294.10253900000043,102.43603499999972,114.35888699999941,95.38476599999922,97.56396500000028,64.35888699999941,86.0258789999998,102.05126999999993,119.74365200000011,-0.6411130000005869,197.17968800000017
47,253.84619099999964,420.76904300000024,147.43603499999972,291.9228520000006,97.82031300000017,114.10253900000043,95.76904300000024,95.51269500000035,63.0771479999994,78.9741210000002,93.84619099999964,117.17968800000017,-13.58984399999963,188.58984400000008
48,245.76904300000024,423.46142599999985,143.46142599999985,295.12841800000024,102.69238299999961,114.87158199999976,100.38476599999922,98.3334960000002,66.53857400000015,75.89746099999957,85.64111300000059,116.6665039999998,-24.487060999999812,181.41015599999992
49,238.0771479999994,424.10253900000043,139.87158199999976,296.9228520000006,114.10253900000043,115.89746099999957,104.35888699999941,102.56396500000028,70.64111300000059,74.87158199999976,76.53857400000015,116.41015599999992,-35.1281740000004,173.58984400000008
50,229.10253900000043,420.51269500000035,135.89746099999957,291.6665039999998,125.12841800000024,116.53857400000015,104.35888699999941,103.9741210000002,71.15380900000036,74.23095699999976,66.79492200000004,115.64111300000059,-45.89746100000002,164.48730499999965
51,219.3588869999994,412.4360349999997,131.41015599999992,280.2563479999999,131.9228520000006,116.53857400000015,101.41015599999992,101.79492200000004,67.94873000000007,73.84619099999964,58.20507799999996,114.74365200000011,-55.64111300000013,155.12841800000024
52,210.6411130000006,402.6923829999996,127.30761700000039,268.7177729999994,134.10253900000043,116.2822270000006,99.23095699999976,98.7177729999994,64.87158199999976,75.25634799999989,53.333496000000196,114.61523400000078,-62.948729999999614,147.3076170000004
53,204.23095699999976,395.2563479999999,123.84619099999964,261.79492200000004,133.20507799999996,116.41015599999992,100.38476599999922,98.0771479999994,66.41015599999992,79.35888699999941,53.20507799999996,114.87158199999976,-68.33325200000036,140.6411130000006
54,198.20507799999996,392.4360349999997,120.64111300000059,258.5898440000001,129.7436520000001,117.05126999999993,103.9741210000002,100.12841800000024,73.20507799999996,85.0,55.38476599999922,114.23095699999976,-74.10253899999998,132.94873000000007
55,190.2563479999999,392.94873000000007,117.17968800000017,253.9741210000002,123.84619099999964,117.56396500000028,107.43603499999972,102.69238299999961,81.0258789999998,89.10253900000043,56.153809000000365,111.79492200000004,-81.79492200000004,122.82031300000017
56,179.61523400000078,393.0771479999994,112.94873000000007,243.7177729999994,117.82031300000017,117.82031300000017,108.3334960000002,103.20507799999996,84.61523400000078,89.10253900000043,52.43603499999972,107.56396500000028,-90.38452099999995,110.89746099999957
57,168.3334960000002,389.7436520000001,108.58984400000008,228.3334960000002,114.74365200000011,117.56396500000028,106.2822270000006,101.53857400000015,82.56396500000028,85.12841800000024,44.35888699999941,102.69238299999961,-97.05127000000039,100.38476599999922
58,159.23095699999976,382.17968800000017,105.0,212.6923829999996,116.41015599999992,117.05126999999993,103.0771479999994,99.61523400000078,77.30761700000039,79.74365200000011,35.0,98.84619099999964,-99.8718259999996,93.46142599999985
59,152.82031300000017,372.3076170000004,102.82031300000017,202.6923829999996,121.79492200000004,116.6665039999998,101.2822270000006,99.35888699999941,73.3334960000002,75.12841800000024,27.43603499999972,97.94873000000007,-100.0,89.35888699999941
60,147.56396500000028,362.82031300000017,101.41015599999992,200.76904300000024,128.46142599999985,116.2822270000006,102.05126999999993,100.89746099999957,73.20507799999996,71.0258789999998,23.205077999999958,100.0,-100.0,85.38476599999922
61,141.41015599999992,355.89746099999957,99.35888699999941,203.7177729999994,133.46142599999985,116.0258789999998,104.35888699999941,102.30761700000039,75.12841800000024,66.79492200000004,22.17968800000017,102.69238299999961,-101.79492200000004,79.74365200000011
62,132.94873000000007,351.4101559999999,95.51269500000035,204.7436520000001,134.61523400000078,115.51269500000035,105.64111300000059,100.76904300000024,75.12841800000024,61.666503999999804,23.205077999999958,102.94873000000007,-105.25634799999989,72.17968800000017
63,122.69238299999961,347.5639650000003,90.0,199.10253900000043,132.05126999999993,114.74365200000011,102.94873000000007,94.35888699999941,69.61523400000078,54.48730499999965,23.333496000000196,99.35888699999941,-110.0,63.7177729999994
64,111.9228520000006,342.05126999999993,84.10253900000043,187.3076170000004,128.46142599999985,114.48730499999965,96.2822270000006,84.48730499999965,60.0,43.589844000000085,19.358886999999413,93.0771479999994,-116.41015600000037,54.87158199999976
65,102.82031300000017,334.87158199999976,79.35888699999941,174.10253900000043,127.69238299999961,114.61523400000078,89.23095699999976,75.51269500000035,52.30761700000039,29.74365200000011,10.897460999999566,87.56396500000028,-125.0,46.666503999999804
66,97.43603499999972,328.0771479999994,77.69238299999961,163.84619099999964,131.79492200000004,114.74365200000011,87.30761700000039,73.58984400000008,52.82031300000017,17.43603499999972,2.1796880000001693,86.15380900000036,-132.9487299999996,40.64111300000059
67,96.41015599999992,323.84619099999964,79.87158199999976,156.79492200000004,138.46142599999985,114.48730499999965,93.20507799999996,80.89746099999957,62.56396500000028,13.205077999999958,-1.2822270000006029,89.87158199999976,-135.38452099999995,38.974121000000196
68,97.94873000000007,320.51269500000035,83.7177729999994,149.87158199999976,142.56396500000028,114.35888699999941,104.61523400000078,93.58984400000008,76.6665039999998,19.358886999999413,2.3076170000003913,96.15380900000036,-127.94872999999961,41.53857400000015
69,98.58984400000008,314.7436520000001,85.64111300000059,140.2563479999999,140.6411130000006,115.64111300000059,115.0,103.9741210000002,88.0771479999994,31.153809000000365,9.487304999999651,100.89746099999957,-111.15380900000036,46.153809000000365
70,96.0258789999998,304.23095699999976,83.3334960000002,128.20507799999996,134.23095699999976,117.69238299999961,118.3334960000002,105.76904300000024,92.56396500000028,40.76904300000024,15.0,100.76904300000024,-89.8718259999996,49.87158199999976
71,90.12841800000024,289.7436520000001,78.3334960000002,116.0258789999998,126.9228520000006,118.46142599999985,113.46142599999985,98.58984400000008,91.0258789999998,42.30761700000039,15.769043000000238,95.89746099999957,-71.66674799999964,50.64111300000059
72,82.30761700000039,273.46142599999985,73.7177729999994,104.74365200000011,120.64111300000059,116.0258789999998,103.46142599999985,87.17968800000017,86.41015599999992,35.64111300000059,12.17968800000017,89.48730499999965,-62.051270000000386,47.94873000000007
73,74.10253900000043,256.4101559999999,71.15380900000036,93.84619099999964,115.0,110.64111300000059,93.3334960000002,78.46142599999985,81.53857400000015,25.128418000000238,7.051269999999931,84.87158199999976,-60.64111300000013,42.56396500000028
74,68.20507799999996,239.61523400000078,71.15380900000036,82.94873000000007,109.74365200000011,105.12841800000024,87.17968800000017,77.05126999999993,78.9741210000002,15.641113000000587,4.743652000000111,84.35888699999941,-62.051270000000386,38.0771479999994
75,66.9228520000006,225.12841800000024,74.35888699999941,73.9741210000002,107.30761700000039,102.82031300000017,87.43603499999972,83.9741210000002,81.41015599999992,11.410155999999915,8.717772999999397,88.0771479999994,-58.07690400000001,38.7177729999994
76,71.53857400000015,215.51269500000035,80.51269500000035,68.7177729999994,110.76904300000024,105.25634799999989,93.84619099999964,95.0,89.35888699999941,14.615234000000783,19.48730499999965,93.9741210000002,-44.10253899999998,45.897460999999566
77,79.48730499999965,211.6665039999998,87.94873000000007,66.79492200000004,120.76904300000024,111.6665039999998,103.46142599999985,104.10253900000043,100.76904300000024,23.846190999999635,33.333496000000196,99.48730499999965,-21.28198199999997,56.410155999999915
78,86.79492200000004,212.56396500000028,94.23095699999976,65.76904300000024,134.10253900000043,118.20507799999996,112.56396500000028,107.05126999999993,112.17968800000017,35.51269500000035,44.74365200000011,103.0771479999994,3.717772999999397,65.12841800000024
79,90.76904300000024,214.87158199999976,97.43603499999972,62.56396500000028,146.15380900000036,121.15380900000036,118.0771479999994,104.74365200000011,120.64111300000059,45.51269500000035,50.51269500000035,105.0,24.48730499999965,69.35888699999941
80,90.89746099999957,214.61523400000078,97.56396500000028,55.51269500000035,152.56396500000028,119.35888699999941,118.9741210000002,101.6665039999998,124.74365200000011,51.2822270000006,50.76904300000024,106.0258789999998,37.82031300000017,70.0
81,87.17968800000017,207.56396500000028,95.0,44.48730499999965,150.2563479999999,114.74365200000011,115.64111300000059,100.64111300000059,123.7177729999994,51.53857400000015,48.333496000000196,106.15380900000036,43.7177729999994,68.9741210000002
82,80.12841800000024,192.43603499999972,90.12841800000024,31.410155999999915,139.61523400000078,110.12841800000024,109.23095699999976,100.76904300000024,117.82031300000017,46.410155999999915,46.153809000000365,104.35888699999941,44.23095699999976,66.41015599999992
83,70.89746099999957,172.43603499999972,83.58984400000008,20.51269500000035,126.15380900000036,107.17968800000017,102.05126999999993,98.3334960000002,109.74365200000011,38.333496000000196,45.897460999999566,101.15380900000036,42.56396500000028,62.43603499999972
84,62.56396500000028,153.84619099999964,77.30761700000039,15.384765999999217,117.82031300000017,105.38476599999922,96.9228520000006,91.9228520000006,103.3334960000002,32.82031300000017,48.333496000000196,97.82031300000017,42.82031300000017,58.46142599999985
85,58.333496000000196,141.15380900000036,74.35888699999941,16.282227000000603,119.10253900000043,104.74365200000011,96.15380900000036,84.23095699999976,101.53857400000015,34.87158199999976,53.46142599999985,96.41015599999992,48.0771479999994,57.05126999999993
86,59.74365200000011,134.23095699999976,76.41015599999992,20.0,126.53857400000015,105.38476599999922,99.87158199999976,80.64111300000059,104.48730499999965,44.102539000000434,60.38476599999922,97.69238299999961,58.589844000000085,59.48730499999965
87,64.61523400000078,129.87158199999976,81.53857400000015,22.94873000000007,132.3076170000004,107.82031300000017,106.15380900000036,84.23095699999976,110.25634799999989,53.846190999999635,66.6665039999998,100.51269500000035,71.2822270000006,63.846190999999635
88,68.84619099999964,124.74365200000011,85.51269500000035,23.205077999999958,130.76904300000024,111.2822270000006,111.41015599999992,94.10253900000043,116.0258789999998,57.17968800000017,70.0,103.0771479999994,81.2822270000006,66.2822270000006
89,69.35888699999941,118.84619099999964,85.12841800000024,20.769043000000238,123.46142599999985,113.84619099999964,113.9741210000002,105.12841800000024,119.74365200000011,52.82031300000017,70.38476599999922,104.10253900000043,86.2822270000006,64.10253900000043
90,66.2822270000006,113.7177729999994,80.76904300000024,16.922852000000603,116.53857400000015,114.23095699999976,114.10253900000043,112.82031300000017,121.9228520000006,47.56396500000028,71.79492200000004,103.46142599999985,88.20507799999996,58.7177729999994
91,63.20507799999996,111.15380900000036,75.89746099999957,13.461425999999847,115.89746099999957,112.30761700000039,113.7177729999994,115.0,124.35888699999941,49.61523400000078,78.7177729999994,102.05126999999993,91.79492200000004,55.38476599999922
92,64.10253900000043,110.89746099999957,74.10253900000043,13.205077999999958,122.05126999999993,110.12841800000024,114.23095699999976,113.58984400000008,128.9741210000002,61.410155999999915,92.30761700000039,101.0258789999998,100.0,57.82031300000017
93,70.64111300000059,110.64111300000059,76.79492200000004,17.82031300000017,131.6665039999998,110.25634799999989,115.64111300000059,112.30761700000039,135.51269500000035,77.30761700000039,107.82031300000017,101.2822270000006,111.79492200000004,65.89746099999957
94,80.38476599999922,108.46142599999985,82.94873000000007,26.410155999999915,140.12841800000024,113.20507799999996,117.43603499999972,114.23095699999976,142.05126999999993,88.46142599999985,118.58984400000008,102.69238299999961,123.58984400000008,75.51269500000035
95,87.82031300000017,102.56396500000028,89.23095699999976,34.48730499999965,144.3588869999994,117.17968800000017,118.84619099999964,118.58984400000008,145.38476599999922,90.38476599999922,119.23095699999976,104.23095699999976,130.51269500000035,81.79492200000004
96,87.94873000000007,92.69238299999961,91.79492200000004,36.53857400000015,142.17968800000017,118.9741210000002,118.9741210000002,122.05126999999993,143.3334960000002,85.51269500000035,109.74365200000011,104.48730499999965,130.2563479999999,81.53857400000015
97,80.51269500000035,80.89746099999957,88.9741210000002,30.128418000000238,134.3588869999994,117.17968800000017,117.30761700000039,121.9228520000006,137.17968800000017,80.38476599999922,96.15380900000036,103.3334960000002,123.7177729999994,75.12841800000024
98,70.64111300000059,70.89746099999957,83.46142599999985,19.48730499999965,124.48730499999965,112.82031300000017,114.74365200000011,118.9741210000002,130.76904300000024,80.51269500000035,87.05126999999993,101.53857400000015,115.25634799999989,67.30761700000039
99,65.12841800000024,66.0258789999998,80.0,12.692382999999609,117.56396500000028,108.58984400000008,113.0771479999994,116.0258789999998,128.20507799999996,86.0258789999998,87.56396500000028,100.51269500000035,110.12841800000024,63.333496000000196
100,65.76904300000024,65.12841800000024,80.64111300000059,15.641113000000587,115.64111300000059,106.9228520000006,112.94873000000007,114.74365200000011,130.0,91.53857400000015,95.51269500000035,100.76904300000024,110.38476599999922,63.7177729999994
101,68.46142599999985,63.974121000000196,83.3334960000002,26.410155999999915,116.79492200000004,108.0771479999994,113.46142599999985,114.10253900000043,132.3076170000004,90.25634799999989,103.0771479999994,101.0258789999998,113.58984400000008,64.35888699999941
102,68.9741210000002,60.12841800000024,85.0,37.82031300000017,118.84619099999964,110.64111300000059,113.20507799999996,113.20507799999996,131.53857400000015,80.76904300000024,104.23095699999976,100.51269500000035,116.15380900000036,62.56396500000028
103,67.69238299999961,55.51269500000035,84.87158199999976,43.7177729999994,122.30761700000039,113.0771479999994,112.94873000000007,112.94873000000007,127.94873000000007,70.38476599999922,100.12841800000024,99.74365200000011,117.30761700000039,60.38476599999922
104,67.82031300000017,54.48730499999965,85.0,42.94873000000007,128.46142599999985,114.74365200000011,114.74365200000011,115.64111300000059,125.51269500000035,68.58984400000008,97.94873000000007,99.87158199999976,119.23095699999976,62.94873000000007
105,71.79492200000004,57.30761700000039,86.9228520000006,38.846190999999635,135.12841800000024,115.38476599999922,119.10253900000043,121.41015599999992,126.79492200000004,78.7177729999994,103.46142599999985,101.79492200000004,123.58984400000008,71.15380900000036
106,77.82031300000017,59.48730499999965,89.35888699999941,35.51269500000035,137.56396500000028,115.0,124.10253900000043,126.9228520000006,131.15380900000036,93.58984400000008,114.87158199999976,104.35888699999941,129.10253900000043,80.51269500000035
107,81.2822270000006,56.666503999999804,89.74365200000011,35.38476599999922,132.94873000000007,112.94873000000007,125.89746099999957,127.94873000000007,135.2563479999999,101.9228520000006,124.23095699999976,105.64111300000059,132.6923829999996,84.48730499999965
108,79.61523400000078,49.61523400000078,87.56396500000028,38.589844000000085,123.9741210000002,110.0,123.20507799999996,123.3334960000002,137.05126999999993,98.84619099999964,124.61523400000078,104.61523400000078,132.94873000000007,81.15380900000036
109,74.48730499999965,43.974121000000196,85.12841800000024,43.974121000000196,117.43603499999972,108.3334960000002,118.3334960000002,117.17968800000017,137.3076170000004,89.61523400000078,117.17968800000017,102.56396500000028,131.53857400000015,74.35888699999941
110,70.25634799999989,44.48730499999965,85.12841800000024,50.38476599999922,117.17968800000017,109.35888699999941,115.25634799999989,115.64111300000059,139.23095699999976,83.9741210000002,109.23095699999976,101.6665039999998,131.2822270000006,70.38476599999922
111,69.23095699999976,50.0,87.17968800000017,55.51269500000035,120.51269500000035,112.94873000000007,115.0,120.38476599999922,143.46142599999985,87.43603499999972,106.79492200000004,102.43603499999972,132.6923829999996,71.41015599999992
112,69.74365200000011,53.333496000000196,88.46142599999985,56.666503999999804,121.53857400000015,116.2822270000006,115.89746099999957,126.9228520000006,147.17968800000017,97.82031300000017,109.35888699999941,103.0771479999994,133.20507799999996,73.58984400000008
113,69.23095699999976,48.46142599999985,86.6665039999998,53.20507799999996,117.69238299999961,117.05126999999993,115.38476599999922,130.12841800000024,148.0771479999994,108.84619099999964,112.17968800000017,101.6665039999998,130.76904300000024,72.69238299999961
114,68.0771479999994,37.30761700000039,83.58984400000008,48.46142599999985,112.05126999999993,115.51269500000035,114.35888699999941,129.23095699999976,146.79492200000004,116.2822270000006,112.82031300000017,99.10253900000043,127.56396500000028,69.10253900000043
115,68.9741210000002,27.94873000000007,83.7177729999994,48.20507799999996,110.76904300000024,114.10253900000043,115.89746099999957,128.58984400000008,146.53857400000015,119.61523400000078,113.0771479999994,97.82031300000017,128.3334960000002,67.56396500000028
116,73.58984400000008,27.43603499999972,89.10253900000043,55.12841800000024,117.69238299999961,114.87158199999976,121.41015599999992,132.82031300000017,149.3588869999994,120.89746099999957,115.89746099999957,99.74365200000011,135.51269500000035,71.9228520000006
117,80.12841800000024,34.61523400000078,96.9228520000006,65.89746099999957,130.0,117.05126999999993,128.58984400000008,141.79492200000004,153.9741210000002,120.76904300000024,120.64111300000059,104.48730499999965,145.12841800000024,80.0
118,83.58984400000008,41.53857400000015,101.15380900000036,72.69238299999961,139.10253900000043,117.94873000000007,133.0771479999994,148.9741210000002,156.53857400000015,117.05126999999993,124.10253900000043,108.84619099999964,150.0,85.38476599999922
119,80.64111300000059,40.51269500000035,97.17968800000017,69.48730499999965,136.2822270000006,115.76904300000024,131.2822270000006,147.17968800000017,152.82031300000017,108.0771479999994,122.82031300000017,109.74365200000011,146.2822270000006,82.43603499999972
120,72.56396500000028,30.897460999999566,86.41015599999992,57.56396500000028,120.25634799999989,111.0258789999998,123.20507799999996,134.61523400000078,142.3076170000004,94.87158199999976,116.2822270000006,105.64111300000059,136.9228520000006,71.0258789999998
121,64.61523400000078,18.846190999999635,75.0,44.74365200000011,100.25634799999989,106.15380900000036,113.46142599999985,118.58984400000008,129.61523400000078,82.69238299999961,107.17968800000017,99.23095699999976,128.84619099999964,57.82031300000017
122,61.410155999999915,12.43603499999972,69.74365200000011,40.25634799999989,89.35888699999941,104.10253900000043,108.0771479999994,109.23095699999976,122.05126999999993,77.82031300000017,100.25634799999989,95.12841800000024,126.2822270000006,50.38476599999922
123,63.333496000000196,14.871581999999762,72.82031300000017,47.17968800000017,95.12841800000024,105.64111300000059,110.12841800000024,111.53857400000015,123.9741210000002,82.69238299999961,97.94873000000007,96.0258789999998,127.94873000000007,52.05126999999993
124,66.2822270000006,21.666503999999804,80.38476599999922,60.25634799999989,112.05126999999993,109.23095699999976,116.2822270000006,121.15380900000036,133.20507799999996,93.46142599999985,99.74365200000011,100.25634799999989,128.9741210000002,59.23095699999976
125,67.05126999999993,26.153809000000365,86.41015599999992,70.12841800000024,127.17968800000017,111.79492200000004,120.64111300000059,128.7177729999994,142.43603499999972,103.0771479999994,102.82031300000017,103.3334960000002,126.41015599999992,65.64111300000059
126,67.17968800000017,27.05126999999993,88.58984400000008,72.17968800000017,131.15380900000036,112.05126999999993,119.87158199999976,128.84619099999964,146.0258789999998,107.69238299999961,106.2822270000006,103.0771479999994,123.20507799999996,69.23095699999976
127,71.53857400000015,28.846190999999635,89.61523400000078,71.2822270000006,125.25634799999989,111.0258789999998,116.41015599999992,124.35888699999941,144.87158199999976,110.25634799999989,112.17968800000017,101.9228520000006,126.0258789999998,72.82031300000017
128,83.0771479999994,35.12841800000024,93.7177729999994,74.61523400000078,116.9228520000006,110.51269500000035,116.0258789999998,122.69238299999961,143.9741210000002,116.41015599999992,122.82031300000017,103.20507799999996,138.20507799999996,81.0258789999998
129,98.58984400000008,43.20507799999996,101.0258789999998,84.61523400000078,111.9228520000006,111.53857400000015,120.89746099999957,127.82031300000017,145.76904300000024,126.79492200000004,136.79492200000004,107.30761700000039,156.0258789999998,93.7177729999994
130,109.74365200000011,46.025878999999804,106.53857400000015,95.89746099999957,109.87158199999976,113.20507799999996,127.43603499999972,135.38476599999922,147.94873000000007,134.48730499999965,148.20507799999996,110.89746099999957,169.61523400000078,105.25634799999989
131,111.0258789999998,39.87158199999976,105.64111300000059,100.89746099999957,107.43603499999972,113.84619099999964,129.10253900000043,137.94873000000007,146.0258789999998,132.6923829999996,150.89746099999957,110.38476599999922,172.56396500000028,109.10253900000043
132,104.48730499999965,29.74365200000011,98.84619099999964,97.05126999999993,104.87158199999976,113.20507799999996,123.9741210000002,132.6923829999996,140.38476599999922,122.82031300000017,145.38476599999922,106.41015599999992,167.3076170000004,105.12841800000024
133,98.84619099999964,24.615234000000783,92.43603499999972,89.10253900000043,106.53857400000015,112.17968800000017,116.9228520000006,125.0,136.6665039999998,115.76904300000024,139.48730499999965,103.3334960000002,163.3334960000002,99.87158199999976
134,100.76904300000024,28.974121000000196,91.9228520000006,84.74365200000011,116.0258789999998,112.43603499999972,114.23095699999976,123.0771479999994,139.87158199999976,120.89746099999957,140.51269500000035,105.12841800000024,167.6923829999996,99.74365200000011
135,108.7177729999994,37.43603499999972,97.43603499999972,88.0771479999994,129.87158199999976,114.23095699999976,117.82031300000017,129.23095699999976,148.84619099999964,136.79492200000004,148.7177729999994,111.15380900000036,177.6923829999996,104.87158199999976
136,115.25634799999989,40.25634799999989,103.3334960000002,97.17968800000017,138.84619099999964,116.0258789999998,124.48730499999965,138.7177729999994,157.17968800000017,151.41015599999992,156.2822270000006,116.41015599999992,184.10253900000043,109.35888699999941
137,114.35888699999941,32.43603499999972,103.9741210000002,105.76904300000024,135.51269500000035,116.41015599999992,128.9741210000002,143.9741210000002,159.87158199999976,153.7177729999994,156.0258789999998,116.41015599999992,179.48730499999965,107.43603499999972
138,106.53857400000015,18.974121000000196,98.9741210000002,108.20507799999996,120.64111300000059,115.38476599999922,128.58984400000008,141.2822270000006,155.76904300000024,142.82031300000017,147.56396500000028,111.15380900000036,165.2563479999999,98.9741210000002
139,97.82031300000017,8.974121000000196,91.9228520000006,103.7177729999994,103.84619099999964,114.48730499999965,123.84619099999964,133.46142599999985,147.82031300000017,128.20507799999996,136.9228520000006,104.23095699999976,149.48730499999965,88.84619099999964
140,93.46142599999985,7.051269999999931,87.05126999999993,95.64111300000059,96.6665039999998,114.35888699999941,118.3334960000002,126.6665039999998,139.87158199999976,121.0258789999998,130.76904300000024,99.61523400000078,139.87158199999976,82.30761700000039
141,93.9741210000002,11.025878999999804,85.0,89.23095699999976,102.43603499999972,114.61523400000078,116.0258789999998,124.61523400000078,135.12841800000024,124.61523400000078,131.0258789999998,98.46142599999985,138.3334960000002,80.76904300000024
142,96.15380900000036,15.128418000000238,84.48730499999965,86.9228520000006,114.61523400000078,114.61523400000078,117.94873000000007,127.43603499999972,134.7436520000001,133.0771479999994,135.38476599999922,99.61523400000078,141.6665039999998,82.05126999999993
143,97.43603499999972,16.282227000000603,84.87158199999976,87.56396500000028,122.94873000000007,114.74365200000011,122.56396500000028,132.05126999999993,137.56396500000028,137.94873000000007,139.10253900000043,101.53857400000015,145.51269500000035,83.7177729999994
144,98.7177729999994,16.153809000000365,87.30761700000039,88.84619099999964,123.20507799999996,115.25634799999989,126.15380900000036,136.2822270000006,141.9228520000006,136.0258789999998,139.10253900000043,103.84619099999964,147.82031300000017,86.15380900000036
145,102.43603499999972,17.56396500000028,92.30761700000039,89.48730499999965,118.9741210000002,115.51269500000035,126.53857400000015,138.3334960000002,146.0258789999998,131.79492200000004,135.6411130000006,107.17968800000017,148.20507799999996,90.25634799999989
146,108.3334960000002,20.384765999999217,98.20507799999996,89.23095699999976,116.15380900000036,114.87158199999976,123.84619099999964,137.17968800000017,147.82031300000017,131.15380900000036,132.05126999999993,111.15380900000036,146.79492200000004,95.38476599999922
147,113.46142599999985,21.410155999999915,101.41015599999992,87.82031300000017,115.76904300000024,113.84619099999964,119.35888699999941,132.43603499999972,145.51269500000035,134.10253900000043,130.89746099999957,114.35888699999941,143.0771479999994,98.3334960000002
148,113.7177729999994,17.56396500000028,99.74365200000011,84.74365200000011,114.35888699999941,112.69238299999961,115.51269500000035,125.64111300000059,138.3334960000002,134.87158199999976,133.0771479999994,115.0,137.43603499999972,96.79492200000004
149,108.9741210000002,10.897460999999566,94.35888699999941,80.89746099999957,110.0,112.05126999999993,113.7177729999994,119.87158199999976,129.7436520000001,128.3334960000002,137.3076170000004,113.3334960000002,132.3076170000004,91.2822270000006
150,103.3334960000002,8.205077999999958,89.74365200000011,80.12841800000024,106.41015599999992,112.05126999999993,115.38476599999922,119.10253900000043,126.0258789999998,116.79492200000004,141.6665039999998,111.6665039999998,131.15380900000036,86.0258789999998
151,102.05126999999993,14.358886999999413,89.48730499999965,85.25634799999989,109.23095699999976,112.94873000000007,119.87158199999976,124.10253900000043,131.53857400000015,108.9741210000002,144.48730499999965,112.17968800000017,135.6411130000006,85.76904300000024
152,106.53857400000015,26.794922000000042,93.3334960000002,94.23095699999976,119.48730499999965,114.35888699999941,124.87158199999976,131.2822270000006,143.3334960000002,111.9228520000006,144.3588869999994,114.10253900000043,142.82031300000017,91.41015599999992
153,112.56396500000028,36.2822270000006,97.30761700000039,100.25634799999989,131.0258789999998,115.38476599999922,126.79492200000004,134.3588869999994,151.41015599999992,123.58984400000008,141.2822270000006,114.61523400000078,146.2822270000006,98.20507799999996
154,113.3334960000002,34.23095699999976,96.53857400000015,97.94873000000007,135.0,115.12841800000024,123.58984400000008,129.3588869999994,146.15380900000036,133.0771479999994,135.38476599999922,111.53857400000015,140.89746099999957,99.23095699999976
155,105.64111300000059,20.769043000000238,90.51269500000035,88.20507799999996,127.69238299999961,114.10253900000043,117.17968800000017,119.10253900000043,127.56396500000028,130.2563479999999,127.82031300000017,105.76904300000024,128.3334960000002,91.6665039999998
156,92.82031300000017,3.717772999999397,83.3334960000002,77.56396500000028,113.3334960000002,113.20507799999996,112.30761700000039,110.38476599999922,106.79492200000004,115.51269500000035,120.89746099999957,100.64111300000059,116.0258789999998,79.48730499999965
157,82.30761700000039,-7.692382999999609,80.0,72.43603499999972,100.64111300000059,113.58984400000008,111.79492200000004,107.82031300000017,96.79492200000004,99.74365200000011,116.9228520000006,99.10253900000043,110.64111300000059,70.25634799999989
158,79.61523400000078,-9.487060999999812,81.2822270000006,74.35888699999941,94.74365200000011,114.87158199999976,113.9741210000002,110.12841800000024,102.43603499999972,94.10253900000043,115.89746099999957,100.51269500000035,112.56396500000028,68.84619099999964
159,84.23095699999976,-4.743652000000111,83.9741210000002,79.10253900000043,95.12841800000024,115.51269500000035,115.38476599999922,112.05126999999993,116.2822270000006,100.12841800000024,115.25634799999989,102.30761700000039,116.15380900000036,73.7177729999994
160,91.6665039999998,1.4101559999999154,84.61523400000078,81.53857400000015,98.20507799999996,114.87158199999976,114.48730499999965,110.12841800000024,127.30761700000039,109.74365200000011,113.0771479999994,102.17968800000017,116.41015599999992,79.74365200000011
161,98.3334960000002,6.922852000000603,83.58984400000008,80.64111300000059,102.43603499999972,113.9741210000002,113.46142599999985,106.53857400000015,129.61523400000078,114.10253900000043,111.2822270000006,100.76904300000024,113.7177729999994,83.46142599999985
162,102.94873000000007,12.82031300000017,84.35888699999941,80.12841800000024,109.23095699999976,114.61523400000078,115.25634799999989,106.15380900000036,125.38476599999922,111.2822270000006,113.9741210000002,100.76904300000024,112.43603499999972,85.38476599999922
163,105.38476599999922,18.846190999999635,88.46142599999985,83.3334960000002,118.58984400000008,116.53857400000015,119.87158199999976,111.0258789999998,120.64111300000059,106.53857400000015,121.6665039999998,103.20507799999996,115.25634799999989,86.9228520000006
164,104.23095699999976,21.538574000000153,93.20507799999996,88.20507799999996,126.0258789999998,117.43603499999972,123.58984400000008,116.53857400000015,118.9741210000002,104.87158199999976,128.84619099999964,105.89746099999957,119.74365200000011,87.82031300000017
165,99.10253900000043,17.69238299999961,94.35888699999941,88.84619099999964,125.25634799999989,116.2822270000006,122.05126999999993,116.53857400000015,119.87158199999976,106.9228520000006,128.9741210000002,105.51269500000035,121.6665039999998,85.89746099999957
166,92.30761700000039,9.615234000000783,91.0258789999998,81.41015599999992,115.51269500000035,113.58984400000008,115.0,109.74365200000011,120.25634799999989,109.35888699999941,121.41015599999992,101.79492200000004,119.23095699999976,81.53857400000015
167,88.58984400000008,3.9741210000001956,86.79492200000004,69.74365200000011,103.0771479999994,110.64111300000059,106.6665039999998,101.79492200000004,118.58984400000008,110.12841800000024,113.3334960000002,98.84619099999964,115.25634799999989,78.0771479999994
168,92.05126999999993,6.666503999999804,87.30761700000039,62.82031300000017,97.05126999999993,108.7177729999994,102.94873000000007,100.51269500000035,117.05126999999993,110.64111300000059,113.20507799999996,100.89746099999957,114.61523400000078,80.51269500000035
169,101.79492200000004,17.05126999999993,93.9741210000002,67.17968800000017,101.2822270000006,108.20507799999996,105.76904300000024,108.58984400000008,119.61523400000078,114.61523400000078,123.84619099999964,108.46142599999985,120.38476599999922,90.0
170,112.69238299999961,28.846190999999635,103.84619099999964,80.38476599999922,111.79492200000004,109.35888699999941,112.69238299999961,121.15380900000036,127.17968800000017,122.94873000000007,138.84619099999964,117.30761700000039,130.6411130000006,101.9228520000006
171,117.94873000000007,35.64111300000059,110.89746099999957,92.30761700000039,120.51269500000035,111.0258789999998,118.0771479999994,130.38476599999922,135.51269500000035,132.05126999999993,147.94873000000007,121.9228520000006,139.3588869999994,109.23095699999976
172,114.23095699999976,34.48730499999965,111.2822270000006,93.58984400000008,122.17968800000017,111.6665039999998,117.56396500000028,131.15380900000036,137.56396500000028,135.89746099999957,144.23095699999976,119.61523400000078,141.0258789999998,107.82031300000017
173,103.20507799999996,27.56396500000028,105.12841800000024,82.94873000000007,118.20507799999996,110.51269500000035,110.38476599999922,123.84619099999964,129.7436520000001,130.12841800000024,129.7436520000001,111.79492200000004,135.12841800000024,98.58984400000008
174,90.76904300000024,20.0,96.0258789999998,68.20507799999996,112.69238299999961,108.46142599999985,100.0,112.69238299999961,116.0258789999998,116.0258789999998,113.9741210000002,103.58984400000008,126.6665039999998,87.69238299999961
175,82.69238299999961,15.512695000000349,88.0771479999994,58.7177729999994,108.84619099999964,107.05126999999993,91.53857400000015,103.3334960000002,104.87158199999976,101.0258789999998,106.53857400000015,98.84619099999964,121.6665039999998,81.2822270000006
176,81.41015599999992,14.743652000000111,84.10253900000043,59.48730499999965,106.41015599999992,107.17968800000017,88.0771479999994,98.46142599999985,102.30761700000039,93.46142599999985,110.51269500000035,98.7177729999994,122.43603499999972,81.41015599999992
177,84.87158199999976,15.128418000000238,84.23095699999976,67.17968800000017,104.23095699999976,109.23095699999976,89.48730499999965,98.0771479999994,107.82031300000017,96.79492200000004,119.87158199999976,100.76904300000024,126.41015599999992,85.51269500000035
178,88.46142599999985,15.769043000000238,87.30761700000039,74.61523400000078,102.94873000000007,112.56396500000028,93.3334960000002,100.89746099999957,115.89746099999957,106.41015599999992,124.87158199999976,102.69238299999961,129.48730499999965,88.7177729999994
179,89.74365200000011,17.30761700000039,91.41015599999992,75.89746099999957,104.48730499999965,115.64111300000059,96.79492200000004,105.25634799999989,121.0258789999998,114.35888699999941,120.76904300000024,103.46142599999985,129.48730499999965,89.10253900000043
180,88.58984400000008,20.641113000000587,95.0,71.15380900000036,109.23095699999976,116.53857400000015,98.3334960000002,110.0,121.6665039999998,116.0258789999998,111.6665039999998,103.9741210000002,127.05126999999993,87.69238299999961
181,87.05126999999993,24.871581999999762,97.69238299999961,65.25634799999989,114.74365200000011,115.25634799999989,98.0771479999994,114.10253900000043,120.64111300000059,113.46142599999985,106.79492200000004,105.38476599999922,124.61523400000078,87.17968800000017
182,86.6665039999998,29.358886999999413,99.35888699999941,63.974121000000196,118.58984400000008,113.3334960000002,97.43603499999972,117.43603499999972,121.6665039999998,112.94873000000007,111.79492200000004,107.82031300000017,124.61523400000078,89.87158199999976
183,88.3334960000002,33.974121000000196,100.12841800000024,69.10253900000043,119.74365200000011,113.3334960000002,98.0771479999994,120.64111300000059,126.79492200000004,118.58984400000008,123.84619099999964,109.74365200000011,128.46142599999985,95.0
184,91.2822270000006,39.23095699999976,100.38476599999922,77.82031300000017,119.35888699999941,115.25634799999989,100.0,123.7177729999994,134.3588869999994,128.3334960000002,134.3588869999994,109.48730499999965,134.7436520000001,100.0
185,93.58984400000008,44.48730499999965,100.64111300000059,85.12841800000024,118.46142599999985,117.05126999999993,101.53857400000015,125.12841800000024,139.61523400000078,135.76904300000024,135.76904300000024,106.9228520000006,139.48730499999965,101.41015599999992
186,92.43603499999972,46.153809000000365,100.38476599999922,86.53857400000015,117.05126999999993,115.76904300000024,101.0258789999998,122.82031300000017,138.20507799999996,135.0,126.53857400000015,103.46142599999985,138.84619099999964,97.82031300000017
187,86.53857400000015,40.64111300000059,97.94873000000007,81.15380900000036,113.7177729999994,110.38476599999922,97.30761700000039,116.6665039999998,129.7436520000001,125.0,111.79492200000004,100.89746099999957,132.17968800000017,90.25634799999989
188,78.46142599999985,28.333496000000196,92.56396500000028,71.9228520000006,108.3334960000002,103.9741210000002,92.17968800000017,108.58984400000008,118.7177729999994,110.64111300000059,99.87158199999976,99.87158199999976,123.58984400000008,82.17968800000017
189,72.82031300000017,15.769043000000238,85.38476599999922,64.87158199999976,102.56396500000028,101.53857400000015,87.94873000000007,103.0771479999994,111.6665039999998,99.35888699999941,96.9228520000006,100.25634799999989,118.84619099999964,77.17968800000017
190,72.94873000000007,11.153809000000365,79.74365200000011,64.10253900000043,99.10253900000043,105.12841800000024,86.53857400000015,102.94873000000007,111.53857400000015,96.53857400000015,103.58984400000008,101.15380900000036,120.64111300000059,76.9228520000006
191,77.56396500000028,17.69238299999961,78.20507799999996,68.0771479999994,98.58984400000008,112.05126999999993,87.56396500000028,107.56396500000028,116.41015599999992,102.82031300000017,115.0,102.17968800000017,126.0258789999998,80.51269500000035
192,82.82031300000017,30.641113000000587,81.41015599999992,71.79492200000004,99.74365200000011,117.43603499999972,89.10253900000043,112.94873000000007,121.79492200000004,113.84619099999964,125.0,102.56396500000028,130.51269500000035,85.38476599999922
193,86.0258789999998,41.666503999999804,87.30761700000039,71.9228520000006,100.64111300000059,118.20507799999996,89.87158199999976,115.25634799999989,124.48730499999965,123.0771479999994,129.7436520000001,102.05126999999993,131.79492200000004,89.10253900000043
194,87.30761700000039,45.38476599999922,93.58984400000008,70.0,102.30761700000039,115.76904300000024,90.89746099999957,113.7177729999994,123.9741210000002,125.89746099999957,129.7436520000001,101.2822270000006,131.53857400000015,91.6665039999998
195,89.35888699999941,42.82031300000017,98.46142599999985,70.76904300000024,106.41015599999992,113.3334960000002,93.58984400000008,111.2822270000006,121.9228520000006,121.79492200000004,128.84619099999964,101.6665039999998,132.94873000000007,94.35888699999941
196,94.35888699999941,38.846190999999635,101.6665039999998,76.2822270000006,112.94873000000007,113.0771479999994,97.56396500000028,112.05126999999993,120.38476599999922,114.61523400000078,129.87158199999976,103.84619099999964,137.56396500000028,98.9741210000002
197,101.53857400000015,37.69238299999961,103.7177729999994,83.3334960000002,118.20507799999996,115.12841800000024,100.64111300000059,116.79492200000004,120.89746099999957,110.12841800000024,132.82031300000017,107.05126999999993,144.48730499999965,104.48730499999965
198,106.6665039999998,38.974121000000196,103.9741210000002,85.76904300000024,117.69238299999961,117.43603499999972,99.61523400000078,121.2822270000006,122.82031300000017,111.9228520000006,135.12841800000024,109.10253900000043,149.7436520000001,108.0771479999994
199,105.89746099999957,39.61523400000078,101.41015599999992,80.89746099999957,111.0258789999998,117.94873000000007,93.84619099999964,120.89746099999957,124.35888699999941,119.23095699999976,134.3588869999994,108.0771479999994,149.61523400000078,106.9228520000006
200,100.0,38.0771479999994,97.17968800000017,73.0771479999994,103.20507799999996,115.89746099999957,86.0258789999998,114.74365200000011,124.61523400000078,127.82031300000017,130.89746099999957,104.61523400000078,144.10253900000043,102.17968800000017
201,94.35888699999941,37.17968800000017,94.87158199999976,70.25634799999989,101.9228520000006,113.46142599999985,81.53857400000015,108.58984400000008,125.0,133.58984400000008,128.84619099999964,101.79492200000004,138.46142599999985,98.9741210000002
202,95.38476599999922,42.82031300000017,97.82031300000017,77.82031300000017,111.0258789999998,112.56396500000028,84.35888699999941,109.48730499999965,127.94873000000007,135.38476599999922,132.82031300000017,103.46142599999985,139.7436520000001,101.6665039999998
203,104.87158199999976,57.30761700000039,106.0258789999998,93.0771479999994,127.05126999999993,113.84619099999964,93.46142599999985,119.10253900000043,134.23095699999976,135.6411130000006,143.7177729999994,110.25634799999989,150.0,110.38476599999922
204,117.17968800000017,74.74365200000011,114.61523400000078,107.17968800000017,140.51269500000035,115.76904300000024,102.69238299999961,131.0258789999998,141.15380900000036,136.79492200000004,156.15380900000036,118.46142599999985,163.46142599999985,119.74365200000011
205,123.20507799999996,84.23095699999976,117.94873000000007,111.0258789999998,142.05126999999993,116.6665039999998,105.76904300000024,136.2822270000006,144.48730499999965,138.0771479999994,161.41015599999992,121.6665039999998,170.0,123.0771479999994
206,118.20507799999996,78.84619099999964,113.7177729999994,102.43603499999972,129.23095699999976,115.89746099999957,101.15380900000036,129.7436520000001,141.79492200000004,137.05126999999993,153.9741210000002,116.53857400000015,163.9741210000002,117.30761700000039
207,106.2822270000006,62.30761700000039,104.48730499999965,88.3334960000002,109.10253900000043,114.87158199999976,93.20507799999996,115.38476599999922,134.48730499999965,132.3076170000004,136.0258789999998,106.2822270000006,148.20507799999996,106.15380900000036
208,96.6665039999998,46.53857400000015,96.2822270000006,79.74365200000011,94.23095699999976,114.74365200000011,88.20507799999996,102.30761700000039,127.17968800000017,125.0,116.6665039999998,98.20507799999996,132.05126999999993,96.6665039999998
209,96.53857400000015,42.30761700000039,94.10253900000043,82.69238299999961,93.58984400000008,115.25634799999989,89.61523400000078,98.3334960000002,123.84619099999964,118.58984400000008,106.15380900000036,97.82031300000017,124.10253900000043,93.7177729999994
210,104.61523400000078,50.38476599999922,98.0771479999994,93.9741210000002,107.30761700000039,115.25634799999989,96.0258789999998,104.87158199999976,125.25634799999989,116.2822270000006,108.58984400000008,104.61523400000078,126.53857400000015,97.69238299999961
211,114.48730499999965,62.82031300000017,104.23095699999976,104.61523400000078,126.41015599999992,114.23095699999976,102.69238299999961,115.89746099999957,129.23095699999976,119.23095699999976,120.12841800000024,112.82031300000017,135.12841800000024,103.84619099999964
212,118.9741210000002,70.12841800000024,107.43603499999972,107.30761700000039,139.3588869999994,113.20507799999996,105.38476599999922,123.84619099999964,133.20507799999996,125.25634799999989,132.3076170000004,116.2822270000006,142.94873000000007,107.05126999999993
213,115.64111300000059,68.0771479999994,105.64111300000059,101.6665039999998,139.7436520000001,113.0771479999994,103.3334960000002,124.61523400000078,135.12841800000024,129.7436520000001,137.56396500000028,112.94873000000007,145.0,105.38476599999922
214,107.30761700000039,59.23095699999976,101.2822270000006,92.05126999999993,129.7436520000001,113.84619099999964,98.84619099999964,119.87158199999976,134.61523400000078,130.12841800000024,134.61523400000078,105.89746099999957,141.41015599999992,101.0258789999998
215,100.0,50.64111300000059,98.20507799999996,83.84619099999964,117.43603499999972,114.23095699999976,95.76904300000024,114.61523400000078,133.0771479999994,128.3334960000002,128.84619099999964,100.64111300000059,137.6923829999996,97.82031300000017
216,97.94873000000007,47.82031300000017,98.84619099999964,80.0,110.89746099999957,113.0771479999994,96.2822270000006,113.58984400000008,133.20507799999996,128.84619099999964,127.30761700000039,101.2822270000006,139.61523400000078,98.20507799999996
217,101.6665039999998,51.53857400000015,102.69238299999961,81.2822270000006,113.20507799999996,110.25634799999989,99.10253900000043,117.30761700000039,135.76904300000024,132.82031300000017,132.56396500000028,107.69238299999961,148.0771479999994,101.79492200000004
218,106.9228520000006,57.56396500000028,106.53857400000015,85.64111300000059,119.74365200000011,107.05126999999993,100.64111300000059,122.17968800000017,137.82031300000017,136.15380900000036,139.48730499999965,115.38476599999922,156.6665039999998,105.64111300000059
219,108.7177729999994,60.0,106.9228520000006,89.10253900000043,122.94873000000007,105.64111300000059,98.58984400000008,123.46142599999985,136.0258789999998,132.82031300000017,140.51269500000035,118.7177729999994,157.6923829999996,106.6665039999998
220,105.0,56.79492200000004,102.82031300000017,88.7177729999994,118.20507799999996,107.30761700000039,93.46142599999985,119.23095699999976,129.87158199999976,121.79492200000004,132.05126999999993,115.76904300000024,149.10253900000043,103.84619099999964
221,98.58984400000008,51.410155999999915,97.05126999999993,84.48730499999965,109.61523400000078,111.41015599999992,88.84619099999964,112.05126999999993,122.43603499999972,109.23095699999976,118.9741210000002,109.48730499999965,136.2822270000006,98.9741210000002
222,94.10253900000043,49.23095699999976,93.84619099999964,79.87158199999976,106.2822270000006,115.64111300000059,88.58984400000008,106.6665039999998,118.3334960000002,103.7177729999994,110.38476599999922,103.9741210000002,127.56396500000028,95.25634799999989
223,94.87158199999976,53.46142599999985,96.15380900000036,79.61523400000078,113.3334960000002,117.30761700000039,93.7177729999994,106.53857400000015,119.87158199999976,109.35888699999941,111.9228520000006,102.05126999999993,127.94873000000007,95.38476599999922
224,101.53857400000015,61.9228520000006,102.82031300000017,85.51269500000035,127.43603499999972,116.15380900000036,101.2822270000006,111.53857400000015,125.0,122.17968800000017,122.05126999999993,103.20507799999996,136.2822270000006,99.87158199999976
225,111.0258789999998,70.0,109.61523400000078,94.35888699999941,138.9741210000002,114.35888699999941,106.53857400000015,117.56396500000028,129.10253900000043,133.46142599999985,133.3334960000002,105.89746099999957,147.05126999999993,106.2822270000006
226,118.7177729999994,73.7177729999994,112.56396500000028,100.12841800000024,140.0,114.10253900000043,105.89746099999957,120.0,128.58984400000008,137.05126999999993,137.94873000000007,108.3334960000002,153.9741210000002,110.89746099999957
227,121.6665039999998,71.53857400000015,110.25634799999989,98.46142599999985,130.0,115.12841800000024,99.10253900000043,116.79492200000004,123.3334960000002,132.82031300000017,133.20507799999996,109.10253900000043,153.0771479999994,110.64111300000059
228,119.87158199999976,63.7177729999994,104.61523400000078,88.9741210000002,115.64111300000059,115.64111300000059,89.61523400000078,110.38476599999922,116.79492200000004,124.10253900000043,122.56396500000028,108.3334960000002,144.7436520000001,105.51269500000035
229,115.89746099999957,52.82031300000017,99.61523400000078,76.15380900000036,105.25634799999989,113.58984400000008,82.82031300000017,105.51269500000035,112.17968800000017,115.51269500000035,113.46142599999985,106.9228520000006,133.84619099999964,98.58984400000008
230,113.7177729999994,44.35888699999941,97.82031300000017,66.9228520000006,104.74365200000011,109.48730499999965,82.30761700000039,105.64111300000059,111.41015599999992,110.25634799999989,111.41015599999992,106.2822270000006,127.17968800000017,94.10253900000043
231,115.76904300000024,44.102539000000434,99.35888699999941,66.53857400000015,113.7177729999994,106.41015599999992,87.94873000000007,110.38476599999922,114.35888699999941,109.48730499999965,116.79492200000004,107.17968800000017,129.23095699999976,94.87158199999976
232,121.6665039999998,53.846190999999635,102.56396500000028,75.38476599999922,126.53857400000015,107.17968800000017,95.64111300000059,115.89746099999957,118.7177729999994,112.17968800000017,124.35888699999941,109.23095699999976,139.3588869999994,101.53857400000015
233,128.46142599999985,68.84619099999964,105.0,88.0771479999994,134.87158199999976,111.2822270000006,100.76904300000024,116.9228520000006,121.79492200000004,115.51269500000035,128.58984400000008,110.89746099999957,152.17968800000017,111.79492200000004
234,133.0771479999994,80.64111300000059,105.25634799999989,97.56396500000028,133.7177729999994,116.2822270000006,100.76904300000024,111.6665039999998,121.53857400000015,117.82031300000017,128.46142599999985,111.53857400000015,161.41015599999992,121.0258789999998
235,134.23095699999976,83.84619099999964,103.7177729999994,100.38476599999922,125.51269500000035,118.9741210000002,97.17968800000017,103.3334960000002,118.46142599999985,118.3334960000002,127.43603499999972,111.2822270000006,165.2563479999999,126.2822270000006
236,133.46142599999985,79.35888699999941,102.69238299999961,97.94873000000007,117.56396500000028,118.7177729999994,94.10253900000043,97.82031300000017,115.38476599999922,117.82031300000017,129.23095699999976,111.6665039999998,165.51269500000035,126.79492200000004
237,132.6923829999996,72.17968800000017,103.46142599999985,93.9741210000002,116.41015599999992,117.17968800000017,94.87158199999976,99.35888699999941,114.61523400000078,116.6665039999998,133.3334960000002,113.0771479999994,164.7436520000001,124.48730499999965
238,132.56396500000028,66.79492200000004,105.51269500000035,90.76904300000024,121.79492200000004,116.53857400000015,98.9741210000002,106.0258789999998,116.15380900000036,115.51269500000035,135.12841800000024,114.74365200000011,163.9741210000002,121.9228520000006
239,133.20507799999996,65.38476599999922,107.56396500000028,89.10253900000043,128.58984400000008,116.9228520000006,102.43603499999972,112.82031300000017,119.23095699999976,116.0258789999998,131.9228520000006,115.64111300000059,163.0771479999994,120.76904300000024
240,135.0,68.0771479999994,109.74365200000011,89.10253900000043,130.89746099999957,117.05126999999993,101.6665039999998,115.76904300000024,123.20507799999996,120.38476599999922,126.53857400000015,115.76904300000024,161.79492200000004,122.30761700000039
241,138.84619099999964,73.46142599999985,113.3334960000002,90.64111300000059,127.69238299999961,116.15380900000036,96.6665039999998,115.38476599999922,127.82031300000017,127.94873000000007,125.0,116.0258789999998,160.2563479999999,126.9228520000006
242,144.7436520000001,79.48730499999965,118.0771479999994,92.56396500000028,121.6665039999998,114.23095699999976,90.89746099999957,114.87158199999976,131.9228520000006,135.51269500000035,130.38476599999922,117.05126999999993,159.87158199999976,133.20507799999996
243,150.0,83.9741210000002,121.53857400000015,91.79492200000004,116.53857400000015,112.30761700000039,88.84619099999964,116.2822270000006,133.84619099999964,138.84619099999964,139.10253900000043,118.58984400000008,161.15380900000036,137.94873000000007
244,151.2822270000006,84.61523400000078,120.89746099999957,86.53857400000015,113.9741210000002,111.15380900000036,91.41015599999992,118.46142599999985,132.56396500000028,136.2822270000006,144.10253900000043,119.61523400000078,162.56396500000028,138.20507799999996
245,146.2822270000006,80.12841800000024,115.38476599999922,78.20507799999996,112.69238299999961,111.0258789999998,95.51269500000035,118.20507799999996,128.3334960000002,129.23095699999976,140.76904300000024,119.61523400000078,160.76904300000024,133.0771479999994
246,135.51269500000035,70.25634799999989,106.9228520000006,70.89746099999957,110.25634799999989,110.76904300000024,96.15380900000036,113.46142599999985,122.05126999999993,120.76904300000024,129.7436520000001,117.69238299999961,153.46142599999985,123.9741210000002
247,123.20507799999996,58.20507799999996,98.9741210000002,68.58984400000008,106.6665039999998,110.0,91.53857400000015,105.64111300000059,115.25634799999989,114.35888699999941,117.30761700000039,113.9741210000002,142.3076170000004,114.35888699999941
248,115.25634799999989,49.74365200000011,94.74365200000011,72.30761700000039,105.89746099999957,109.61523400000078,85.0,99.10253900000043,110.76904300000024,112.56396500000028,110.25634799999989,110.38476599999922,133.20507799999996,108.20507799999996
249,114.48730499999965,49.48730499999965,95.64111300000059,79.35888699999941,111.9228520000006,110.89746099999957,82.17968800000017,98.0771479999994,111.15380900000036,115.25634799999989,111.41015599999992,109.48730499999965,131.41015599999992,107.82031300000017
250,118.20507799999996,56.410155999999915,100.38476599999922,85.51269500000035,123.9741210000002,114.10253900000043,86.0258789999998,103.58984400000008,116.2822270000006,119.35888699999941,117.30761700000039,111.53857400000015,137.43603499999972,111.9228520000006
251,120.76904300000024,63.589844000000085,105.25634799999989,87.30761700000039,135.0,117.17968800000017,93.58984400000008,111.79492200000004,122.30761700000039,120.38476599999922,121.15380900000036,114.10253900000043,145.51269500000035,116.2822270000006
252,118.9741210000002,65.89746099999957,107.43603499999972,83.9741210000002,137.6923829999996,117.82031300000017,99.61523400000078,117.43603499999972,126.0258789999998,116.79492200000004,119.87158199999976,115.38476599999922,150.0,117.56396500000028
253,115.76904300000024,65.12841800000024,107.17968800000017,79.35888699999941,131.6665039999998,116.15380900000036,101.41015599999992,118.58984400000008,127.43603499999972,113.20507799999996,117.17968800000017,115.25634799999989,150.0,116.41015599999992
254,116.6665039999998,67.69238299999961,107.30761700000039,78.20507799999996,123.46142599999985,114.48730499999965,100.51269500000035,118.46142599999985,130.0,116.15380900000036,120.25634799999989,115.38476599999922,149.23095699999976,116.53857400000015
255,124.10253900000043,77.69238299999961,111.15380900000036,82.94873000000007,121.0258789999998,114.48730499999965,100.89746099999957,121.53857400000015,136.53857400000015,127.69238299999961,131.41015599999992,116.9228520000006,151.2822270000006,120.89746099999957
256,135.0,91.15380900000036,117.94873000000007,91.79492200000004,126.15380900000036,115.64111300000059,104.35888699999941,129.23095699999976,145.0,142.56396500000028,145.0,119.48730499999965,155.2563479999999,128.9741210000002
257,142.56396500000028,99.10253900000043,123.20507799999996,100.64111300000059,133.9741210000002,116.15380900000036,108.7177729999994,137.17968800000017,150.12841800000024,152.05126999999993,152.43603499999972,121.2822270000006,156.9228520000006,135.6411130000006
258,140.76904300000024,94.74365200000011,121.9228520000006,104.48730499999965,137.17968800000017,114.61523400000078,110.12841800000024,139.3588869999994,147.05126999999993,150.6411130000006,148.3334960000002,121.0258789999998,152.56396500000028,135.12841800000024
259,129.3588869999994,80.12841800000024,113.46142599999985,101.0258789999998,131.6665039999998,111.6665039999998,106.15380900000036,133.0771479999994,136.15380900000036,139.3588869999994,134.3588869999994,118.20507799999996,142.3076170000004,124.87158199999976
260,114.23095699999976,63.7177729999994,102.82031300000017,91.15380900000036,119.61523400000078,109.35888699999941,98.7177729999994,121.41015599999992,122.94873000000007,124.48730499999965,117.30761700000039,114.10253900000043,130.6411130000006,108.9741210000002
261,104.48730499999965,55.51269500000035,96.2822270000006,79.74365200000011,108.0771479999994,110.0,93.0771479999994,111.2822270000006,114.87158199999976,113.20507799999996,105.38476599999922,110.76904300000024,123.3334960000002,95.89746099999957
262,105.64111300000059,59.74365200000011,97.43603499999972,72.05126999999993,104.10253900000043,113.46142599999985,92.69238299999961,108.58984400000008,116.0258789999998,109.74365200000011,103.46142599999985,110.51269500000035,123.58984400000008,93.0771479999994
263,116.15380900000036,72.05126999999993,104.87158199999976,71.15380900000036,108.84619099999964,117.56396500000028,97.30761700000039,113.20507799999996,124.35888699999941,113.84619099999964,111.41015599999992,113.20507799999996,129.87158199999976,101.2822270000006
264,128.0771479999994,83.0771479999994,113.7177729999994,75.51269500000035,116.79492200000004,119.35888699999941,102.82031300000017,119.74365200000011,132.6923829999996,121.2822270000006,123.20507799999996,116.53857400000015,136.53857400000015,113.7177729999994
265,133.84619099999964,85.0,119.10253900000043,80.76904300000024,120.51269500000035,118.3334960000002,104.87158199999976,122.82031300000017,134.7436520000001,125.76904300000024,131.2822270000006,118.58984400000008,138.0771479999994,120.89746099999957
266,131.41015599999992,77.94873000000007,118.9741210000002,82.82031300000017,116.53857400000015,115.64111300000059,102.82031300000017,121.15380900000036,129.61523400000078,123.84619099999964,131.0258789999998,118.3334960000002,133.7177729999994,118.3334960000002
267,125.12841800000024,68.84619099999964,115.64111300000059,80.25634799999989,108.46142599999985,113.3334960000002,98.9741210000002,118.0771479999994,122.05126999999993,116.41015599999992,123.58984400000008,116.6665039999998,127.56396500000028,109.61523400000078
268,121.0258789999998,64.87158199999976,112.94873000000007,76.53857400000015,103.58984400000008,112.56396500000028,96.53857400000015,116.9228520000006,118.84619099999964,109.10253900000043,115.64111300000059,115.0,125.0,102.94873000000007
269,122.69238299999961,68.7177729999994,113.3334960000002,75.64111300000059,106.79492200000004,112.69238299999961,96.53857400000015,118.7177729999994,122.43603499999972,107.30761700000039,113.46142599999985,114.74365200000011,128.3334960000002,104.61523400000078
270,128.84619099999964,77.17968800000017,116.41015599999992,79.35888699999941,117.43603499999972,113.0771479999994,97.82031300000017,122.17968800000017,130.12841800000024,113.46142599999985,119.48730499999965,116.0258789999998,135.89746099999957,115.12841800000024
271,136.0258789999998,86.0258789999998,119.87158199999976,85.0,129.61523400000078,113.84619099999964,99.23095699999976,125.12841800000024,136.9228520000006,125.0,130.2563479999999,117.94873000000007,144.3588869999994,128.84619099999964
272,140.38476599999922,91.79492200000004,121.2822270000006,87.94873000000007,136.9228520000006,115.12841800000024,100.51269500000035,125.76904300000024,139.48730499999965,136.41015599999992,139.61523400000078,119.48730499999965,150.89746099999957,137.82031300000017
273,140.12841800000024,93.0771479999994,119.74365200000011,85.12841800000024,136.0258789999998,115.76904300000024,101.0258789999998,123.46142599999985,137.56396500000028,141.79492200000004,142.6923829999996,120.0,153.20507799999996,137.43603499999972
274,135.6411130000006,89.74365200000011,116.6665039999998,77.94873000000007,128.46142599999985,114.48730499999965,100.76904300000024,119.48730499999965,133.20507799999996,137.6923829999996,138.84619099999964,119.48730499999965,150.76904300000024,128.7177729999994
275,130.12841800000024,83.84619099999964,114.48730499999965,71.0258789999998,118.9741210000002,111.6665039999998,100.12841800000024,116.15380900000036,128.84619099999964,126.15380900000036,132.05126999999993,118.58984400000008,145.51269500000035,118.46142599999985
276,128.20507799999996,80.25634799999989,115.51269500000035,69.10253900000043,112.94873000000007,109.10253900000043,100.64111300000059,116.2822270000006,127.43603499999972,114.23095699999976,127.94873000000007,118.20507799999996,142.3076170000004,114.35888699999941
277,131.53857400000015,82.17968800000017,119.35888699999941,73.7177729999994,111.9228520000006,108.7177729999994,103.0771479999994,120.38476599999922,130.6411130000006,109.61523400000078,130.0,118.58984400000008,143.9741210000002,118.84619099999964
278,136.79492200000004,87.94873000000007,122.56396500000028,80.89746099999957,113.0771479999994,110.25634799999989,105.76904300000024,125.38476599999922,136.15380900000036,113.7177729999994,135.6411130000006,118.9741210000002,148.84619099999964,126.9228520000006
279,138.46142599999985,91.53857400000015,121.79492200000004,84.35888699999941,112.43603499999972,111.6665039999998,106.0258789999998,127.05126999999993,138.46142599999985,120.89746099999957,139.48730499999965,118.0771479999994,151.41015599999992,130.38476599999922
280,134.23095699999976,89.61523400000078,116.6665039999998,81.41015599999992,109.48730499999965,111.2822270000006,103.0771479999994,123.3334960000002,133.9741210000002,124.10253900000043,137.56396500000028,115.89746099999957,148.20507799999996,125.64111300000059
281,127.69238299999961,84.74365200000011,110.51269500000035,74.87158199999976,108.0771479999994,109.74365200000011,99.10253900000043,116.9228520000006,124.74365200000011,121.0258789999998,131.53857400000015,113.7177729999994,141.6665039999998,117.17968800000017
282,125.0,82.69238299999961,107.82031300000017,69.61523400000078,111.53857400000015,108.7177729999994,97.30761700000039,112.82031300000017,116.6665039999998,116.41015599999992,125.64111300000059,112.69238299999961,137.6923829999996,113.20507799999996
283,128.3334960000002,86.2822270000006,110.38476599999922,67.17968800000017,117.82031300000017,109.48730499999965,98.58984400000008,113.7177729999994,114.35888699999941,115.76904300000024,123.58984400000008,113.84619099999964,139.87158199999976,117.56396500000028
284,134.48730499999965,92.30761700000039,115.76904300000024,64.23095699999976,121.15380900000036,111.9228520000006,101.0258789999998,117.69238299999961,118.20507799999996,120.38476599999922,126.15380900000036,116.41015599999992,146.0258789999998,126.41015599999992
285,136.79492200000004,94.61523400000078,118.3334960000002,56.79492200000004,117.82031300000017,114.61523400000078,102.17968800000017,120.25634799999989,123.9741210000002,125.38476599999922,131.79492200000004,118.9741210000002,149.48730499999965,131.41015599999992
286,130.51269500000035,89.61523400000078,114.10253900000043,44.102539000000434,109.87158199999976,115.89746099999957,100.76904300000024,117.69238299999961,126.41015599999992,124.87158199999976,136.79492200000004,119.61523400000078,144.87158199999976,127.30761700000039
287,116.41015599999992,78.9741210000002,103.46142599999985,30.384765999999217,102.17968800000017,115.51269500000035,97.17968800000017,109.48730499999965,122.30761700000039,117.05126999999993,137.05126999999993,117.30761700000039,132.43603499999972,114.61523400000078
288,100.89746099999957,68.46142599999985,91.79492200000004,22.17968800000017,99.74365200000011,114.23095699999976,93.46142599999985,100.25634799999989,113.9741210000002,106.15380900000036,130.89746099999957,112.56396500000028,117.94873000000007,100.64111300000059
289,92.94873000000007,64.35888699999941,85.38476599999922,23.205077999999958,103.9741210000002,113.3334960000002,91.79492200000004,95.76904300000024,107.17968800000017,98.58984400000008,121.79492200000004,108.0771479999994,109.35888699999941,93.7177729999994
290,96.9228520000006,69.61523400000078,87.17968800000017,31.282227000000603,112.82031300000017,113.58984400000008,93.0771479999994,99.61523400000078,107.30761700000039,99.10253900000043,115.76904300000024,106.2822270000006,111.41015599999992,97.43603499999972
291,109.35888699999941,80.89746099999957,95.0,39.23095699999976,122.05126999999993,114.87158199999976,95.89746099999957,109.10253900000043,113.9741210000002,107.17968800000017,117.30761700000039,108.20507799999996,122.17968800000017,107.69238299999961
292,121.2822270000006,90.51269500000035,103.0771479999994,40.25634799999989,127.05126999999993,116.0258789999998,97.43603499999972,117.56396500000028,121.15380900000036,116.79492200000004,125.25634799999989,112.05126999999993,134.10253900000043,116.6665039999998
293,124.61523400000078,91.79492200000004,106.53857400000015,32.43603499999972,125.0,116.0258789999998,96.53857400000015,119.87158199999976,122.69238299999961,121.15380900000036,133.20507799999996,115.64111300000059,138.84619099999964,118.20507799999996
294,118.3334960000002,84.74365200000011,103.9741210000002,19.871581999999762,116.6665039999998,115.0,93.58984400000008,116.15380900000036,117.56396500000028,117.56396500000028,135.0,116.79492200000004,133.7177729999994,113.20507799999996
295,108.7177729999994,76.9228520000006,98.84619099999964,8.717772999999397,106.0258789999998,113.84619099999964,91.15380900000036,111.0258789999998,111.9228520000006,109.87158199999976,129.48730499999965,115.51269500000035,124.48730499999965,107.30761700000039
296,103.58984400000008,75.76904300000024,95.64111300000059,3.077147999999397,99.35888699999941,113.58984400000008,91.2822270000006,109.35888699999941,112.30761700000039,106.9228520000006,121.79492200000004,113.84619099999964,120.12841800000024,106.53857400000015
297,107.05126999999993,83.3334960000002,97.05126999999993,3.5898440000000846,99.87158199999976,113.9741210000002,94.35888699999941,112.94873000000007,120.38476599999922,114.74365200000011,119.61523400000078,113.84619099999964,125.12841800000024,111.9228520000006
298,116.15380900000036,93.46142599999985,102.17968800000017,7.948730000000069,106.41015599999992,114.35888699999941,98.9741210000002,118.9741210000002,130.89746099999957,130.38476599999922,126.15380900000036,115.64111300000059,136.2822270000006,119.23095699999976
299,124.23095699999976,98.46142599999985,106.9228520000006,11.922852000000603,113.3334960000002,114.23095699999976,102.69238299999961,123.0771479999994,135.89746099999957,143.20507799999996,137.6923829999996,117.69238299999961,146.15380900000036,122.94873000000007
300,125.89746099999957,95.12841800000024,107.30761700000039,12.051269999999931,115.89746099999957,113.7177729999994,103.84619099999964,122.82031300000017,132.3076170000004,142.56396500000028,145.12841800000024,118.0771479999994,148.58984400000008,120.38476599999922
301,121.0258789999998,86.79492200000004,102.94873000000007,7.56396500000028,113.0771479999994,113.7177729999994,102.43603499999972,118.84619099999964,123.0771479999994,127.43603499999972,142.6923829999996,116.41015599999992,143.0771479999994,113.9741210000002
302,114.35888699999941,79.87158199999976,97.30761700000039,1.6665039999998044,107.56396500000028,114.48730499999965,99.74365200000011,114.61523400000078,114.35888699999941,107.30761700000039,132.6923829999996,113.84619099999964,133.84619099999964,108.7177729999994
303,111.2822270000006,78.9741210000002,95.64111300000059,-2.3076170000003913,103.3334960000002,115.0,97.56396500000028,113.0771479999994,111.2822270000006,94.87158199999976,124.35888699999941,112.43603499999972,127.56396500000028,108.0771479999994
304,113.84619099999964,83.84619099999964,100.25634799999989,-3.4614259999998467,103.7177729999994,114.35888699999941,97.17968800000017,114.87158199999976,114.10253900000043,97.17968800000017,125.0,113.3334960000002,128.0771479999994,112.56396500000028
305,119.87158199999976,89.74365200000011,108.58984400000008,-3.4614259999998467,109.23095699999976,112.30761700000039,98.58984400000008,118.3334960000002,119.10253900000043,110.51269500000035,133.3334960000002,116.0258789999998,133.9741210000002,118.84619099999964
306,124.87158199999976,91.9228520000006,114.48730499999965,-4.358886999999868,116.53857400000015,109.87158199999976,100.38476599999922,120.64111300000059,121.53857400000015,124.74365200000011,140.76904300000024,118.7177729999994,139.61523400000078,122.30761700000039
307,125.64111300000059,88.9741210000002,114.10253900000043,-6.281981999999971,120.64111300000059,107.94873000000007,100.76904300000024,120.25634799999989,119.35888699999941,129.7436520000001,139.61523400000078,119.35888699999941,139.48730499999965,121.15380900000036
308,122.69238299999961,84.23095699999976,108.46142599999985,-7.179442999999992,119.23095699999976,107.94873000000007,99.87158199999976,117.82031300000017,115.0,122.17968800000017,130.0,117.17968800000017,132.3076170000004,117.17968800000017
309,119.61523400000078,82.94873000000007,102.30761700000039,-4.871825999999601,114.23095699999976,109.87158199999976,99.61523400000078,115.38476599999922,112.17968800000017,107.82031300000017,119.48730499999965,113.3334960000002,122.17968800000017,114.61523400000078
310,118.7177729999994,88.3334960000002,99.61523400000078,-0.12841800000023795,110.76904300000024,112.82031300000017,100.64111300000059,114.74365200000011,112.94873000000007,97.94873000000007,115.76904300000024,109.87158199999976,115.25634799999989,115.64111300000059
311,119.48730499999965,97.69238299999961,100.25634799999989,3.5898440000000846,112.94873000000007,114.74365200000011,101.79492200000004,115.76904300000024,115.38476599999922,100.38476599999922,120.64111300000059,108.20507799999996,115.0,118.20507799999996
312,120.12841800000024,105.12841800000024,101.6665039999998,2.8203130000001693,120.0,114.10253900000043,101.53857400000015,117.17968800000017,116.41015599999992,113.46142599999985,130.0,108.58984400000008,119.61523400000078,118.84619099999964
313,119.74365200000011,105.64111300000059,101.79492200000004,-2.0512699999999313,127.05126999999993,111.53857400000015,99.61523400000078,117.43603499999972,115.12841800000024,127.17968800000017,137.94873000000007,110.38476599999922,125.0,116.2822270000006
314,119.10253900000043,100.64111300000059,101.79492200000004,-7.564209000000574,128.84619099999964,108.9741210000002,97.94873000000007,116.53857400000015,113.7177729999994,131.9228520000006,141.0258789999998,112.56396500000028,128.20507799999996,113.0771479999994
315,120.25634799999989,95.89746099999957,104.23095699999976,-10.0,124.48730499999965,108.46142599999985,98.9741210000002,115.89746099999957,115.51269500000035,126.41015599999992,140.2563479999999,114.74365200000011,129.7436520000001,113.3334960000002
316,123.9741210000002,96.6665039999998,109.61523400000078,-8.205077999999958,117.69238299999961,110.51269500000035,103.46142599999985,116.9228520000006,121.79492200000004,117.69238299999961,139.10253900000043,116.6665039999998,131.53857400000015,119.10253900000043
317,128.46142599999985,101.53857400000015,115.51269500000035,-5.38452099999995,112.69238299999961,113.7177729999994,109.23095699999976,118.9741210000002,129.87158199999976,113.7177729999994,138.9741210000002,117.56396500000028,133.7177729999994,127.05126999999993
318,129.10253900000043,104.23095699999976,117.43603499999972,-5.769286999999622,110.76904300000024,116.0258789999998,112.82031300000017,120.25634799999989,134.48730499999965,116.15380900000036,137.94873000000007,116.41015599999992,133.3334960000002,130.89746099999957
319,122.94873000000007,99.35888699999941,112.69238299999961,-10.769286999999622,110.12841800000024,116.6665039999998,111.2822270000006,118.84619099999964,131.2822270000006,119.23095699999976,132.17968800000017,112.30761700000039,128.0771479999994,126.53857400000015
320,111.2822270000006,88.20507799999996,102.94873000000007,-17.435790999999426,108.3334960000002,115.64111300000059,105.38476599999922,115.25634799999989,120.51269500000035,117.05126999999993,121.79492200000004,106.2822270000006,118.9741210000002,116.0258789999998
321,100.12841800000024,78.20507799999996,93.9741210000002,-20.641113000000132,105.38476599999922,114.23095699999976,98.7177729999994,111.53857400000015,107.56396500000028,108.7177729999994,111.6665039999998,101.15380900000036,110.89746099999957,105.89746099999957
322,95.25634799999989,77.82031300000017,90.89746099999957,-18.846190999999635,103.84619099999964,113.3334960000002,95.64111300000059,110.76904300000024,99.48730499999965,99.35888699999941,108.84619099999964,99.74365200000011,109.10253900000043,102.17968800000017
323,97.94873000000007,88.84619099999964,94.74365200000011,-16.28198199999997,106.53857400000015,112.82031300000017,97.05126999999993,113.46142599999985,100.38476599999922,95.51269500000035,115.25634799999989,102.56396500000028,114.48730499999965,106.41015599999992
324,103.84619099999964,104.35888699999941,101.0258789999998,-18.71801800000003,112.82031300000017,112.69238299999961,100.38476599999922,117.82031300000017,107.94873000000007,99.35888699999941,126.2822270000006,108.0771479999994,123.46142599999985,114.35888699999941
325,107.69238299999961,113.3334960000002,104.48730499999965,-26.666747999999643,118.20507799999996,112.69238299999961,102.05126999999993,120.25634799999989,115.89746099999957,107.56396500000028,133.84619099999964,113.0771479999994,129.7436520000001,120.0
326,107.05126999999993,110.38476599999922,102.56396500000028,-34.48706099999981,118.84619099999964,112.69238299999961,100.25634799999989,118.58984400000008,118.46142599999985,113.3334960000002,132.94873000000007,115.38476599999922,129.87158199999976,120.51269500000035
327,105.12841800000024,100.38476599999922,98.46142599999985,-34.10253899999998,116.15380900000036,112.43603499999972,97.43603499999972,114.48730499999965,115.64111300000059,112.94873000000007,125.64111300000059,114.74365200000011,126.0258789999998,118.0771479999994
328,106.2822270000006,93.84619099999964,97.69238299999961,-24.358886999999868,115.64111300000059,112.30761700000039,97.94873000000007,112.17968800000017,112.05126999999993,109.10253900000043,119.23095699999976,113.7177729999994,123.7177729999994,117.94873000000007
329,111.9228520000006,97.82031300000017,103.0771479999994,-11.538574000000153,120.89746099999957,113.0771479999994,103.7177729999994,114.23095699999976,112.56396500000028,108.84619099999964,119.48730499999965,114.87158199999976,127.05126999999993,123.0771479999994
330,118.20507799999996,109.23095699999976,111.9228520000006,-4.871825999999601,128.3334960000002,114.74365200000011,112.43603499999972,119.10253900000043,117.69238299999961,115.12841800000024,126.15380900000036,118.3334960000002,134.23095699999976,130.6411130000006
331,120.0,118.46142599999985,118.46142599999985,-8.461425999999847,129.61523400000078,116.0258789999998,118.3334960000002,122.17968800000017,123.20507799999996,122.56396500000028,133.9741210000002,121.2822270000006,139.87158199999976,134.61523400000078
332,115.76904300000024,117.43603499999972,118.46142599999985,-18.58984399999963,120.51269500000035,115.89746099999957,117.56396500000028,120.12841800000024,124.74365200000011,122.43603499999972,136.6665039999998,121.0258789999998,138.9741210000002,131.6665039999998
333,109.10253900000043,107.69238299999961,112.56396500000028,-27.30761700000039,105.76904300000024,114.61523400000078,110.89746099999957,113.84619099999964,121.0258789999998,112.17968800000017,132.05126999999993,117.82031300000017,132.56396500000028,123.46142599999985
334,105.25634799999989,98.3334960000002,105.64111300000059,-28.71801800000003,95.76904300000024,113.46142599999985,102.69238299999961,108.20507799999996,115.0,99.48730499999965,123.58984400000008,114.23095699999976,125.89746099999957,115.64111300000059
335,107.30761700000039,97.17968800000017,102.43603499999972,-22.820557000000008,97.43603499999972,112.94873000000007,97.56396500000028,107.30761700000039,111.0258789999998,95.64111300000059,116.53857400000015,112.69238299999961,123.58984400000008,112.56396500000028
336,113.58984400000008,104.87158199999976,104.61523400000078,-14.102538999999979,108.7177729999994,113.46142599999985,97.30761700000039,111.41015599999992,111.15380900000036,105.38476599999922,114.35888699999941,113.3334960000002,125.64111300000059,114.74365200000011
337,119.87158199999976,115.0,110.25634799999989,-7.179442999999992,121.0258789999998,114.48730499999965,100.51269500000035,117.17968800000017,114.61523400000078,122.43603499999972,116.2822270000006,114.74365200000011,129.61523400000078,119.48730499999965
338,122.82031300000017,121.53857400000015,115.12841800000024,-4.61547900000005,126.79492200000004,115.51269500000035,104.48730499999965,121.15380900000036,119.23095699999976,135.51269500000035,119.87158199999976,115.76904300000024,132.82031300000017,122.82031300000017
339,121.41015599999992,122.30761700000039,115.12841800000024,-6.41015600000037,124.35888699999941,116.2822270000006,106.79492200000004,121.53857400000015,122.30761700000039,136.41015599999992,122.56396500000028,115.51269500000035,134.3588869999994,123.0771479999994
340,116.53857400000015,118.84619099999964,109.61523400000078,-10.897461000000021,117.69238299999961,116.2822270000006,105.89746099999957,118.9741210000002,121.9228520000006,125.76904300000024,122.82031300000017,114.35888699999941,134.3588869999994,120.51269500000035
341,110.12841800000024,113.84619099999964,101.41015599999992,-16.538574000000153,111.6665039999998,115.64111300000059,102.17968800000017,115.0,117.43603499999972,111.41015599999992,120.64111300000059,112.56396500000028,132.94873000000007,116.9228520000006
342,105.12841800000024,110.51269500000035,96.41015599999992,-21.28198199999997,109.48730499999965,115.0,98.20507799999996,112.30761700000039,111.53857400000015,102.69238299999961,117.17968800000017,111.0258789999998,130.51269500000035,114.48730499999965
343,104.10253900000043,111.41015599999992,98.20507799999996,-23.076904000000013,111.9228520000006,115.0,96.79492200000004,112.69238299999961,109.23095699999976,104.35888699999941,114.74365200000011,110.76904300000024,128.3334960000002,115.38476599999922
344,108.3334960000002,116.41015599999992,105.76904300000024,-20.38452099999995,117.43603499999972,115.89746099999957,99.74365200000011,116.2822270000006,113.84619099999964,113.58984400000008,115.89746099999957,112.17968800000017,127.56396500000028,120.25634799999989
345,116.41015599999992,123.84619099999964,114.23095699999976,-13.461425999999847,123.84619099999964,116.6665039999998,105.51269500000035,121.53857400000015,123.9741210000002,123.84619099999964,120.64111300000059,114.48730499999965,128.84619099999964,127.56396500000028
346,124.10253900000043,130.38476599999922,118.46142599999985,-4.871825999999601,129.10253900000043,116.79492200000004,111.15380900000036,125.76904300000024,133.3334960000002,129.48730499999965,126.6665039999998,116.2822270000006,131.6665039999998,134.23095699999976
347,126.79492200000004,132.94873000000007,116.53857400000015,0.0,130.51269500000035,116.0258789999998,113.20507799999996,126.41015599999992,135.6411130000006,128.9741210000002,129.48730499999965,117.05126999999993,134.48730499999965,136.6665039999998
348,121.9228520000006,130.0,109.61523400000078,-2.8203119999998307,126.79492200000004,114.87158199999976,109.87158199999976,122.05126999999993,128.9741210000002,124.35888699999941,125.51269500000035,116.2822270000006,135.51269500000035,133.20507799999996
349,111.79492200000004,122.17968800000017,101.6665039999998,-12.179442999999992,119.10253900000043,114.10253900000043,103.20507799999996,114.23095699999976,117.69238299999961,117.82031300000017,114.87158199999976,113.84619099999964,134.23095699999976,124.74365200000011
350,102.30761700000039,113.0771479999994,96.53857400000015,-21.923095999999987,111.79492200000004,113.46142599999985,97.56396500000028,107.17968800000017,108.9741210000002,110.51269500000035,102.94873000000007,110.0,131.15380900000036,115.76904300000024
351,98.7177729999994,106.2822270000006,96.6665039999998,-25.25634799999989,109.10253900000043,112.43603499999972,96.79492200000004,105.0,107.30761700000039,104.23095699999976,96.53857400000015,106.53857400000015,127.17968800000017,110.89746099999957
352,100.64111300000059,103.20507799999996,100.12841800000024,-20.769286999999622,111.0258789999998,111.15380900000036,101.0258789999998,108.46142599999985,111.6665039999998,100.89746099999957,98.20507799999996,104.74365200000011,122.69238299999961,111.53857400000015
353,103.7177729999994,102.56396500000028,103.20507799999996,-13.333252000000357,114.10253900000043,109.74365200000011,106.15380900000036,113.84619099999964,116.9228520000006,102.30761700000039,104.10253900000043,104.74365200000011,118.20507799999996,114.74365200000011
354,103.7177729999994,102.56396500000028,102.82031300000017,-8.846190999999635,115.51269500000035,109.10253900000043,107.56396500000028,116.2822270000006,119.48730499999965,108.0771479999994,107.94873000000007,105.76904300000024,114.61523400000078,116.15380900000036
355,101.6665039999998,103.84619099999964,100.0,-9.487060999999812,116.15380900000036,109.87158199999976,104.74365200000011,115.0,119.48730499999965,115.89746099999957,106.6665039999998,107.17968800000017,114.10253900000043,114.74365200000011
356,102.05126999999993,107.94873000000007,97.82031300000017,-12.307617000000391,119.35888699999941,112.43603499999972,100.89746099999957,112.94873000000007,120.38476599999922,123.3334960000002,103.46142599999985,109.48730499999965,118.20507799999996,113.58984400000008
357,106.6665039999998,115.12841800000024,98.7177729999994,-13.58984399999963,126.15380900000036,115.76904300000024,100.0,113.58984400000008,124.10253900000043,129.10253900000043,103.58984400000008,113.0771479999994,125.25634799999989,115.64111300000059
358,112.43603499999972,121.15380900000036,101.6665039999998,-12.307617000000391,132.82031300000017,117.56396500000028,102.43603499999972,116.9228520000006,128.3334960000002,132.05126999999993,108.0771479999994,115.76904300000024,130.76904300000024,119.74365200000011
359,113.58984400000008,121.41015599999992,103.7177729999994,-9.8718259999996,134.23095699999976,116.9228520000006,104.61523400000078,119.23095699999976,128.0771479999994,130.76904300000024,111.79492200000004,115.25634799999989,129.48730499999965,121.41015599999992
360,108.84619099999964,115.25634799999989,102.82031300000017,-8.58984399999963,128.9741210000002,115.38476599999922,102.82031300000017,116.53857400000015,121.0258789999998,124.48730499999965,108.46142599999985,111.15380900000036,120.64111300000059,118.46142599999985
361,102.56396500000028,107.17968800000017,100.12841800000024,-9.230713000000378,120.25634799999989,115.0,97.05126999999993,109.35888699999941,110.38476599999922,114.87158199999976,97.69238299999961,105.89746099999957,109.48730499999965,112.82031300000017
362,100.38476599999922,102.05126999999993,98.20507799999996,-11.025634999999966,112.56396500000028,115.38476599999922,90.12841800000024,101.15380900000036,102.43603499999972,105.25634799999989,86.0258789999998,102.43603499999972,102.30761700000039,108.3334960000002
363,103.7177729999994,100.38476599999922,98.3334960000002,-13.076904000000013,107.05126999999993,114.87158199999976,85.25634799999989,95.89746099999957,100.0,98.3334960000002,80.25634799999989,101.9228520000006,101.0258789999998,107.05126999999993
364,108.46142599999985,98.84619099999964,99.48730499999965,-14.8718259999996,103.0771479999994,112.30761700000039,83.84619099999964,94.48730499999965,100.64111300000059,94.87158199999976,82.69238299999961,103.84619099999964,101.79492200000004,107.69238299999961
365,110.25634799999989,95.64111300000059,100.76904300000024,-15.769286999999622,100.51269500000035,109.10253900000043,85.64111300000059,96.2822270000006,100.76904300000024,94.48730499999965,90.25634799999989,106.2822270000006,101.15380900000036,108.20507799999996
366,108.20507799999996,92.94873000000007,102.30761700000039,-15.512939000000188,101.15380900000036,107.69238299999961,89.61523400000078,100.0,99.87158199999976,97.43603499999972,98.9741210000002,108.46142599999985,100.0,108.7177729999994
367,104.74365200000011,93.84619099999964,104.61523400000078,-14.487060999999812,105.12841800000024,108.84619099999964,93.46142599999985,104.10253900000043,99.74365200000011,102.69238299999961,106.2822270000006,110.12841800000024,101.6665039999998,109.74365200000011
368,102.43603499999972,97.56396500000028,106.53857400000015,-14.61547900000005,109.61523400000078,110.89746099999957,95.12841800000024,106.53857400000015,100.89746099999957,106.9228520000006,110.0,110.25634799999989,107.17968800000017,110.64111300000059
369,101.53857400000015,99.61523400000078,106.0258789999998,-17.30761700000039,110.89746099999957,111.2822270000006,93.46142599999985,105.51269500000035,101.41015599999992,106.2822270000006,108.3334960000002,107.94873000000007,112.82031300000017,108.9741210000002
370,101.0258789999998,96.15380900000036,102.30761700000039,-22.435790999999426,107.43603499999972,108.84619099999964,89.23095699999976,102.05126999999993,100.25634799999989,100.51269500000035,101.6665039999998,103.84619099999964,114.10253900000043,103.84619099999964
371,100.0,88.84619099999964,97.82031300000017,-28.333252000000357,102.05126999999993,105.64111300000059,85.76904300000024,99.35888699999941,99.10253900000043,94.87158199999976,93.20507799999996,100.51269500000035,109.87158199999976,97.94873000000007
372,99.23095699999976,84.23095699999976,96.6665039999998,-31.538574000000153,100.25634799999989,105.25634799999989,86.53857400000015,101.2822270000006,101.6665039999998,95.0,87.69238299999961,100.89746099999957,103.9741210000002,95.89746099999957
373,99.87158199999976,87.30761700000039,101.0258789999998,-29.487060999999812,105.25634799999989,109.35888699999941,92.56396500000028,108.58984400000008,109.48730499999965,102.94873000000007,88.3334960000002,105.51269500000035,101.41015599999992,100.51269500000035
374,102.05126999999993,96.53857400000015,109.23095699999976,-21.41015600000037,114.74365200000011,115.38476599999922,101.53857400000015,117.82031300000017,119.74365200000011,114.35888699999941,94.87158199999976,112.05126999999993,103.3334960000002,109.87158199999976
375,103.46142599999985,104.74365200000011,116.2822270000006,-10.38452099999995,122.30761700000039,118.58984400000008,107.94873000000007,123.0771479999994,126.53857400000015,122.30761700000039,102.94873000000007,116.53857400000015,105.76904300000024,117.69238299999961
376,101.2822270000006,104.48730499999965,117.05126999999993,-1.6665039999998044,122.30761700000039,115.76904300000024,107.30761700000039,120.51269500000035,125.0,121.53857400000015,106.53857400000015,116.6665039999998,103.9741210000002,117.43603499999972
377,93.9741210000002,94.35888699999941,111.0258789999998,0.38476599999921746,114.87158199999976,108.46142599999985,99.61523400000078,111.53857400000015,115.12841800000024,112.17968800000017,101.9228520000006,112.17968800000017,96.0258789999998,107.17968800000017
378,83.9741210000002,80.64111300000059,102.05126999999993,-5.512939000000188,104.61523400000078,101.6665039999998,89.87158199999976,101.79492200000004,102.94873000000007,99.35888699999941,91.0258789999998,105.38476599999922,85.25634799999989,91.79492200000004
379,76.79492200000004,72.30761700000039,96.15380900000036,-15.641113000000132,97.43603499999972,100.25634799999989,84.61523400000078,96.53857400000015,95.76904300000024,90.51269500000035,80.12841800000024,100.0,77.82031300000017,80.76904300000024
380,76.41015599999992,73.9741210000002,96.15380900000036,-24.10253899999998,96.15380900000036,104.87158199999976,87.17968800000017,97.05126999999993,97.82031300000017,89.87158199999976,75.64111300000059,98.46142599999985,77.56396500000028,80.0
381,82.05126999999993,82.43603499999972,100.38476599999922,-26.666747999999643,99.74365200000011,111.9228520000006,95.0,100.51269500000035,106.0258789999998,95.89746099999957,78.3334960000002,100.89746099999957,82.82031300000017,88.20507799999996
382,88.9741210000002,90.51269500000035,104.74365200000011,-22.564209000000574,105.89746099999957,116.79492200000004,101.9228520000006,103.3334960000002,113.3334960000002,102.43603499999972,84.35888699999941,104.48730499999965,88.0771479999994,98.58984400000008
383,93.20507799999996,93.0771479999994,105.64111300000059,-15.0,113.20507799999996,117.30761700000039,103.9741210000002,104.48730499999965,114.35888699999941,104.35888699999941,88.20507799999996,107.30761700000039,89.61523400000078,104.87158199999976
