,EEG.AF3,EEG.F7,EEG.F3,EEG.FC5,EEG.T7,EEG.P7,EEG.O1,EEG.O2,EEG.P8,EEG.T8,EEG.FC6,EEG.F4,EEG.F8,EEG.AF4
0,126.53857400000015,130.12841800000024,90.64111300000059,121.15380900000036,106.41015599999992,115.76904300000024,100.38476599999922,105.12841800000024,106.79492200000004,105.51269500000035,110.25634799999989,95.76904300000024,119.23095699999976,97.43603499999972
1,129.61523400000078,133.58984400000008,93.84619099999964,121.79492200000004,108.46142599999985,113.9741210000002,99.74365200000011,105.89746099999957,106.79492200000004,106.79492200000004,114.74365200000011,96.0258789999998,120.76904300000024,100.25634799999989
2,125.89746099999957,129.10253900000043,92.56396500000028,117.17968800000017,105.0,112.17968800000017,97.17968800000017,102.56396500000028,102.82031300000017,104.10253900000043,111.6665039999998,95.0,118.20507799999996,99.61523400000078
3,117.82031300000017,119.48730499999965,87.69238299999961,108.3334960000002,98.3334960000002,110.64111300000059,94.23095699999976,97.69238299999961,97.30761700000039,97.82031300000017,102.30761700000039,93.3334960000002,112.69238299999961,95.76904300000024
4,111.6665039999998,112.17968800000017,83.7177729999994,99.10253900000043,95.0,109.74365200000011,93.84619099999964,95.76904300000024,94.61523400000078,92.69238299999961,93.20507799999996,92.30761700000039,108.20507799999996,92.30761700000039
5,113.0771479999994,113.84619099999964,85.25634799999989,94.48730499999965,99.61523400000078,110.0,98.20507799999996,100.38476599999922,98.58984400000008,93.9741210000002,91.9228520000006,93.20507799999996,109.10253900000043,93.0771479999994
6,121.6665039999998,123.84619099999964,92.94873000000007,97.17968800000017,111.0258789999998,111.15380900000036,106.6665039999998,110.38476599999922,108.20507799999996,102.56396500000028,100.38476599999922,96.2822270000006,115.51269500000035,98.84619099999964
7,131.0258789999998,134.23095699999976,101.41015599999992,104.74365200000011,121.0258789999998,112.43603499999972,114.74365200000011,119.74365200000011,117.30761700000039,112.56396500000028,112.69238299999961,100.25634799999989,122.82031300000017,105.25634799999989
8,133.20507799999996,135.89746099999957,103.9741210000002,110.76904300000024,120.89746099999957,112.43603499999972,117.82031300000017,121.79492200000004,118.84619099999964,115.38476599999922,118.9741210000002,102.56396500000028,124.23095699999976,105.76904300000024
9,126.2822270000006,126.9228520000006,98.0771479999994,109.35888699999941,109.74365200000011,111.15380900000036,113.9741210000002,114.48730499999965,111.6665039999998,108.3334960000002,113.58984400000008,101.79492200000004,117.43603499999972,98.58984400000008
10,116.15380900000036,113.58984400000008,88.3334960000002,101.15380900000036,95.64111300000059,110.51269500000035,106.53857400000015,103.3334960000002,101.15380900000036,97.05126999999993,100.12841800000024,98.58984400000008,107.05126999999993,88.58984400000008
11,111.2822270000006,104.74365200000011,82.17968800000017,92.43603499999972,89.48730499999965,111.53857400000015,100.51269500000035,96.41015599999992,95.0,90.12841800000024,88.0771479999994,95.51269500000035,100.89746099999957,83.7177729999994
12,114.87158199999976,103.84619099999964,83.7177729999994,90.0,95.25634799999989,112.94873000000007,98.3334960000002,96.79492200000004,95.25634799999989,91.0258789999998,84.74365200000011,94.35888699999941,103.0771479999994,87.69238299999961
13,123.20507799999996,107.69238299999961,90.76904300000024,95.76904300000024,107.56396500000028,112.94873000000007,99.35888699999941,101.41015599999992,97.94873000000007,96.0258789999998,89.87158199999976,95.51269500000035,110.38476599999922,96.79492200000004
14,130.2563479999999,111.53857400000015,98.46142599999985,106.9228520000006,116.9228520000006,111.41015599999992,100.89746099999957,104.48730499999965,98.0771479999994,99.10253900000043,97.17968800000017,98.0771479999994,116.53857400000015,105.0
15,133.0771479999994,113.7177729999994,103.0771479999994,118.84619099999964,117.82031300000017,110.12841800000024,101.9228520000006,104.23095699999976,95.25634799999989,97.82031300000017,101.6665039999998,100.89746099999957,118.58984400000008,108.58984400000008
16,133.0771479999994,115.64111300000059,104.61523400000078,128.20507799999996,111.53857400000015,110.12841800000024,102.56396500000028,103.46142599999985,93.20507799999996,95.64111300000059,102.56396500000028,104.10253900000043,118.20507799999996,109.35888699999941
17,133.46142599999985,117.56396500000028,104.35888699999941,132.94873000000007,103.84619099999964,110.76904300000024,103.9741210000002,106.0258789999998,96.2822270000006,97.56396500000028,101.41015599999992,107.43603499999972,119.10253900000043,110.38476599999922
18,135.0,117.05126999999993,103.7177729999994,133.7177729999994,98.7177729999994,111.15380900000036,105.89746099999957,111.9228520000006,104.74365200000011,105.12841800000024,99.48730499999965,110.12841800000024,122.69238299999961,113.0771479999994
19,136.41015599999992,111.53857400000015,102.43603499999972,132.43603499999972,96.79492200000004,110.51269500000035,107.17968800000017,117.43603499999972,113.84619099999964,113.9741210000002,96.0258789999998,110.76904300000024,126.2822270000006,115.64111300000059
20,136.0258789999998,101.6665039999998,99.74365200000011,132.17968800000017,96.0258789999998,109.10253900000043,106.53857400000015,117.82031300000017,116.9228520000006,117.82031300000017,90.25634799999989,108.46142599999985,126.0258789999998,116.2822270000006
21,133.9741210000002,92.94873000000007,95.64111300000059,135.12841800000024,95.12841800000024,107.43603499999972,103.58984400000008,112.30761700000039,110.51269500000035,113.46142599999985,82.30761700000039,104.10253900000043,120.12841800000024,114.35888699999941
22,132.6923829999996,92.17968800000017,91.6665039999998,142.56396500000028,94.35888699999941,106.53857400000015,99.35888699999941,104.23095699999976,98.0771479999994,102.94873000000007,73.84619099999964,100.12841800000024,110.64111300000059,111.6665039999998
23,135.6411130000006,102.69238299999961,90.38476599999922,154.87158199999976,95.38476599999922,107.05126999999993,95.38476599999922,98.0771479999994,86.53857400000015,91.9228520000006,67.05126999999993,98.3334960000002,101.9228520000006,111.15380900000036
24,144.3588869999994,122.17968800000017,93.0771479999994,171.41015599999992,98.84619099999964,108.3334960000002,93.46142599999985,95.76904300000024,81.0258789999998,85.0,62.94873000000007,98.84619099999964,97.94873000000007,115.38476599999922
25,157.6923829999996,144.61523400000078,99.61523400000078,189.61523400000078,103.3334960000002,109.87158199999976,94.48730499999965,95.76904300000024,81.41015599999992,83.46142599999985,61.666503999999804,100.89746099999957,99.61523400000078,125.38476599999922
26,172.05126999999993,163.84619099999964,107.82031300000017,206.41015599999992,107.17968800000017,111.2822270000006,99.10253900000043,95.51269500000035,84.10253900000043,84.87158199999976,61.79492200000004,103.58984400000008,104.23095699999976,138.9741210000002
27,183.9741210000002,177.82031300000017,114.87158199999976,218.7177729999994,109.61523400000078,112.17968800000017,106.0258789999998,93.84619099999964,85.12841800000024,86.15380900000036,61.53857400000015,106.15380900000036,106.9228520000006,152.05126999999993
28,191.0258789999998,189.3588869999994,118.46142599999985,224.7436520000001,110.89746099999957,112.17968800000017,111.79492200000004,91.2822270000006,82.94873000000007,84.35888699999941,58.7177729999994,107.43603499999972,104.10253900000043,160.6411130000006
29,193.3334960000002,202.05126999999993,118.0771479999994,225.6411130000006,111.79492200000004,111.15380900000036,112.05126999999993,88.7177729999994,77.69238299999961,78.7177729999994,51.79492200000004,106.2822270000006,94.74365200000011,162.43603499999972
30,192.3076170000004,217.3076170000004,115.0,224.87158199999976,112.82031300000017,109.48730499999965,105.0,85.38476599999922,69.48730499999965,68.7177729999994,41.153809000000365,103.20507799999996,80.89746099999957,158.46142599999985
31,190.51269500000035,234.10253900000043,111.41015599999992,226.79492200000004,113.9741210000002,107.94873000000007,93.46142599999985,80.0,59.35888699999941,56.410155999999915,29.358886999999413,99.74365200000011,66.79492200000004,152.43603499999972
32,191.41015599999992,251.53857400000015,109.48730499999965,233.9741210000002,116.0258789999998,106.79492200000004,83.9741210000002,72.69238299999961,50.64111300000059,45.897460999999566,20.897460999999566,98.0771479999994,57.17968800000017,149.87158199999976
33,198.20507799999996,270.12841800000024,110.76904300000024,245.12841800000024,119.61523400000078,107.05126999999993,82.05126999999993,67.43603499999972,47.82031300000017,42.69238299999961,19.74365200000011,99.48730499999965,54.35888699999941,154.87158199999976
34,210.0,289.6152340000008,115.0,256.6665039999998,123.84619099999964,108.46142599999985,88.0771479999994,67.82031300000017,52.69238299999961,48.20507799999996,25.641113000000587,103.7177729999994,55.897460999999566,166.9228520000006
35,221.79492200000004,307.17968800000017,119.48730499999965,265.2563479999999,126.2822270000006,109.61523400000078,96.53857400000015,73.20507799999996,60.38476599999922,56.53857400000015,32.56396500000028,107.56396500000028,55.0,180.0
36,227.3076170000004,319.6152340000008,121.0258789999998,270.76904300000024,124.61523400000078,108.46142599999985,100.12841800000024,77.56396500000028,62.94873000000007,58.7177729999994,32.05126999999993,107.82031300000017,45.64111300000059,186.6665039999998
37,224.87158199999976,327.4360349999997,118.20507799999996,275.2563479999999,120.0,105.12841800000024,96.0258789999998,75.51269500000035,56.2822270000006,50.0,20.769043000000238,103.9741210000002,28.205077999999958,184.3588869999994
38,219.10253900000043,336.0258789999998,113.58984400000008,281.53857400000015,116.2822270000006,102.05126999999993,87.94873000000007,66.9228520000006,43.974121000000196,34.87158199999976,3.3334960000001956,98.9741210000002,9.871581999999762,176.9228520000006
39,217.05126999999993,350.12841800000024,111.41015599999992,290.51269500000035,116.15380900000036,100.51269500000035,82.30761700000039,57.43603499999972,33.589844000000085,22.30761700000039,-11.153809000000365,96.6665039999998,-1.2822270000006029,171.53857400000015
40,221.9228520000006,369.87158199999976,113.9741210000002,299.3588869999994,118.46142599999985,100.25634799999989,82.05126999999993,53.333496000000196,31.153809000000365,19.358886999999413,-16.538574000000153,98.0771479999994,-2.8203119999998307,171.79492200000004
41,230.38476599999922,390.3847659999992,119.61523400000078,304.23095699999976,119.10253900000043,99.74365200000011,84.74365200000011,56.666503999999804,37.30761700000039,25.897460999999566,-13.333252000000357,100.76904300000024,0.38476599999921746,176.2822270000006
42,237.17968800000017,405.89746099999957,125.38476599999922,304.3588869999994,116.0258789999998,98.7177729999994,86.0258789999998,64.74365200000011,48.20507799999996,36.410155999999915,-6.41015600000037,102.30761700000039,1.153809000000365,181.0258789999998
43,239.23095699999976,415.0,129.23095699999976,304.10253900000043,112.17968800000017,98.58984400000008,85.12841800000024,72.56396500000028,58.20507799999996,44.102539000000434,-0.512695000000349,102.30761700000039,-3.717772999999397,183.9741210000002
44,237.3076170000004,421.0258789999998,130.76904300000024,308.7177729999994,112.17968800000017,99.74365200000011,84.10253900000043,76.53857400000015,62.56396500000028,45.76904300000024,1.6665039999998044,102.69238299999961,-12.435790999999426,185.38476599999922
45,233.7177729999994,427.94873000000007,129.87158199999976,318.3334960000002,118.3334960000002,101.41015599999992,84.74365200000011,75.25634799999989,59.102539000000434,41.53857400000015,-1.7949220000000423,103.9741210000002,-22.564209000000574,186.0258789999998
46,229.3588869999994,436.6665039999998,125.89746099999957,327.6923829999996,127.56396500000028,101.9228520000006,85.38476599999922,69.61523400000078,49.23095699999976,32.43603499999972,-11.41015600000037,104.61523400000078,-34.23071300000038,183.7177729999994
47,223.84619099999964,445.51269500000035,118.84619099999964,330.6411130000006,134.10253900000043,101.15380900000036,83.46142599999985,61.153809000000365,36.53857400000015,20.384765999999217,-25.512939000000188,102.30761700000039,-48.846190999999635,176.79492200000004
48,217.82031300000017,453.3334960000002,111.0258789999998,326.53857400000015,134.48730499999965,100.38476599999922,79.10253900000043,52.82031300000017,25.897460999999566,8.461425999999847,-38.71801800000003,96.6665039999998,-65.0,166.6665039999998
49,213.0771479999994,462.05126999999993,106.0258789999998,320.3847659999992,130.89746099999957,101.2822270000006,74.87158199999976,47.56396500000028,21.538574000000153,1.0258789999998044,-45.1281740000004,90.38476599999922,-77.69238299999961,158.46142599999985
50,212.17968800000017,473.20507799999996,105.89746099999957,318.5898440000001,128.58984400000008,104.23095699999976,73.84619099999964,47.30761700000039,24.358886999999413,1.0258789999998044,-42.30761700000039,86.9228520000006,-82.05127000000039,156.6665039999998
51,215.38476599999922,486.2822270000006,109.87158199999976,322.4360349999997,130.2563479999999,107.56396500000028,76.41015599999992,51.2822270000006,32.17968800000017,7.307617000000391,-33.07690400000001,88.20507799999996,-78.58984399999963,161.15380900000036
52,220.0,497.17968800000017,114.87158199999976,328.20507799999996,133.46142599999985,109.10253900000043,80.0,55.897460999999566,39.35888699999941,14.230956999999762,-24.61547900000005,92.17968800000017,-73.46142599999985,166.9228520000006
53,221.53857400000015,501.79492200000004,117.30761700000039,330.3847659999992,134.23095699999976,108.46142599999985,82.05126999999993,57.17968800000017,40.0,14.871581999999762,-22.948729999999614,95.0,-74.74365200000011,167.56396500000028
54,217.3076170000004,499.3588869999994,115.12841800000024,326.2822270000006,130.38476599999922,106.2822270000006,81.15380900000036,52.69238299999961,31.922852000000603,6.410155999999915,-29.358886999999868,93.20507799999996,-85.76928699999962,160.2563479999999
55,207.82031300000017,493.46142599999985,108.46142599999985,316.9228520000006,124.23095699999976,104.10253900000043,78.0771479999994,43.589844000000085,18.717772999999397,-8.076904000000013,-40.0,87.43603499999972,-102.56420900000057,147.3076170000004
56,197.3076170000004,490.0,100.64111300000059,306.0258789999998,119.23095699999976,103.3334960000002,75.0,34.61523400000078,7.179688000000169,-20.89746100000002,-48.974365000000034,80.89746099999957,-117.43579099999943,134.3588869999994
57,190.76904300000024,492.82031300000017,95.89746099999957,296.9228520000006,117.94873000000007,104.35888699999941,73.3334960000002,30.25634799999989,3.077147999999397,-25.25634799999989,-52.82055700000001,77.69238299999961,-125.0,126.9228520000006
58,190.2563479999999,499.7436520000001,96.9228520000006,291.0258789999998,120.38476599999922,106.0258789999998,73.20507799999996,32.05126999999993,6.282227000000603,-20.25634799999989,-51.92309599999999,78.7177729999994,-126.02563499999997,126.53857400000015
59,193.58984400000008,505.89746099999957,102.17968800000017,289.23095699999976,125.0,106.9228520000006,74.23095699999976,36.666503999999804,12.051269999999931,-11.025634999999966,-50.25634799999989,82.05126999999993,-126.15380900000036,130.0
60,196.2822270000006,507.82031300000017,108.20507799999996,291.15380900000036,129.61523400000078,106.79492200000004,75.76904300000024,40.25634799999989,15.0,-4.230713000000378,-50.38452099999995,84.74365200000011,-129.7436520000001,132.56396500000028
61,195.38476599999922,506.15380900000036,111.15380900000036,295.0,132.3076170000004,106.2822270000006,77.43603499999972,41.53857400000015,14.102539000000434,-3.3334960000001956,-52.051270000000386,85.89746099999957,-136.923096,131.6665039999998
62,191.41015599999992,503.84619099999964,109.87158199999976,297.94873000000007,132.3076170000004,105.89746099999957,79.48730499999965,42.17968800000017,12.56396500000028,-6.666747999999643,-52.435790999999426,85.64111300000059,-143.97436500000003,127.82031300000017
63,186.53857400000015,502.82031300000017,106.0258789999998,298.3334960000002,129.87158199999976,105.25634799999989,81.6665039999998,43.333496000000196,13.589844000000085,-10.897461000000021,-50.76928699999962,84.35888699999941,-146.923096,123.0771479999994
64,182.43603499999972,503.84619099999964,102.56396500000028,295.76904300000024,127.05126999999993,104.10253900000043,83.3334960000002,44.48730499999965,17.05126999999993,-13.333252000000357,-48.846190999999635,82.43603499999972,-145.38452099999995,118.58984400000008
65,179.48730499999965,505.6411130000006,101.15380900000036,291.79492200000004,125.76904300000024,102.69238299999961,84.10253900000043,44.35888699999941,20.641113000000587,-13.205077999999958,-48.46142599999985,80.64111300000059,-142.3076170000004,114.35888699999941
66,177.56396500000028,506.9228520000006,101.79492200000004,288.46142599999985,127.17968800000017,101.9228520000006,84.10253900000043,42.56396500000028,21.666503999999804,-11.41015600000037,-49.35888699999987,79.48730499999965,-141.02563499999997,110.76904300000024
67,175.51269500000035,506.2822270000006,102.82031300000017,286.6665039999998,130.51269500000035,102.05126999999993,83.58984400000008,40.38476599999922,19.358886999999413,-8.846190999999635,-49.61547900000005,79.35888699999941,-143.33325200000036,108.0771479999994
68,171.53857400000015,503.46142599999985,102.17968800000017,284.87158199999976,132.94873000000007,102.94873000000007,82.30761700000039,39.35888699999941,15.128418000000238,-6.794922000000042,-48.07690400000001,79.74365200000011,-148.46142599999985,105.76904300000024
69,164.87158199999976,498.9741210000002,98.58984400000008,279.48730499999965,132.17968800000017,103.46142599999985,78.9741210000002,39.35888699999941,11.282227000000603,-7.179442999999992,-46.153809000000365,79.87158199999976,-154.7436520000001,102.43603499999972
70,157.3076170000004,493.84619099999964,92.17968800000017,269.87158199999976,128.3334960000002,102.69238299999961,73.58984400000008,39.35888699999941,9.871581999999762,-10.38452099999995,-45.76928699999962,79.23095699999976,-160.76928699999962,96.9228520000006
71,151.15380900000036,488.7177729999994,85.51269500000035,259.6152340000008,123.9741210000002,100.89746099999957,68.58984400000008,38.846190999999635,11.410155999999915,-14.743652000000111,-47.564209000000574,77.69238299999961,-165.1281740000004,89.48730499999965
72,148.0771479999994,484.3588869999994,81.6665039999998,254.23095699999976,122.30761700000039,99.35888699999941,66.53857400000015,38.846190999999635,15.128418000000238,-16.666747999999643,-49.48706099999981,76.2822270000006,-166.41015600000037,82.94873000000007
73,147.6923829999996,481.2822270000006,82.17968800000017,255.12841800000024,125.25634799999989,99.87158199999976,67.94873000000007,40.38476599999922,19.48730499999965,-14.230713000000378,-48.71801800000003,76.0258789999998,-164.10253899999998,80.64111300000059
74,147.94873000000007,479.6152340000008,85.76904300000024,257.94873000000007,132.56396500000028,102.69238299999961,70.25634799999989,44.74365200000011,23.717772999999397,-8.58984399999963,-43.33325200000036,77.17968800000017,-159.61547900000005,83.20507799999996
75,146.53857400000015,478.84619099999964,88.58984400000008,256.53857400000015,140.12841800000024,106.41015599999992,71.2822270000006,50.51269500000035,26.538574000000153,-3.2050779999999577,-34.48706099999981,78.46142599999985,-155.2563479999999,87.43603499999972
76,141.2822270000006,477.5639650000003,87.30761700000039,247.43603499999972,143.58984400000008,109.35888699999941,71.0258789999998,55.25634799999989,27.43603499999972,-1.4101559999999154,-26.666747999999643,78.3334960000002,-154.10253899999998,88.3334960000002
77,132.17968800000017,474.10253900000043,82.30761700000039,233.0771479999994,140.6411130000006,110.76904300000024,71.79492200000004,56.666503999999804,26.410155999999915,-3.5898440000000846,-23.71801800000003,76.79492200000004,-157.0512700000004,83.46142599999985
78,122.69238299999961,467.82031300000017,76.6665039999998,219.7436520000001,133.46142599999985,110.89746099999957,75.12841800000024,54.87158199999976,25.0,-6.281981999999971,-26.025634999999966,75.0,-161.41015600000037,75.12841800000024
79,117.17968800000017,460.3847659999992,73.9741210000002,213.20507799999996,127.56396500000028,110.0,79.61523400000078,52.43603499999972,25.51269500000035,-5.641113000000132,-28.71801800000003,74.87158199999976,-162.43579099999943,68.58984400000008
80,117.82031300000017,454.10253900000043,75.64111300000059,214.10253900000043,126.9228520000006,109.10253900000043,83.20507799999996,52.43603499999972,28.077147999999397,-0.12841800000023795,-26.923095999999987,77.17968800000017,-156.28198199999997,68.7177729999994
81,122.69238299999961,449.7436520000001,79.87158199999976,218.20507799999996,132.43603499999972,108.9741210000002,84.87158199999976,55.38476599999922,31.538574000000153,7.179688000000169,-19.8718259999996,81.0258789999998,-144.35888699999987,75.89746099999957
82,126.6665039999998,446.2822270000006,83.58984400000008,220.2563479999999,140.76904300000024,110.0,86.2822270000006,60.25634799999989,34.87158199999976,11.538574000000153,-11.794922000000042,84.61523400000078,-132.179443,84.87158199999976
83,125.64111300000059,441.6665039999998,85.12841800000024,218.0771479999994,147.82031300000017,111.0258789999998,89.87158199999976,65.38476599999922,37.94873000000007,10.769043000000238,-7.435790999999426,86.2822270000006,-125.51293900000019,89.87158199999976
84,120.76904300000024,435.76904300000024,85.12841800000024,214.3588869999994,150.89746099999957,110.38476599999922,96.0258789999998,70.51269500000035,41.53857400000015,7.948730000000069,-7.820557000000008,86.2822270000006,-125.38452099999995,89.23095699999976
85,116.9228520000006,429.3588869999994,86.0258789999998,212.17968800000017,150.76904300000024,108.3334960000002,102.17968800000017,74.61523400000078,45.38476599999922,7.820313000000169,-8.205077999999958,86.9228520000006,-127.17944299999999,86.53857400000015
86,117.69238299999961,423.5898440000001,89.48730499999965,212.17968800000017,150.38476599999922,106.79492200000004,104.87158199999976,76.15380900000036,47.94873000000007,12.307617000000391,-4.230713000000378,89.10253900000043,-125.1281740000004,85.89746099999957
87,121.2822270000006,418.3334960000002,93.84619099999964,211.15380900000036,152.56396500000028,107.69238299999961,101.79492200000004,72.94873000000007,47.17968800000017,17.82031300000017,3.717772999999397,91.15380900000036,-118.07690400000001,87.69238299999961
88,122.05126999999993,412.3076170000004,95.38476599999922,205.2563479999999,156.41015599999992,110.76904300000024,93.9741210000002,65.12841800000024,42.56396500000028,18.974121000000196,10.384765999999217,90.25634799999989,-110.0,88.84619099999964
89,116.6665039999998,404.3588869999994,91.2822270000006,192.94873000000007,158.7177729999994,113.9741210000002,86.15380900000036,56.79492200000004,36.9228520000006,14.487304999999651,11.666503999999804,86.15380900000036,-106.02563499999997,86.2822270000006
90,106.41015599999992,393.84619099999964,83.3334960000002,176.41015599999992,156.9228520000006,115.0,83.0771479999994,53.20507799999996,33.7177729999994,8.717772999999397,9.102539000000434,81.53857400000015,-107.30761700000039,80.51269500000035
91,95.25634799999989,380.89746099999957,75.25634799999989,158.84619099999964,150.6411130000006,113.20507799999996,85.38476599999922,56.410155999999915,34.48730499999965,6.794922000000042,7.179688000000169,78.84619099999964,-110.25634799999989,74.23095699999976
92,85.76904300000024,365.76904300000024,68.9741210000002,142.05126999999993,142.17968800000017,110.12841800000024,89.10253900000043,62.17968800000017,36.410155999999915,8.205077999999958,8.589844000000085,78.46142599999985,-111.28198199999997,68.9741210000002
93,77.82031300000017,349.48730499999965,63.46142599999985,126.2822270000006,134.7436520000001,108.20507799999996,89.10253900000043,63.0771479999994,34.74365200000011,7.820313000000169,11.794922000000042,78.7177729999994,-108.97436500000003,63.333496000000196
94,70.12841800000024,332.94873000000007,57.05126999999993,111.41015599999992,130.0,109.48730499999965,84.10253900000043,55.76904300000024,27.05126999999993,1.7949220000000423,13.461425999999847,77.30761700000039,-105.38452099999995,56.153809000000365
95,62.69238299999961,317.3076170000004,49.74365200000011,97.82031300000017,126.79492200000004,113.3334960000002,77.05126999999993,44.48730499999965,17.05126999999993,-7.051270000000386,12.82031300000017,73.58984400000008,-102.94872999999961,48.846190999999635
96,57.30761700000039,303.9741210000002,44.35888699999941,86.79492200000004,122.82031300000017,117.30761700000039,73.3334960000002,39.23095699999976,12.82031300000017,-10.641113000000132,12.82031300000017,69.48730499999965,-100.89746100000002,45.76904300000024
97,56.9228520000006,295.12841800000024,43.846190999999635,80.25634799999989,117.56396500000028,118.20507799999996,75.64111300000059,47.05126999999993,20.897460999999566,-2.9487300000000687,18.589844000000085,68.46142599999985,-95.0,50.64111300000059
98,63.0771479999994,292.3076170000004,48.589844000000085,80.0,113.46142599999985,115.12841800000024,82.05126999999993,66.2822270000006,39.48730499999965,14.743652000000111,31.922852000000603,72.43603499999972,-82.43579099999943,63.0771479999994
99,72.82031300000017,293.20507799999996,55.897460999999566,84.48730499999965,111.79492200000004,109.61523400000078,88.20507799999996,86.0258789999998,59.35888699999941,34.102539000000434,48.46142599999985,80.0,-64.61547900000005,77.43603499999972
100,80.0,292.3076170000004,61.153809000000365,89.48730499999965,111.53857400000015,105.25634799999989,91.53857400000015,94.48730499999965,70.0,45.64111300000059,60.12841800000024,86.6665039999998,-48.20507799999996,86.0258789999998
101,80.12841800000024,285.12841800000024,61.666503999999804,89.48730499999965,110.38476599999922,105.12841800000024,91.6665039999998,88.9741210000002,68.7177729999994,45.51269500000035,61.9228520000006,88.58984400000008,-39.48706099999981,84.87158199999976
102,74.61523400000078,272.6923829999996,58.589844000000085,82.82031300000017,108.20507799999996,109.23095699999976,90.51269500000035,76.9228520000006,60.51269500000035,38.333496000000196,56.79492200000004,85.25634799999989,-38.20507799999996,76.9228520000006
103,69.35888699999941,260.6411130000006,54.61523400000078,71.79492200000004,108.58984400000008,114.48730499999965,89.74365200000011,69.23095699999976,53.589844000000085,32.43603499999972,52.56396500000028,79.61523400000078,-38.71801800000003,69.23095699999976
104,68.46142599999985,254.3588869999994,51.410155999999915,61.025878999999804,115.12841800000024,117.30761700000039,89.48730499999965,70.25634799999989,51.79492200000004,32.69238299999961,54.74365200000011,75.38476599999922,-36.025634999999966,67.82031300000017
105,71.2822270000006,253.84619099999964,49.35888699999941,54.23095699999976,126.53857400000015,116.79492200000004,89.61523400000078,76.2822270000006,54.102539000000434,37.05126999999993,61.53857400000015,74.74365200000011,-30.38452099999995,72.69238299999961
106,74.10253900000043,255.0,48.589844000000085,52.43603499999972,137.05126999999993,114.61523400000078,90.25634799999989,80.76904300000024,57.05126999999993,40.76904300000024,67.82031300000017,77.94873000000007,-25.38452099999995,79.74365200000011
107,74.87158199999976,253.7177729999994,50.51269500000035,53.7177729999994,140.51269500000035,113.20507799999996,92.30761700000039,81.15380900000036,59.48730499999965,42.05126999999993,70.25634799999989,83.0771479999994,-23.205077999999958,85.38476599999922
108,74.48730499999965,248.9741210000002,54.87158199999976,55.0,135.2563479999999,114.35888699999941,95.89746099999957,79.35888699999941,61.79492200000004,42.69238299999961,69.74365200000011,87.82031300000017,-22.435790999999426,88.0771479999994
109,74.61523400000078,241.9228520000006,59.74365200000011,54.102539000000434,124.87158199999976,117.05126999999993,99.74365200000011,78.84619099999964,64.61523400000078,44.74365200000011,68.9741210000002,89.87158199999976,-20.769286999999622,88.3334960000002
110,75.0,233.58984400000008,62.05126999999993,50.64111300000059,116.15380900000036,118.46142599999985,102.17968800000017,80.38476599999922,67.43603499999972,48.46142599999985,69.48730499999965,88.46142599999985,-17.564209000000574,86.79492200000004
111,74.23095699999976,224.3588869999994,60.64111300000059,45.51269500000035,113.84619099999964,116.9228520000006,102.05126999999993,82.56396500000028,69.23095699999976,53.0771479999994,71.15380900000036,85.25634799999989,-13.846190999999635,84.87158199999976
112,72.05126999999993,214.87158199999976,57.43603499999972,40.76904300000024,117.56396500000028,112.94873000000007,100.12841800000024,83.9741210000002,70.51269500000035,58.7177729999994,74.10253900000043,83.20507799999996,-10.1281740000004,84.23095699999976
113,69.74365200000011,206.15380900000036,55.64111300000059,37.43603499999972,122.17968800000017,108.7177729999994,98.9741210000002,85.51269500000035,72.56396500000028,66.41015599999992,78.9741210000002,84.74365200000011,-6.153809000000365,85.89746099999957
114,69.10253900000043,199.23095699999976,57.17968800000017,35.0,121.53857400000015,106.79492200000004,100.12841800000024,88.84619099999964,77.17968800000017,75.76904300000024,85.89746099999957,89.23095699999976,-1.5385740000001533,89.23095699999976
115,70.25634799999989,193.84619099999964,60.51269500000035,31.666503999999804,113.3334960000002,107.69238299999961,103.0771479999994,94.61523400000078,83.3334960000002,83.7177729999994,92.56396500000028,93.9741210000002,2.8203130000001693,92.17968800000017
116,71.41015599999992,190.0,62.69238299999961,26.282227000000603,101.2822270000006,110.38476599999922,105.51269500000035,100.25634799999989,88.46142599999985,86.0258789999998,96.41015599999992,96.15380900000036,6.153809000000365,92.69238299999961
117,71.2822270000006,187.94873000000007,61.79492200000004,20.641113000000587,93.46142599999985,112.56396500000028,105.64111300000059,102.82031300000017,89.87158199999976,81.53857400000015,96.6665039999998,94.74365200000011,8.846190999999635,91.15380900000036
118,70.25634799999989,187.94873000000007,58.846190999999635,17.94873000000007,95.51269500000035,112.56396500000028,103.7177729999994,101.15380900000036,87.43603499999972,74.23095699999976,95.51269500000035,91.15380900000036,12.307617000000391,89.35888699999941
119,70.0,188.9741210000002,56.666503999999804,19.74365200000011,106.2822270000006,111.0258789999998,101.15380900000036,97.43603499999972,83.84619099999964,69.61523400000078,95.89746099999957,88.58984400000008,16.666503999999804,89.35888699999941
120,70.89746099999957,189.48730499999965,57.43603499999972,23.974121000000196,118.58984400000008,109.74365200000011,100.0,95.51269500000035,82.69238299999961,70.12841800000024,98.46142599999985,89.35888699999941,21.025878999999804,91.0258789999998
121,72.17968800000017,187.6923829999996,60.51269500000035,26.410155999999915,124.10253900000043,110.25634799999989,101.0258789999998,98.0771479999994,85.12841800000024,73.20507799999996,101.15380900000036,92.94873000000007,23.333496000000196,92.82031300000017
122,72.43603499999972,182.43603499999972,62.69238299999961,24.102539000000434,120.25634799999989,111.6665039999998,103.0771479999994,102.56396500000028,88.9741210000002,74.74365200000011,101.9228520000006,96.53857400000015,22.82031300000017,93.0771479999994
123,71.15380900000036,173.84619099999964,61.666503999999804,17.43603499999972,110.51269500000035,112.43603499999972,104.10253900000043,104.48730499999965,90.0,72.43603499999972,99.74365200000011,97.17968800000017,20.0,91.53857400000015
124,68.58984400000008,163.9741210000002,57.43603499999972,9.358886999999413,101.41015599999992,112.05126999999993,103.20507799999996,101.2822270000006,86.41015599999992,68.3334960000002,95.89746099999957,95.12841800000024,17.05126999999993,88.3334960000002
125,65.76904300000024,156.41015599999992,53.333496000000196,3.717772999999397,97.56396500000028,111.2822270000006,101.2822270000006,95.76904300000024,80.76904300000024,67.05126999999993,93.58984400000008,92.17968800000017,17.05126999999993,85.12841800000024
126,64.61523400000078,154.3588869999994,53.20507799999996,1.7949220000000423,99.23095699999976,111.2822270000006,100.51269500000035,93.84619099999964,78.7177729999994,71.6665039999998,95.51269500000035,90.51269500000035,22.30761700000039,83.58984400000008
127,65.89746099999957,157.3076170000004,57.56396500000028,2.6923829999996087,102.94873000000007,112.05126999999993,102.82031300000017,99.10253900000043,83.7177729999994,81.41015599999992,100.89746099999957,91.0258789999998,32.56396500000028,85.0
128,68.9741210000002,160.89746099999957,63.46142599999985,3.9741210000001956,104.10253900000043,112.69238299999961,107.94873000000007,108.7177729999994,93.46142599999985,91.2822270000006,106.2822270000006,92.82031300000017,43.7177729999994,88.9741210000002
129,71.6665039999998,160.2563479999999,66.9228520000006,4.487304999999651,101.2822270000006,112.56396500000028,112.94873000000007,116.2822270000006,102.05126999999993,96.15380900000036,107.69238299999961,94.61523400000078,50.76904300000024,93.20507799999996
130,72.05126999999993,153.7177729999994,66.15380900000036,3.9741210000001956,96.9228520000006,111.15380900000036,115.0,116.41015599999992,104.35888699999941,93.9741210000002,104.61523400000078,94.87158199999976,51.153809000000365,95.12841800000024
131,69.23095699999976,143.58984400000008,62.56396500000028,1.9228520000006029,95.0,108.84619099999964,112.30761700000039,108.9741210000002,99.48730499999965,86.15380900000036,98.9741210000002,93.20507799999996,46.666503999999804,92.94873000000007
132,63.589844000000085,133.3334960000002,58.333496000000196,-1.9228520000006029,96.53857400000015,107.17968800000017,106.41015599999992,98.20507799999996,90.64111300000059,76.15380900000036,93.3334960000002,90.12841800000024,40.64111300000059,86.2822270000006
133,56.79492200000004,125.38476599999922,55.25634799999989,-6.666747999999643,99.48730499999965,107.30761700000039,100.51269500000035,89.61523400000078,82.30761700000039,67.69238299999961,88.9741210000002,87.05126999999993,36.9228520000006,76.41015599999992
134,51.9228520000006,120.12841800000024,53.7177729999994,-10.1281740000004,100.64111300000059,108.84619099999964,98.3334960000002,87.05126999999993,78.46142599999985,64.10253900000043,86.0258789999998,85.25634799999989,37.94873000000007,67.82031300000017
135,51.53857400000015,117.94873000000007,53.846190999999635,-10.38452099999995,99.48730499999965,110.64111300000059,100.76904300000024,90.89746099999957,80.25634799999989,67.17968800000017,85.0,85.64111300000059,44.48730499999965,64.87158199999976
136,56.410155999999915,118.0771479999994,55.25634799999989,-6.41015600000037,97.94873000000007,111.2822270000006,106.15380900000036,98.20507799999996,85.64111300000059,75.51269500000035,85.12841800000024,87.94873000000007,54.23095699999976,68.46142599999985
137,63.846190999999635,118.84619099999964,56.53857400000015,0.38476599999921746,97.82031300000017,110.51269500000035,111.41015599999992,103.58984400000008,90.89746099999957,84.10253900000043,85.25634799999989,90.64111300000059,62.17968800000017,74.87158199999976
138,69.87158199999976,118.46142599999985,57.17968800000017,6.922852000000603,99.35888699999941,109.23095699999976,115.0,104.23095699999976,92.94873000000007,88.3334960000002,84.35888699999941,91.9228520000006,64.48730499999965,78.9741210000002
139,71.9228520000006,116.79492200000004,57.30761700000039,10.128418000000238,100.89746099999957,108.9741210000002,116.6665039999998,101.53857400000015,91.2822270000006,87.69238299999961,82.69238299999961,91.6665039999998,61.025878999999804,78.58984400000008
140,71.2822270000006,115.64111300000059,58.0771479999994,9.102539000000434,101.41015599999992,110.38476599999922,117.30761700000039,99.61523400000078,87.94873000000007,84.87158199999976,82.05126999999993,91.2822270000006,56.2822270000006,75.64111300000059
141,70.38476599999922,116.41015599999992,59.61523400000078,6.025878999999804,101.0258789999998,112.69238299999961,116.79492200000004,101.15380900000036,85.51269500000035,83.7177729999994,83.3334960000002,91.2822270000006,54.61523400000078,73.58984400000008
142,70.64111300000059,118.0771479999994,60.12841800000024,3.9741210000001956,100.51269500000035,114.48730499999965,114.23095699999976,103.9741210000002,84.87158199999976,84.61523400000078,84.48730499999965,91.0258789999998,56.666503999999804,73.7177729999994
143,71.41015599999992,117.56396500000028,58.0771479999994,5.512695000000349,100.51269500000035,114.23095699999976,109.74365200000011,103.7177729999994,84.48730499999965,84.87158199999976,83.0771479999994,89.61523400000078,58.7177729999994,74.23095699999976
144,71.15380900000036,113.7177729999994,54.102539000000434,10.897460999999566,101.0258789999998,111.9228520000006,105.51269500000035,98.7177729999994,82.94873000000007,82.05126999999993,78.3334960000002,88.0771479999994,57.30761700000039,72.94873000000007
145,69.48730499999965,107.82031300000017,51.666503999999804,18.589844000000085,101.41015599999992,108.84619099999964,104.48730499999965,91.79492200000004,81.41015599999992,77.17968800000017,72.82031300000017,87.30761700000039,52.82031300000017,70.0
146,67.94873000000007,103.20507799999996,53.46142599999985,26.922852000000603,101.6665039999998,106.9228520000006,107.94873000000007,88.0771479999994,81.53857400000015,74.10253900000043,70.12841800000024,87.69238299999961,49.102539000000434,67.43603499999972
147,68.20507799999996,102.30761700000039,58.974121000000196,34.48730499999965,101.9228520000006,107.05126999999993,114.23095699999976,90.25634799999989,84.10253900000043,76.53857400000015,71.6665039999998,88.9741210000002,50.12841800000024,67.43603499999972
148,70.25634799999989,104.87158199999976,64.35888699999941,40.25634799999989,102.94873000000007,108.9741210000002,119.48730499999965,96.6665039999998,87.05126999999993,83.46142599999985,75.25634799999989,90.64111300000059,55.12841800000024,70.0
149,72.05126999999993,108.20507799999996,66.2822270000006,42.82031300000017,104.10253900000043,111.53857400000015,121.0258789999998,102.82031300000017,88.0771479999994,90.38476599999922,76.6665039999998,91.79492200000004,60.25634799999989,72.69238299999961
150,71.6665039999998,108.58984400000008,63.974121000000196,41.79492200000004,103.84619099999964,113.3334960000002,118.7177729999994,105.12841800000024,86.9228520000006,92.56396500000028,73.58984400000008,91.15380900000036,61.79492200000004,73.0771479999994
151,69.74365200000011,104.74365200000011,60.12841800000024,38.46142599999985,101.0258789999998,113.0771479999994,114.48730499999965,103.46142599999985,84.87158199999976,89.48730499999965,68.0771479999994,88.46142599999985,59.23095699999976,70.89746099999957
152,68.3334960000002,98.3334960000002,58.0771479999994,35.64111300000059,96.79492200000004,111.15380900000036,111.41015599999992,100.0,83.7177729999994,84.61523400000078,64.35888699999941,85.12841800000024,55.76904300000024,68.20507799999996
153,68.58984400000008,92.69238299999961,58.846190999999635,35.64111300000059,93.7177729999994,109.35888699999941,110.51269500000035,97.17968800000017,83.7177729999994,82.17968800000017,65.0,83.58984400000008,54.102539000000434,67.05126999999993
154,69.74365200000011,89.61523400000078,60.897460999999566,37.56396500000028,94.10253900000043,108.7177729999994,110.64111300000059,95.64111300000059,83.46142599999985,83.0771479999994,68.20507799999996,84.48730499999965,54.61523400000078,67.56396500000028
155,69.23095699999976,88.7177729999994,61.53857400000015,38.589844000000085,97.05126999999993,109.35888699999941,109.48730499999965,94.48730499999965,81.53857400000015,84.35888699999941,69.87158199999976,86.15380900000036,54.87158199999976,67.94873000000007
156,66.15380900000036,88.0771479999994,59.74365200000011,36.410155999999915,100.38476599999922,110.0,106.0258789999998,92.17968800000017,77.17968800000017,82.43603499999972,67.30761700000039,87.17968800000017,52.43603499999972,66.2822270000006
157,61.79492200000004,87.43603499999972,57.17968800000017,32.05126999999993,101.41015599999992,110.12841800000024,101.6665039999998,88.46142599999985,72.05126999999993,76.6665039999998,61.410155999999915,86.9228520000006,47.05126999999993,62.56396500000028
158,59.35888699999941,87.43603499999972,56.79492200000004,29.230956999999762,99.74365200000011,109.87158199999976,99.48730499999965,84.87158199999976,68.9741210000002,70.38476599999922,55.897460999999566,86.2822270000006,41.410155999999915,59.48730499999965
159,61.410155999999915,88.84619099999964,60.64111300000059,31.922852000000603,97.69238299999961,109.35888699999941,101.41015599999992,84.23095699999976,70.25634799999989,68.0771479999994,54.74365200000011,86.6665039999998,39.23095699999976,60.0
160,67.17968800000017,91.41015599999992,67.69238299999961,40.51269500000035,98.0771479999994,108.7177729999994,106.15380900000036,87.17968800000017,75.51269500000035,72.30761700000039,58.846190999999635,88.9741210000002,42.05126999999993,64.61523400000078
161,73.0771479999994,93.7177729999994,74.10253900000043,51.025878999999804,101.0258789999998,108.3334960000002,111.0258789999998,91.53857400000015,81.6665039999998,80.89746099999957,66.15380900000036,92.43603499999972,48.46142599999985,70.38476599999922
162,75.12841800000024,93.46142599999985,76.6665039999998,57.17968800000017,103.58984400000008,108.84619099999964,113.7177729999994,94.23095699999976,85.0,88.20507799999996,72.56396500000028,95.51269500000035,54.35888699999941,73.58984400000008
163,72.56396500000028,91.41015599999992,75.0,55.897460999999566,103.0771479999994,109.61523400000078,114.61523400000078,94.87158199999976,84.48730499999965,89.61523400000078,74.61523400000078,96.79492200000004,56.410155999999915,72.30761700000039
164,68.7177729999994,90.0,72.30761700000039,49.74365200000011,100.12841800000024,110.0,115.76904300000024,96.15380900000036,82.94873000000007,86.0258789999998,72.82031300000017,96.2822270000006,54.35888699999941,68.9741210000002
165,68.46142599999985,91.9228520000006,72.56396500000028,45.64111300000059,98.84619099999964,109.87158199999976,118.7177729999994,101.0258789999998,84.61523400000078,82.17968800000017,70.51269500000035,95.51269500000035,51.153809000000365,67.69238299999961
166,73.46142599999985,97.56396500000028,77.05126999999993,49.48730499999965,102.56396500000028,110.12841800000024,123.3334960000002,108.7177729999994,90.38476599999922,82.69238299999961,71.41015599999992,96.53857400000015,50.38476599999922,71.6665039999998
167,81.6665039999998,104.23095699999976,83.3334960000002,61.2822270000006,110.51269500000035,111.0258789999998,126.9228520000006,115.64111300000059,97.30761700000039,88.3334960000002,76.15380900000036,99.87158199999976,53.20507799999996,80.0
168,88.3334960000002,108.7177729999994,87.56396500000028,74.48730499999965,117.94873000000007,112.17968800000017,127.30761700000039,117.56396500000028,101.0258789999998,95.38476599999922,82.30761700000039,103.7177729999994,57.69238299999961,88.46142599999985
169,89.87158199999976,108.9741210000002,87.43603499999972,81.0258789999998,119.35888699999941,112.69238299999961,123.9741210000002,113.9741210000002,99.35888699999941,98.84619099999964,85.89746099999957,105.89746099999957,60.38476599999922,91.41015599999992
170,85.76904300000024,105.0,83.84619099999964,76.9228520000006,113.7177729999994,112.30761700000039,118.9741210000002,107.17968800000017,93.84619099999964,96.0258789999998,85.12841800000024,104.35888699999941,59.23095699999976,86.6665039999998
171,78.20507799999996,98.9741210000002,78.9741210000002,65.25634799999989,104.61523400000078,110.38476599999922,114.87158199999976,100.76904300000024,87.30761700000039,88.46142599999985,80.89746099999957,99.61523400000078,54.87158199999976,77.05126999999993
172,70.89746099999957,94.23095699999976,74.61523400000078,53.46142599999985,97.17968800000017,107.56396500000028,112.94873000000007,97.17968800000017,82.69238299999961,80.25634799999989,76.2822270000006,94.23095699999976,50.64111300000059,68.20507799999996
173,66.79492200000004,93.7177729999994,71.79492200000004,48.974121000000196,94.74365200000011,105.64111300000059,112.94873000000007,97.05126999999993,81.79492200000004,75.64111300000059,74.48730499999965,91.41015599999992,49.35888699999941,65.0
174,67.30761700000039,97.69238299999961,70.64111300000059,53.20507799999996,97.05126999999993,106.6665039999998,113.7177729999994,98.84619099999964,84.23095699999976,75.89746099999957,76.6665039999998,92.69238299999961,52.43603499999972,68.3334960000002
175,71.41015599999992,104.35888699999941,70.64111300000059,60.897460999999566,101.2822270000006,110.76904300000024,113.9741210000002,100.64111300000059,87.17968800000017,79.61523400000078,82.30761700000039,96.79492200000004,58.974121000000196,76.0258789999998
176,76.6665039999998,111.41015599999992,71.53857400000015,64.87158199999976,104.48730499999965,115.38476599999922,113.58984400000008,101.2822270000006,87.69238299999961,83.7177729999994,89.48730499999965,100.64111300000059,66.53857400000015,83.3334960000002
177,80.25634799999989,117.43603499999972,72.82031300000017,62.30761700000039,105.12841800000024,117.69238299999961,112.69238299999961,100.38476599999922,85.38476599999922,86.0258789999998,96.53857400000015,101.9228520000006,73.46142599999985,87.56396500000028
178,82.43603499999972,123.20507799999996,75.51269500000035,56.153809000000365,104.35888699999941,116.41015599999992,112.05126999999993,99.35888699999941,83.20507799999996,85.89746099999957,103.20507799999996,100.89746099999957,79.23095699999976,88.9741210000002
179,85.64111300000059,130.2563479999999,80.12841800000024,52.30761700000039,104.87158199999976,112.43603499999972,112.56396500000028,99.61523400000078,84.74365200000011,84.87158199999976,110.38476599999922,99.10253900000043,84.23095699999976,90.64111300000059
180,91.9228520000006,140.12841800000024,85.51269500000035,53.846190999999635,108.20507799999996,108.46142599999985,113.84619099999964,101.41015599999992,90.64111300000059,85.25634799999989,118.3334960000002,98.46142599999985,89.35888699999941,95.25634799999989
181,100.64111300000059,152.17968800000017,88.7177729999994,58.589844000000085,113.20507799999996,106.9228520000006,115.12841800000024,103.58984400000008,97.69238299999961,87.82031300000017,125.64111300000059,100.12841800000024,95.64111300000059,103.3334960000002
182,109.74365200000011,164.7436520000001,88.3334960000002,62.17968800000017,117.43603499999972,108.9741210000002,115.0,103.9741210000002,101.15380900000036,90.38476599999922,130.76904300000024,103.46142599999985,103.46142599999985,112.94873000000007
183,116.6665039999998,176.6665039999998,85.76904300000024,62.17968800000017,118.7177729999994,112.82031300000017,112.94873000000007,101.2822270000006,98.46142599999985,90.38476599999922,133.0771479999994,106.41015599999992,111.2822270000006,120.89746099999957
184,120.51269500000035,187.82031300000017,84.35888699999941,59.74365200000011,117.05126999999993,115.89746099999957,109.87158199999976,96.15380900000036,91.2822270000006,86.0258789999998,133.3334960000002,107.17968800000017,116.0258789999998,125.25634799999989
185,121.41015599999992,198.3334960000002,86.0258789999998,58.589844000000085,114.87158199999976,116.79492200000004,107.56396500000028,90.12841800000024,83.3334960000002,78.20507799999996,132.43603499999972,105.0,114.61523400000078,125.89746099999957
186,121.2822270000006,208.7177729999994,89.87158199999976,61.153809000000365,114.48730499999965,116.0258789999998,107.56396500000028,86.53857400000015,78.46142599999985,70.38476599999922,131.15380900000036,101.15380900000036,107.30761700000039,125.38476599999922
187,122.94873000000007,218.58984400000008,94.10253900000043,66.9228520000006,116.9228520000006,114.61523400000078,110.0,87.43603499999972,78.7177729999994,67.30761700000039,129.87158199999976,98.20507799999996,99.48730499999965,126.6665039999998
188,128.3334960000002,227.6923829999996,97.05126999999993,72.17968800000017,120.38476599999922,113.3334960000002,113.20507799999996,92.56396500000028,83.20507799999996,71.79492200000004,130.12841800000024,98.58984400000008,98.58984400000008,132.05126999999993
189,137.17968800000017,234.87158199999976,97.94873000000007,73.46142599999985,120.64111300000059,111.9228520000006,115.38476599999922,98.46142599999985,88.58984400000008,81.53857400000015,133.7177729999994,101.79492200000004,109.74365200000011,140.76904300000024
190,147.6923829999996,238.7177729999994,97.82031300000017,69.61523400000078,115.38476599999922,110.64111300000059,115.12841800000024,101.0258789999998,91.2822270000006,91.79492200000004,141.2822270000006,106.0258789999998,131.79492200000004,151.15380900000036
191,158.46142599999985,240.12841800000024,98.58984400000008,64.48730499999965,107.05126999999993,110.25634799999989,112.82031300000017,99.48730499999965,90.64111300000059,98.20507799999996,152.82031300000017,109.61523400000078,159.48730499999965,162.17968800000017
192,169.61523400000078,241.41015599999992,102.69238299999961,63.846190999999635,101.6665039999998,111.2822270000006,110.89746099999957,97.05126999999993,90.25634799999989,101.0258789999998,167.56396500000028,112.69238299999961,186.53857400000015,174.3588869999994
193,182.3076170000004,244.23095699999976,110.38476599999922,70.38476599999922,103.7177729999994,113.46142599999985,111.2822270000006,98.46142599999985,94.35888699999941,103.20507799999996,183.9741210000002,115.89746099999957,210.12841800000024,188.9741210000002
194,195.76904300000024,247.17968800000017,119.48730499999965,81.15380900000036,110.76904300000024,115.38476599999922,113.84619099999964,105.38476599999922,103.20507799999996,107.30761700000039,199.3588869999994,119.48730499999965,231.0258789999998,205.38476599999922
195,207.94873000000007,246.6665039999998,126.2822270000006,89.35888699999941,115.64111300000059,115.64111300000059,116.2822270000006,115.12841800000024,113.20507799999996,113.20507799999996,210.89746099999957,122.69238299999961,251.0258789999998,221.0258789999998
196,216.41015599999992,240.6411130000006,128.9741210000002,89.74365200000011,112.17968800000017,113.84619099999964,116.53857400000015,122.17968800000017,119.35888699999941,117.82031300000017,217.43603499999972,125.38476599999922,270.76904300000024,232.82031300000017
197,220.6411130000006,230.51269500000035,128.0771479999994,82.82031300000017,102.05126999999993,111.0258789999998,114.48730499999965,122.82031300000017,119.35888699999941,119.35888699999941,220.12841800000024,126.9228520000006,288.7177729999994,239.61523400000078
198,222.43603499999972,219.87158199999976,126.2822270000006,73.20507799999996,92.17968800000017,109.10253900000043,111.6665039999998,117.82031300000017,114.61523400000078,118.7177729999994,221.79492200000004,127.56396500000028,302.4360349999997,242.56396500000028
199,224.61523400000078,212.17968800000017,125.89746099999957,66.53857400000015,89.35888699999941,110.0,109.61523400000078,112.05126999999993,108.9741210000002,119.23095699999976,225.38476599999922,127.56396500000028,311.53857400000015,244.3588869999994
200,228.46142599999985,208.20507799999996,127.82031300000017,65.0,94.61523400000078,113.0771479999994,109.23095699999976,110.38476599999922,106.6665039999998,122.94873000000007,232.43603499999972,128.46142599999985,319.23095699999976,247.82031300000017
201,233.7177729999994,206.0258789999998,131.41015599999992,67.43603499999972,102.30761700000039,116.0258789999998,110.64111300000059,114.23095699999976,109.74365200000011,129.23095699999976,242.43603499999972,131.0258789999998,330.12841800000024,253.7177729999994
202,239.48730499999965,202.05126999999993,135.12841800000024,70.12841800000024,106.2822270000006,116.53857400000015,113.58984400000008,121.2822270000006,117.43603499999972,136.0258789999998,253.0771479999994,134.7436520000001,345.12841800000024,260.89746099999957
203,244.23095699999976,194.10253900000043,137.94873000000007,70.0,104.48730499999965,115.12841800000024,118.20507799999996,128.3334960000002,126.2822270000006,142.05126999999993,261.6665039999998,137.94873000000007,360.6411130000006,267.05126999999993
204,247.05126999999993,182.43603499999972,139.61523400000078,66.9228520000006,100.38476599999922,114.35888699999941,123.3334960000002,133.20507799999996,133.46142599999985,148.0771479999994,267.17968800000017,139.48730499999965,372.05126999999993,271.79492200000004
205,247.43603499999972,169.48730499999965,140.38476599999922,62.69238299999961,97.94873000000007,115.64111300000059,127.05126999999993,135.38476599999922,137.82031300000017,155.0,270.2563479999999,139.7436520000001,378.0771479999994,276.0258789999998
206,245.76904300000024,157.17968800000017,140.0,59.74365200000011,97.56396500000028,117.56396500000028,127.17968800000017,135.2563479999999,139.61523400000078,161.2822270000006,272.3076170000004,138.9741210000002,380.89746099999957,279.48730499999965
207,241.6665039999998,144.87158199999976,137.56396500000028,57.82031300000017,95.0,117.43603499999972,122.69238299999961,133.0771479999994,138.7177729999994,163.46142599999985,272.82031300000017,137.56396500000028,382.5639650000003,279.6152340000008
208,234.7436520000001,130.6411130000006,132.82031300000017,54.74365200000011,87.43603499999972,114.23095699999976,115.25634799999989,128.46142599999985,134.3588869999994,159.10253900000043,270.12841800000024,135.6411130000006,383.5898440000001,274.6152340000008
209,227.05126999999993,115.25634799999989,127.43603499999972,49.74365200000011,77.56396500000028,110.0,108.58984400000008,123.0771479999994,127.94873000000007,151.0258789999998,264.6152340000008,133.9741210000002,384.87158199999976,266.4101559999999
210,222.82031300000017,103.20507799999996,125.0,45.38476599999922,72.82031300000017,107.43603499999972,107.56396500000028,120.64111300000059,123.46142599999985,146.53857400000015,260.3847659999992,133.58984400000008,389.6152340000008,261.4101559999999
211,226.15380900000036,99.23095699999976,128.9741210000002,45.64111300000059,78.58984400000008,107.56396500000028,113.9741210000002,125.0,126.53857400000015,152.3076170000004,262.6923829999996,135.38476599999922,401.15380900000036,265.6411130000006
212,235.89746099999957,103.20507799999996,138.20507799999996,50.76904300000024,92.43603499999972,110.0,124.74365200000011,135.76904300000024,138.58984400000008,167.82031300000017,272.17968800000017,139.10253900000043,417.94873000000007,278.7177729999994
213,245.6411130000006,107.56396500000028,146.9228520000006,56.2822270000006,105.25634799999989,112.43603499999972,133.0771479999994,147.17968800000017,153.9741210000002,185.12841800000024,283.7177729999994,142.82031300000017,433.46142599999985,292.6923829999996
214,248.58984400000008,103.9741210000002,148.84619099999964,56.79492200000004,109.23095699999976,112.43603499999972,133.84619099999964,152.05126999999993,163.9741210000002,194.87158199999976,289.7436520000001,144.87158199999976,441.0258789999998,298.7177729999994
215,242.6923829999996,88.9741210000002,142.56396500000028,51.53857400000015,103.7177729999994,109.61523400000078,127.56396500000028,147.94873000000007,162.94873000000007,193.20507799999996,287.05126999999993,144.10253900000043,438.5898440000001,292.94873000000007
216,231.9228520000006,66.41015599999992,132.6923829999996,44.74365200000011,93.20507799999996,105.89746099999957,120.38476599999922,138.3334960000002,153.58984400000008,184.23095699999976,278.84619099999964,141.6665039999998,431.0258789999998,280.0
217,222.05126999999993,44.35888699999941,125.89746099999957,41.410155999999915,83.84619099999964,104.35888699999941,118.46142599999985,130.6411130000006,143.7177729999994,176.79492200000004,271.9228520000006,139.7436520000001,425.2563479999999,267.5639650000003
218,217.43603499999972,29.102539000000434,125.38476599999922,43.333496000000196,79.87158199999976,106.2822270000006,122.69238299999961,130.12841800000024,141.0258789999998,177.56396500000028,271.2822270000006,139.61523400000078,425.89746099999957,262.17968800000017
219,217.56396500000028,22.05126999999993,129.48730499999965,48.333496000000196,82.05126999999993,109.87158199999976,129.48730499999965,136.9228520000006,147.82031300000017,186.6665039999998,276.79492200000004,141.2822270000006,432.3076170000004,264.10253900000043
220,218.84619099999964,18.974121000000196,133.84619099999964,52.56396500000028,87.30761700000039,111.6665039999998,133.7177729999994,145.6411130000006,158.9741210000002,197.82031300000017,283.84619099999964,143.3334960000002,439.87158199999976,268.5898440000001
221,216.6665039999998,13.846190999999635,135.2563479999999,52.69238299999961,91.41015599999992,110.0,133.20507799999996,150.38476599999922,167.56396500000028,204.48730499999965,287.6923829999996,145.51269500000035,443.46142599999985,269.7436520000001
222,209.87158199999976,3.3334960000001956,133.3334960000002,48.20507799999996,92.05126999999993,106.41015599999992,129.61523400000078,149.7436520000001,169.61523400000078,205.0,286.79492200000004,147.17968800000017,441.9228520000006,265.0
223,201.2822270000006,-10.641113000000132,131.15380900000036,41.410155999999915,90.12841800000024,104.48730499999965,126.79492200000004,147.43603499999972,167.3076170000004,203.0771479999994,283.5898440000001,148.84619099999964,438.84619099999964,257.82031300000017
224,195.76904300000024,-22.051270000000386,132.17968800000017,36.410155999999915,88.84619099999964,105.89746099999957,127.94873000000007,148.7177729999994,167.17968800000017,204.23095699999976,282.82031300000017,150.89746099999957,440.12841800000024,254.23095699999976
225,196.6665039999998,-27.051270000000386,137.43603499999972,36.666503999999804,90.38476599999922,110.12841800000024,132.6923829999996,155.2563479999999,172.6923829999996,210.76904300000024,287.3076170000004,153.58984400000008,447.94873000000007,257.4360349999997
226,202.43603499999972,-26.28198199999997,145.12841800000024,42.30761700000039,94.61523400000078,113.84619099999964,137.43603499999972,164.23095699999976,181.9228520000006,219.61523400000078,295.76904300000024,156.41015599999992,459.23095699999976,264.48730499999965
227,208.20507799999996,-24.358886999999868,151.2822270000006,49.74365200000011,99.87158199999976,114.74365200000011,138.9741210000002,170.12841800000024,188.9741210000002,225.12841800000024,303.5898440000001,157.94873000000007,467.3076170000004,268.9741210000002
228,209.61523400000078,-25.641113000000132,153.46142599999985,53.7177729999994,104.48730499999965,112.69238299999961,137.17968800000017,169.87158199999976,189.3588869999994,224.61523400000078,306.6665039999998,158.20507799999996,468.3334960000002,267.17968800000017
229,205.6411130000006,-31.538574000000153,151.41015599999992,51.410155999999915,106.9228520000006,109.74365200000011,134.61523400000078,165.0,184.3588869999994,219.61523400000078,304.48730499999965,157.43603499999972,463.20507799999996,260.12841800000024
230,198.20507799999996,-40.51293900000019,147.05126999999993,43.7177729999994,106.41015599999992,108.7177729999994,133.84619099999964,160.12841800000024,178.7177729999994,214.3588869999994,299.7436520000001,156.15380900000036,456.6665039999998,251.9228520000006
231,190.2563479999999,-50.64111300000013,142.6923829999996,34.61523400000078,102.82031300000017,110.76904300000024,135.0,158.46142599999985,176.0258789999998,211.6665039999998,296.15380900000036,154.10253900000043,452.94873000000007,245.38476599999922
232,183.3334960000002,-60.89746100000002,139.10253900000043,27.56396500000028,97.56396500000028,114.61523400000078,136.0258789999998,160.12841800000024,176.79492200000004,212.3076170000004,295.3847659999992,152.17968800000017,453.0771479999994,241.15380900000036
233,177.82031300000017,-71.15380900000036,136.0258789999998,23.717772999999397,92.30761700000039,117.05126999999993,135.51269500000035,162.43603499999972,178.9741210000002,214.61523400000078,296.6665039999998,150.38476599999922,455.89746099999957,237.94873000000007
234,172.56396500000028,-81.02563499999997,132.82031300000017,21.025878999999804,87.30761700000039,115.38476599999922,133.58984400000008,163.58984400000008,180.2563479999999,216.53857400000015,297.05126999999993,148.58984400000008,458.9741210000002,234.3588869999994
235,166.9228520000006,-90.38452099999995,128.3334960000002,16.282227000000603,82.94873000000007,110.12841800000024,131.15380900000036,162.6923829999996,180.2563479999999,217.17968800000017,294.48730499999965,146.41015599999992,460.0,229.61523400000078
236,161.2822270000006,-97.82055700000001,123.20507799999996,8.974121000000196,80.0,104.61523400000078,129.23095699999976,160.6411130000006,180.2563479999999,217.6923829999996,290.0,144.10253900000043,458.84619099999964,224.61523400000078
237,158.0771479999994,-101.28198199999997,119.48730499999965,2.6923829999996087,80.89746099999957,102.43603499999972,128.3334960000002,159.23095699999976,182.05126999999993,220.0,286.79492200000004,143.3334960000002,457.4360349999997,221.6665039999998
238,159.7436520000001,-100.0,120.0,3.3334960000001956,87.05126999999993,104.10253900000043,128.9741210000002,159.87158199999976,186.0258789999998,225.6411130000006,287.94873000000007,145.0,458.7177729999994,222.56396500000028
239,164.48730499999965,-95.89746100000002,125.25634799999989,13.589844000000085,96.15380900000036,107.30761700000039,130.89746099999957,162.17968800000017,190.89746099999957,233.3334960000002,293.20507799999996,148.3334960000002,463.5898440000001,225.6411130000006
240,167.05126999999993,-93.58984399999963,131.9228520000006,29.48730499999965,102.82031300000017,108.9741210000002,133.46142599999985,164.87158199999976,193.58984400000008,239.3588869999994,298.20507799999996,150.51269500000035,469.3588869999994,226.79492200000004
241,163.3334960000002,-97.30761700000039,135.2563479999999,41.9228520000006,103.0771479999994,108.46142599999985,135.0,166.15380900000036,192.17968800000017,240.76904300000024,297.94873000000007,150.0,472.05126999999993,222.56396500000028
242,153.3334960000002,-107.43579099999943,132.43603499999972,43.46142599999985,96.53857400000015,106.6665039999998,134.61523400000078,165.2563479999999,187.43603499999972,237.05126999999993,290.51269500000035,147.3076170000004,468.9741210000002,213.58984400000008
243,141.41015599999992,-121.02563499999997,124.48730499999965,34.35888699999941,87.17968800000017,104.74365200000011,132.94873000000007,162.6923829999996,182.17968800000017,230.2563479999999,278.5898440000001,144.10253900000043,461.4101559999999,203.58984400000008
244,132.3076170000004,-133.076904,115.25634799999989,21.666503999999804,79.61523400000078,102.69238299999961,130.76904300000024,159.87158199999976,178.84619099999964,223.84619099999964,267.94873000000007,141.9228520000006,453.20507799999996,195.76904300000024
245,128.0771479999994,-140.64111300000013,108.46142599999985,14.230956999999762,77.30761700000039,100.51269500000035,129.87158199999976,158.20507799999996,179.23095699999976,221.0258789999998,263.9741210000002,141.15380900000036,448.84619099999964,191.53857400000015
246,127.30761700000039,-142.56420900000057,105.89746099999957,16.922852000000603,80.76904300000024,99.35888699999941,131.15380900000036,158.7177729999994,182.6923829999996,222.94873000000007,268.20507799999996,141.53857400000015,449.48730499999965,189.61523400000078
247,127.17968800000017,-141.15380900000036,106.15380900000036,27.82031300000017,88.0771479999994,100.12841800000024,134.23095699999976,161.2822270000006,187.82031300000017,228.58984400000008,276.53857400000015,142.43603499999972,453.0771479999994,187.82031300000017
248,125.12841800000024,-139.23071300000038,106.41015599999992,39.74365200000011,95.76904300000024,102.94873000000007,136.9228520000006,164.48730499999965,192.05126999999993,235.0,283.46142599999985,142.6923829999996,455.51269500000035,185.12841800000024
249,120.51269500000035,-139.23071300000038,105.12841800000024,45.897460999999566,100.76904300000024,106.0258789999998,137.05126999999993,166.0258789999998,193.7177729999994,238.84619099999964,284.87158199999976,141.41015599999992,454.10253900000043,181.41015599999992
250,115.51269500000035,-141.53857400000015,102.56396500000028,43.7177729999994,101.79492200000004,107.94873000000007,135.12841800000024,165.0,192.82031300000017,239.10253900000043,281.0258789999998,139.3588869999994,449.48730499999965,177.94873000000007
251,112.56396500000028,-144.10253899999998,100.89746099999957,36.410155999999915,100.0,108.46142599999985,133.3334960000002,163.20507799999996,191.53857400000015,238.20507799999996,274.87158199999976,137.82031300000017,444.23095699999976,176.0258789999998
252,113.0771479999994,-144.23071300000038,100.76904300000024,29.871581999999762,97.43603499999972,108.20507799999996,134.10253900000043,163.46142599999985,192.94873000000007,239.48730499999965,270.2563479999999,138.46142599999985,441.0258789999998,176.79492200000004
253,115.64111300000059,-141.41015600000037,101.79492200000004,29.102539000000434,95.89746099999957,108.3334960000002,137.82031300000017,167.3076170000004,198.20507799999996,244.61523400000078,268.84619099999964,141.41015599999992,439.7436520000001,179.61523400000078
254,116.41015599999992,-139.4870609999998,102.30761700000039,33.46142599999985,95.51269500000035,109.10253900000043,142.6923829999996,173.46142599999985,204.48730499999965,251.0258789999998,268.9741210000002,144.7436520000001,437.5639650000003,180.76904300000024
255,111.6665039999998,-143.84619099999964,100.38476599999922,37.30761700000039,94.35888699999941,110.0,145.6411130000006,178.0771479999994,206.41015599999992,253.20507799999996,266.9228520000006,146.2822270000006,431.0258789999998,176.15380900000036
256,100.64111300000059,-156.15380900000036,95.0,35.12841800000024,90.38476599999922,109.61523400000078,143.84619099999964,177.3076170000004,200.76904300000024,247.82031300000017,259.23095699999976,144.10253900000043,418.5898440000001,163.84619099999964
257,86.53857400000015,-171.53857400000015,87.43603499999972,26.666503999999804,83.46142599999985,107.30761700000039,137.43603499999972,170.38476599999922,190.12841800000024,236.53857400000015,246.53857400000015,138.20507799999996,402.6923829999996,146.9228520000006
258,75.76904300000024,-180.64111300000013,81.15380900000036,17.94873000000007,77.43603499999972,104.48730499999965,129.7436520000001,161.9228520000006,181.15380900000036,225.38476599999922,233.46142599999985,131.15380900000036,388.0771479999994,132.6923829999996
259,73.3334960000002,-177.0512700000004,79.87158199999976,16.410155999999915,77.94873000000007,104.10253900000043,125.64111300000059,157.6923829999996,180.0,221.0258789999998,226.2822270000006,127.05126999999993,378.9741210000002,127.69238299999961
260,80.0,-162.0512700000004,84.10253900000043,24.48730499999965,86.6665039999998,106.9228520000006,127.56396500000028,161.15380900000036,186.79492200000004,224.7436520000001,227.05126999999993,128.3334960000002,375.51269500000035,133.20507799999996
261,90.12841800000024,-144.4870609999998,89.87158199999976,37.30761700000039,98.9741210000002,110.38476599999922,134.3588869999994,169.23095699999976,195.51269500000035,231.9228520000006,231.6665039999998,133.7177729999994,373.46142599999985,143.7177729999994
262,96.53857400000015,-133.97436500000003,92.43603499999972,45.64111300000059,106.6665039999998,111.0258789999998,141.6665039999998,175.76904300000024,198.9741210000002,235.12841800000024,232.94873000000007,138.7177729999994,367.17968800000017,150.6411130000006
263,94.74365200000011,-133.97436500000003,89.74365200000011,45.0,104.87158199999976,108.20507799999996,145.12841800000024,176.2822270000006,194.48730499999965,230.38476599999922,226.0258789999998,139.7436520000001,353.9741210000002,148.0771479999994
264,86.6665039999998,-140.76928699999962,83.9741210000002,38.46142599999985,95.89746099999957,104.23095699999976,143.46142599999985,171.53857400000015,185.38476599999922,219.3588869999994,212.43603499999972,136.15380900000036,336.4101559999999,137.3076170000004
265,78.58984400000008,-147.0512700000004,79.23095699999976,34.48730499999965,86.15380900000036,102.82031300000017,138.46142599999985,165.6411130000006,177.43603499999972,207.6923829999996,198.46142599999985,130.76904300000024,319.7436520000001,124.61523400000078
266,74.48730499999965,-148.33325200000036,77.82031300000017,37.94873000000007,80.64111300000059,105.0,133.58984400000008,162.43603499999972,173.9741210000002,200.12841800000024,188.84619099999964,126.6665039999998,307.6923829999996,115.89746099999957
267,73.20507799999996,-145.2563479999999,78.58984400000008,46.025878999999804,79.87158199999976,108.84619099999964,131.0258789999998,162.05126999999993,173.58984400000008,196.9228520000006,183.46142599999985,124.61523400000078,299.10253900000043,112.30761700000039
268,70.51269500000035,-141.923096,78.3334960000002,50.76904300000024,81.53857400000015,111.15380900000036,130.38476599999922,161.53857400000015,172.56396500000028,195.89746099999957,178.58984400000008,123.20507799999996,290.76904300000024,110.51269500000035
269,63.974121000000196,-140.76928699999962,75.25634799999989,48.20507799999996,83.46142599999985,110.89746099999957,130.2563479999999,158.84619099999964,168.3334960000002,194.87158199999976,171.15380900000036,121.0258789999998,280.6411130000006,106.6665039999998
270,56.025878999999804,-140.0,70.38476599999922,41.410155999999915,85.12841800000024,108.7177729999994,130.0,155.0,162.3076170000004,193.20507799999996,161.9228520000006,119.10253900000043,269.6152340000008,100.25634799999989
271,52.05126999999993,-135.76928699999962,67.05126999999993,38.20507799999996,87.30761700000039,106.6665039999998,129.87158199999976,153.58984400000008,158.58984400000008,191.79492200000004,154.87158199999976,119.23095699999976,260.3847659999992,94.87158199999976
272,54.87158199999976,-125.64111300000013,68.58984400000008,43.0771479999994,91.15380900000036,106.53857400000015,130.6411130000006,156.6665039999998,160.6411130000006,191.53857400000015,153.3334960000002,121.6665039999998,255.51269500000035,95.25634799999989
273,62.30761700000039,-113.07690400000001,74.23095699999976,52.94873000000007,95.38476599999922,107.94873000000007,132.6923829999996,162.56396500000028,167.05126999999993,192.05126999999993,156.9228520000006,124.48730499999965,254.48730499999965,101.15380900000036
274,67.69238299999961,-104.8718259999996,79.23095699999976,59.35888699999941,96.41015599999992,109.48730499999965,134.87158199999976,166.2822270000006,172.3076170000004,191.2822270000006,160.2563479999999,124.48730499999965,252.82031300000017,106.6665039999998
275,65.76904300000024,-106.41015600000037,78.3334960000002,56.153809000000365,91.15380900000036,109.35888699999941,134.7436520000001,163.46142599999985,170.6411130000006,186.9228520000006,157.6923829999996,120.51269500000035,245.38476599999922,105.25634799999989
276,57.05126999999993,-115.76928699999962,71.0258789999998,44.74365200000011,81.2822270000006,107.69238299999961,131.6665039999998,154.48730499999965,161.9228520000006,179.48730499999965,148.20507799999996,114.74365200000011,231.15380900000036,96.2822270000006
277,48.589844000000085,-124.48706099999981,62.43603499999972,34.48730499999965,74.23095699999976,105.76904300000024,127.69238299999961,144.87158199999976,152.17968800000017,172.94873000000007,137.56396500000028,111.0258789999998,215.51269500000035,86.15380900000036
278,47.94873000000007,-123.46142599999985,59.102539000000434,34.35888699999941,77.17968800000017,105.25634799999989,126.53857400000015,141.9228520000006,149.23095699999976,172.17968800000017,133.58984400000008,112.56396500000028,206.2822270000006,83.20507799999996
279,56.666503999999804,-110.38452099999995,63.46142599999985,45.51269500000035,90.38476599999922,106.2822270000006,129.61523400000078,148.7177729999994,156.6665039999998,178.9741210000002,140.0,118.84619099999964,207.56396500000028,90.12841800000024
280,69.23095699999976,-91.41015600000037,72.30761700000039,61.153809000000365,106.2822270000006,107.56396500000028,134.10253900000043,161.15380900000036,170.76904300000024,190.12841800000024,152.3076170000004,126.0258789999998,215.76904300000024,102.69238299999961
281,77.43603499999972,-76.41015600000037,79.23095699999976,72.56396500000028,114.61523400000078,107.94873000000007,135.6411130000006,170.38476599999922,183.0771479999994,199.61523400000078,161.9228520000006,129.23095699999976,222.6923829999996,112.30761700000039
282,77.94873000000007,-71.92309599999999,80.12841800000024,75.76904300000024,111.15380900000036,107.43603499999972,131.9228520000006,170.2563479999999,186.53857400000015,202.3076170000004,161.9228520000006,126.2822270000006,222.17968800000017,113.46142599999985
283,73.3334960000002,-76.92309599999999,75.64111300000059,72.94873000000007,99.61523400000078,107.05126999999993,124.87158199999976,160.6411130000006,178.84619099999964,196.9228520000006,151.9228520000006,120.12841800000024,213.58984400000008,106.6665039999998
284,68.7177729999994,-85.1281740000004,69.74365200000011,69.23095699999976,88.20507799999996,107.56396500000028,118.20507799999996,147.3076170000004,163.84619099999964,186.0258789999998,137.94873000000007,115.12841800000024,201.6665039999998,96.6665039999998
285,66.9228520000006,-89.8718259999996,66.41015599999992,67.05126999999993,83.46142599999985,108.3334960000002,114.61523400000078,137.43603499999972,148.58984400000008,174.10253900000043,127.82031300000017,114.35888699999941,191.79492200000004,89.23095699999976
286,66.6665039999998,-88.58984399999963,66.9228520000006,65.38476599999922,86.15380900000036,108.46142599999985,114.74365200000011,134.48730499999965,139.3588869999994,165.0,125.64111300000059,116.2822270000006,186.2822270000006,86.41015599999992
287,65.25634799999989,-83.84619099999964,68.58984400000008,62.56396500000028,92.69238299999961,107.30761700000039,117.05126999999993,137.56396500000028,138.46142599999985,160.6411130000006,129.61523400000078,117.56396500000028,183.58984400000008,86.79492200000004
288,61.153809000000365,-79.10253899999998,68.84619099999964,58.333496000000196,98.20507799999996,105.38476599999922,120.25634799999989,142.43603499999972,143.84619099999964,160.51269500000035,133.7177729999994,116.0258789999998,179.7436520000001,87.17968800000017
289,55.897460999999566,-75.76928699999962,66.53857400000015,54.35888699999941,99.61523400000078,103.84619099999964,123.7177729999994,146.0258789999998,151.15380900000036,163.20507799999996,133.0771479999994,112.43603499999972,173.3334960000002,85.64111300000059
290,52.17968800000017,-72.30761700000039,63.0771479999994,52.30761700000039,97.17968800000017,103.84619099999964,127.05126999999993,148.20507799999996,157.43603499999972,166.79492200000004,127.17968800000017,109.35888699999941,166.0258789999998,83.7177729999994
291,51.666503999999804,-67.69238299999961,60.76904300000024,52.43603499999972,94.10253900000043,106.0258789999998,130.12841800000024,151.15380900000036,161.9228520000006,170.38476599999922,119.87158199999976,108.7177729999994,161.2822270000006,83.84619099999964
292,53.333496000000196,-62.69238299999961,60.76904300000024,53.20507799999996,93.7177729999994,109.61523400000078,131.9228520000006,155.76904300000024,165.12841800000024,173.20507799999996,115.51269500000035,110.64111300000059,160.6411130000006,86.41015599999992
293,55.25634799999989,-59.23071300000038,62.69238299999961,54.48730499999965,96.79492200000004,112.69238299999961,132.56396500000028,161.15380900000036,167.3076170000004,175.2563479999999,116.0258789999998,113.58984400000008,162.56396500000028,88.84619099999964
294,56.9228520000006,-57.435790999999426,65.64111300000059,57.05126999999993,101.0258789999998,113.58984400000008,132.3076170000004,165.0,169.10253900000043,176.6665039999998,120.64111300000059,115.51269500000035,163.9741210000002,88.3334960000002
295,59.102539000000434,-55.1281740000004,69.10253900000043,62.05126999999993,103.7177729999994,112.30761700000039,132.3076170000004,166.53857400000015,171.15380900000036,177.82031300000017,126.53857400000015,115.51269500000035,163.46142599999985,86.0258789999998
296,62.82031300000017,-50.25634799999989,73.3334960000002,68.0771479999994,103.7177729999994,110.51269500000035,133.20507799999996,166.6665039999998,174.10253900000043,179.23095699999976,131.2822270000006,114.48730499999965,161.9228520000006,85.0
297,67.17968800000017,-43.20507799999996,77.56396500000028,71.6665039999998,101.9228520000006,110.25634799999989,134.87158199999976,166.6665039999998,176.9228520000006,180.38476599999922,133.20507799999996,113.84619099999964,160.76904300000024,86.41015599999992
298,69.35888699999941,-37.30761700000039,79.74365200000011,70.25634799999989,100.64111300000059,111.53857400000015,136.0258789999998,166.53857400000015,177.43603499999972,180.0,131.53857400000015,114.35888699999941,159.48730499999965,88.7177729999994
299,67.17968800000017,-36.41015600000037,78.3334960000002,64.48730499999965,100.51269500000035,112.69238299999961,135.2563479999999,165.2563479999999,173.84619099999964,177.17968800000017,127.30761700000039,115.0,156.0258789999998,88.7177729999994
300,61.153809000000365,-41.53857400000015,73.7177729999994,58.20507799999996,101.2822270000006,112.43603499999972,132.05126999999993,162.05126999999993,167.05126999999993,172.17968800000017,122.17968800000017,114.74365200000011,149.23095699999976,84.87158199999976
301,55.38476599999922,-49.10253899999998,68.58984400000008,55.897460999999566,102.30761700000039,111.15380900000036,127.94873000000007,157.43603499999972,160.0,166.41015599999992,117.94873000000007,113.20507799999996,140.12841800000024,78.46142599999985
302,53.974121000000196,-52.69238299999961,66.53857400000015,59.48730499999965,103.84619099999964,110.12841800000024,124.74365200000011,153.20507799999996,156.15380900000036,162.43603499999972,115.64111300000059,111.2822270000006,131.9228520000006,73.3334960000002
303,57.94873000000007,-48.46142599999985,69.35888699999941,66.6665039999998,106.15380900000036,110.12841800000024,123.3334960000002,151.0258789999998,156.6665039999998,161.53857400000015,115.12841800000024,109.74365200000011,127.69238299999961,73.3334960000002
304,64.35888699999941,-37.82055700000001,76.15380900000036,73.20507799999996,107.56396500000028,110.38476599999922,123.7177729999994,151.0258789999998,159.3588869999994,162.94873000000007,115.76904300000024,109.23095699999976,128.20507799999996,79.48730499999965
305,69.48730499999965,-26.923095999999987,83.9741210000002,75.64111300000059,106.2822270000006,110.76904300000024,126.41015599999992,151.6665039999998,161.15380900000036,164.23095699999976,116.79492200000004,110.0,131.53857400000015,88.58984400000008
306,71.6665039999998,-21.794922000000042,89.10253900000043,73.84619099999964,102.05126999999993,110.51269500000035,130.38476599999922,151.41015599999992,160.0,163.58984400000008,117.56396500000028,112.30761700000039,134.10253900000043,95.64111300000059
307,71.2822270000006,-24.61547900000005,90.12841800000024,70.0,96.2822270000006,109.61523400000078,133.84619099999964,150.38476599999922,156.2822270000006,161.0258789999998,117.94873000000007,115.51269500000035,133.46142599999985,97.69238299999961
308,69.74365200000011,-32.30761700000039,87.69238299999961,66.9228520000006,91.9228520000006,108.20507799999996,134.10253900000043,149.61523400000078,151.6665039999998,157.43603499999972,117.43603499999972,118.20507799999996,129.23095699999976,94.48730499999965
309,68.3334960000002,-39.74365200000011,84.35888699999941,65.51269500000035,91.0258789999998,107.43603499999972,130.38476599999922,149.48730499999965,147.43603499999972,152.94873000000007,115.89746099999957,118.7177729999994,122.94873000000007,89.10253900000043
310,66.79492200000004,-43.07690400000001,82.17968800000017,65.76904300000024,94.23095699999976,108.20507799999996,124.61523400000078,149.10253900000043,144.3588869999994,147.94873000000007,113.9741210000002,116.2822270000006,116.15380900000036,84.87158199999976
311,64.35888699999941,-41.79492200000004,82.43603499999972,67.69238299999961,99.74365200000011,110.12841800000024,120.89746099999957,147.43603499999972,142.43603499999972,143.46142599999985,112.17968800000017,112.05126999999993,110.25634799999989,83.3334960000002
312,60.64111300000059,-37.948729999999614,84.48730499999965,70.51269500000035,103.7177729999994,111.2822270000006,122.05126999999993,144.3588869999994,141.53857400000015,140.89746099999957,111.41015599999992,108.58984400000008,105.64111300000059,84.10253900000043
313,56.9228520000006,-35.1281740000004,86.9228520000006,72.69238299999961,102.82031300000017,110.64111300000059,126.9228520000006,141.0258789999998,141.2822270000006,140.6411130000006,111.0258789999998,108.20507799999996,102.56396500000028,84.74365200000011
314,54.48730499999965,-35.76928699999962,87.69238299999961,72.05126999999993,96.53857400000015,108.9741210000002,131.41015599999992,138.46142599999985,140.89746099999957,141.9228520000006,111.0258789999998,110.76904300000024,101.41015599999992,83.84619099999964
315,54.61523400000078,-38.974365000000034,87.05126999999993,67.94873000000007,89.10253900000043,108.0771479999994,132.43603499999972,137.82031300000017,139.87158199999976,143.46142599999985,111.6665039999998,113.9741210000002,102.69238299999961,82.56396500000028
316,57.94873000000007,-40.64111300000013,86.6665039999998,62.43603499999972,86.41015599999992,109.23095699999976,130.2563479999999,139.87158199999976,139.23095699999976,145.38476599999922,114.10253900000043,115.51269500000035,106.9228520000006,83.0771479999994
317,64.23095699999976,-36.28198199999997,88.84619099999964,59.48730499999965,90.51269500000035,111.79492200000004,127.94873000000007,144.10253900000043,140.38476599999922,147.94873000000007,118.84619099999964,115.25634799999989,113.20507799999996,86.53857400000015
318,70.76904300000024,-26.41015600000037,93.46142599999985,61.666503999999804,97.94873000000007,114.10253900000043,127.56396500000028,148.3334960000002,143.3334960000002,150.0,124.87158199999976,115.0,118.58984400000008,92.05126999999993
319,74.87158199999976,-15.769286999999622,98.0771479999994,67.56396500000028,102.43603499999972,114.61523400000078,128.58984400000008,150.0,146.15380900000036,149.87158199999976,129.23095699999976,116.2822270000006,120.38476599999922,97.43603499999972
320,75.64111300000059,-9.487060999999812,100.0,72.82031300000017,101.41015599999992,112.43603499999972,128.7177729999994,148.0771479999994,146.6665039999998,146.15380900000036,129.61523400000078,118.3334960000002,117.43603499999972,100.76904300000024
321,74.48730499999965,-8.58984399999963,98.58984400000008,74.23095699999976,97.94873000000007,108.58984400000008,125.64111300000059,143.20507799999996,143.84619099999964,139.7436520000001,125.64111300000059,118.84619099999964,112.17968800000017,101.15380900000036
322,73.84619099999964,-10.0,95.38476599999922,71.9228520000006,97.05126999999993,105.38476599999922,120.0,137.05126999999993,138.58984400000008,132.94873000000007,119.35888699999941,116.15380900000036,108.20507799999996,99.35888699999941
323,74.87158199999976,-9.743652000000111,92.94873000000007,68.84619099999964,101.41015599999992,104.35888699999941,114.35888699999941,131.2822270000006,132.82031300000017,128.3334960000002,114.23095699999976,111.0258789999998,107.94873000000007,97.17968800000017
324,78.3334960000002,-5.512939000000188,92.94873000000007,68.3334960000002,109.74365200000011,105.76904300000024,112.82031300000017,127.56396500000028,128.58984400000008,126.79492200000004,113.20507799999996,106.6665039999998,111.15380900000036,96.41015599999992
325,83.3334960000002,1.9228520000006029,95.89746099999957,71.41015599999992,118.20507799999996,107.94873000000007,116.79492200000004,127.43603499999972,127.69238299999961,128.84619099999964,117.05126999999993,105.89746099999957,115.64111300000059,98.0771479999994
326,88.20507799999996,9.871581999999762,99.87158199999976,76.41015599999992,122.94873000000007,109.87158199999976,124.23095699999976,130.6411130000006,130.51269500000035,133.46142599999985,123.84619099999964,109.61523400000078,118.46142599999985,101.41015599999992
327,90.12841800000024,15.384765999999217,102.30761700000039,79.87158199999976,122.17968800000017,110.64111300000059,130.12841800000024,134.61523400000078,135.2563479999999,138.0771479999994,129.61523400000078,114.61523400000078,117.43603499999972,103.84619099999964
328,87.56396500000028,17.05126999999993,100.89746099999957,78.9741210000002,116.9228520000006,110.0,130.0,135.6411130000006,138.20507799999996,139.48730499999965,130.89746099999957,116.15380900000036,112.30761700000039,102.43603499999972
329,81.41015599999992,14.871581999999762,94.74365200000011,72.56396500000028,110.38476599999922,108.7177729999994,123.84619099999964,131.79492200000004,136.15380900000036,135.2563479999999,127.30761700000039,111.6665039999998,104.35888699999941,96.41015599999992
330,74.48730499999965,10.769043000000238,86.41015599999992,62.69238299999961,105.76904300000024,107.82031300000017,115.64111300000059,124.35888699999941,129.61523400000078,127.17968800000017,121.0258789999998,103.84619099999964,97.05126999999993,88.58984400000008
331,69.74365200000011,7.692382999999609,80.25634799999989,52.69238299999961,104.48730499999965,107.82031300000017,110.64111300000059,117.17968800000017,122.30761700000039,120.25634799999989,115.76904300000024,98.3334960000002,93.3334960000002,83.0771479999994
332,68.20507799999996,7.179688000000169,78.9741210000002,44.35888699999941,106.15380900000036,108.20507799999996,111.2822270000006,113.58984400000008,118.46142599999985,118.84619099999964,113.46142599999985,98.9741210000002,94.23095699999976,82.05126999999993
333,68.20507799999996,8.205077999999958,80.76904300000024,37.05126999999993,108.9741210000002,107.82031300000017,115.12841800000024,113.9741210000002,118.84619099999964,122.82031300000017,113.46142599999985,103.9741210000002,97.17968800000017,83.9741210000002
334,67.56396500000028,8.717772999999397,82.30761700000039,29.74365200000011,111.41015599999992,106.41015599999992,117.43603499999972,116.0258789999998,121.6665039999998,127.82031300000017,114.10253900000043,107.94873000000007,98.58984400000008,85.12841800000024
335,66.41015599999992,8.589844000000085,82.69238299999961,23.717772999999397,112.56396500000028,104.48730499999965,116.41015599999992,118.20507799999996,124.74365200000011,130.0,115.51269500000035,108.20507799999996,97.56396500000028,84.23095699999976
336,67.69238299999961,10.512695000000349,83.46142599999985,21.153809000000365,112.94873000000007,103.84619099999964,114.10253900000043,121.0258789999998,127.82031300000017,129.7436520000001,119.74365200000011,106.0258789999998,97.30761700000039,83.3334960000002
337,74.48730499999965,16.666503999999804,87.43603499999972,23.461425999999847,113.9741210000002,105.12841800000024,114.35888699999941,126.15380900000036,132.6923829999996,131.15380900000036,128.58984400000008,105.51269500000035,101.53857400000015,86.15380900000036
338,87.05126999999993,26.538574000000153,94.87158199999976,29.102539000000434,116.9228520000006,107.94873000000007,119.23095699999976,133.7177729999994,139.7436520000001,137.6923829999996,140.2563479999999,108.84619099999964,110.89746099999957,94.61523400000078
339,100.64111300000059,35.897460999999566,103.84619099999964,35.0,121.2822270000006,111.2822270000006,126.2822270000006,141.53857400000015,146.79492200000004,147.94873000000007,149.61523400000078,114.74365200000011,120.76904300000024,105.89746099999957
340,108.84619099999964,40.0,110.51269500000035,37.69238299999961,123.9741210000002,113.3334960000002,130.6411130000006,145.51269500000035,149.7436520000001,155.2563479999999,151.0258789999998,119.35888699999941,124.23095699999976,113.58984400000008
341,107.56396500000028,36.9228520000006,111.15380900000036,34.74365200000011,121.9228520000006,112.94873000000007,128.20507799999996,143.0771479999994,145.51269500000035,153.0771479999994,142.05126999999993,119.61523400000078,117.05126999999993,112.30761700000039
342,97.94873000000007,29.102539000000434,105.89746099999957,26.153809000000365,115.25634799999989,110.51269500000035,120.25634799999989,135.6411130000006,135.76904300000024,140.89746099999957,126.79492200000004,115.0,101.41015599999992,102.56396500000028
343,86.53857400000015,22.56396500000028,98.46142599999985,14.615234000000783,108.0771479999994,108.0771479999994,112.17968800000017,127.69238299999961,126.2822270000006,126.0258789999998,113.9741210000002,109.23095699999976,85.51269500000035,90.51269500000035
344,80.12841800000024,21.282227000000603,93.58984400000008,4.6152340000007825,105.38476599999922,107.30761700000039,109.35888699999941,123.0771479999994,122.30761700000039,117.69238299999961,110.38476599999922,106.2822270000006,77.82031300000017,83.46142599999985
345,81.2822270000006,24.48730499999965,93.20507799999996,-0.8974609999995664,109.10253900000043,108.58984400000008,112.56396500000028,122.17968800000017,124.61523400000078,119.48730499999965,115.51269500000035,107.17968800000017,80.38476599999922,83.9741210000002
346,86.15380900000036,27.69238299999961,95.12841800000024,-2.0512699999999313,115.89746099999957,110.76904300000024,117.94873000000007,122.56396500000028,127.94873000000007,126.6665039999998,122.94873000000007,109.35888699999941,88.0771479999994,88.46142599999985
347,89.10253900000043,27.56396500000028,96.53857400000015,-1.5385740000001533,120.89746099999957,112.56396500000028,120.25634799999989,121.6665039999998,127.05126999999993,131.15380900000036,125.38476599999922,109.61523400000078,93.0771479999994,91.15380900000036
348,87.43603499999972,24.74365200000011,96.41015599999992,-1.6665039999998044,121.9228520000006,112.43603499999972,117.94873000000007,119.61523400000078,121.6665039999998,128.46142599999985,121.15380900000036,107.82031300000017,91.2822270000006,89.87158199999976
349,83.0771479999994,23.589844000000085,96.0258789999998,-3.077147999999397,120.0,110.38476599999922,113.9741210000002,118.9741210000002,116.53857400000015,121.6665039999998,114.23095699999976,106.15380900000036,85.12841800000024,86.41015599999992
350,80.12841800000024,27.30761700000039,96.53857400000015,-5.256347999999889,117.43603499999972,107.56396500000028,111.9228520000006,121.0258789999998,117.17968800000017,117.82031300000017,110.12841800000024,106.53857400000015,80.38476599999922,84.23095699999976
351,80.38476599999922,34.87158199999976,98.3334960000002,-7.820557000000008,115.89746099999957,105.38476599999922,113.46142599999985,124.35888699999941,124.35888699999941,120.76904300000024,111.53857400000015,108.58984400000008,81.0258789999998,85.0
352,82.82031300000017,41.79492200000004,99.87158199999976,-10.769286999999622,116.2822270000006,105.25634799999989,116.53857400000015,125.51269500000035,132.17968800000017,128.3334960000002,116.2822270000006,109.87158199999976,85.64111300000059,87.56396500000028
353,84.48730499999965,43.589844000000085,100.0,-14.102538999999979,117.56396500000028,107.17968800000017,117.82031300000017,122.17968800000017,133.7177729999994,133.7177729999994,119.23095699999976,109.23095699999976,89.48730499999965,89.10253900000043
354,83.84619099999964,40.12841800000024,98.84619099999964,-16.794922000000042,118.20507799999996,110.76904300000024,116.0258789999998,116.41015599999992,127.30761700000039,132.56396500000028,117.82031300000017,107.69238299999961,89.35888699999941,88.20507799999996
355,82.17968800000017,35.25634799999989,97.94873000000007,-16.794922000000042,116.41015599999992,114.23095699999976,113.3334960000002,112.56396500000028,118.20507799999996,126.15380900000036,113.7177729999994,107.56396500000028,86.6665039999998,86.53857400000015
356,80.89746099999957,32.82031300000017,98.3334960000002,-13.71801800000003,112.30761700000039,116.15380900000036,112.30761700000039,113.84619099999964,113.20507799999996,119.10253900000043,110.76904300000024,109.48730499999965,85.0,86.0258789999998
357,80.51269500000035,33.7177729999994,99.74365200000011,-9.487060999999812,107.05126999999993,115.64111300000059,113.58984400000008,118.9741210000002,114.87158199999976,115.64111300000059,111.41015599999992,111.41015599999992,86.53857400000015,87.30761700000039
358,80.51269500000035,36.666503999999804,101.41015599999992,-7.179442999999992,102.82031300000017,113.20507799999996,115.64111300000059,123.84619099999964,120.51269500000035,116.6665039999998,114.87158199999976,111.0258789999998,90.64111300000059,88.9741210000002
359,80.25634799999989,40.12841800000024,102.56396500000028,-8.205077999999958,100.76904300000024,110.64111300000059,116.2822270000006,125.51269500000035,125.0,119.87158199999976,117.94873000000007,107.82031300000017,94.87158199999976,89.74365200000011
360,78.9741210000002,41.79492200000004,102.69238299999961,-12.435790999999426,100.12841800000024,109.10253900000043,114.35888699999941,123.3334960000002,125.38476599999922,121.2822270000006,117.43603499999972,103.84619099999964,97.05126999999993,88.9741210000002
361,76.53857400000015,40.0,101.0258789999998,-19.10253899999998,99.61523400000078,108.7177729999994,110.25634799999989,118.3334960000002,121.53857400000015,118.3334960000002,111.53857400000015,100.76904300000024,95.89746099999957,85.89746099999957
362,72.94873000000007,34.48730499999965,97.69238299999961,-25.89746100000002,98.9741210000002,108.46142599999985,105.76904300000024,113.20507799999996,116.41015599999992,111.9228520000006,102.43603499999972,99.23095699999976,92.69238299999961,81.15380900000036
363,69.87158199999976,27.94873000000007,94.48730499999965,-29.61547900000005,98.7177729999994,108.84619099999964,102.94873000000007,110.76904300000024,113.46142599999985,106.41015599999992,95.12841800000024,99.23095699999976,90.25634799999989,77.30761700000039
364,69.61523400000078,24.615234000000783,93.9741210000002,-28.846190999999635,99.48730499999965,110.38476599999922,103.46142599999985,112.30761700000039,114.35888699999941,105.76904300000024,94.61523400000078,100.76904300000024,91.6665039999998,77.05126999999993
365,73.84619099999964,27.17968800000017,97.05126999999993,-25.25634799999989,101.41015599999992,112.69238299999961,107.05126999999993,116.6665039999998,118.3334960000002,110.64111300000059,101.41015599999992,102.82031300000017,97.82031300000017,81.0258789999998
366,81.79492200000004,35.38476599999922,102.05126999999993,-22.435790999999426,103.7177729999994,114.61523400000078,111.41015599999992,121.2822270000006,122.94873000000007,117.69238299999961,111.79492200000004,104.23095699999976,106.41015599999992,87.05126999999993
367,90.89746099999957,46.153809000000365,106.0258789999998,-22.69238299999961,105.76904300000024,115.12841800000024,114.23095699999976,123.84619099999964,126.79492200000004,123.20507799999996,120.25634799999989,104.48730499999965,114.23095699999976,92.17968800000017
368,98.46142599999985,55.25634799999989,107.30761700000039,-24.61547900000005,107.43603499999972,114.61523400000078,114.61523400000078,123.9741210000002,130.0,125.51269500000035,123.3334960000002,104.23095699999976,118.9741210000002,95.0
369,103.0771479999994,59.35888699999941,106.2822270000006,-25.1281740000004,108.46142599999985,113.84619099999964,113.9741210000002,123.0771479999994,132.94873000000007,126.15380900000036,121.79492200000004,104.48730499999965,121.2822270000006,95.76904300000024
370,104.48730499999965,58.0771479999994,104.48730499999965,-23.076904000000013,108.7177729999994,113.20507799999996,113.58984400000008,123.0771479999994,135.0,127.56396500000028,118.58984400000008,105.0,122.05126999999993,95.51269500000035
371,103.46142599999985,53.0771479999994,102.82031300000017,-20.1281740000004,107.94873000000007,113.0771479999994,113.9741210000002,124.10253900000043,135.0,130.0,115.89746099999957,105.64111300000059,121.41015599999992,94.74365200000011
372,101.41015599999992,47.56396500000028,101.6665039999998,-19.10253899999998,105.64111300000059,113.7177729999994,114.35888699999941,124.74365200000011,132.3076170000004,131.41015599999992,113.84619099999964,106.2822270000006,119.23095699999976,93.0771479999994
373,99.10253900000043,43.846190999999635,100.38476599999922,-20.89746100000002,102.30761700000039,115.0,114.10253900000043,123.3334960000002,127.94873000000007,129.7436520000001,111.6665039999998,106.6665039999998,115.89746099999957,90.38476599999922
374,97.82031300000017,43.333496000000196,99.48730499999965,-23.974365000000034,99.74365200000011,115.89746099999957,113.46142599999985,120.0,124.48730499999965,125.51269500000035,110.51269500000035,106.53857400000015,114.10253900000043,87.69238299999961
375,98.3334960000002,46.53857400000015,99.74365200000011,-25.0,100.64111300000059,116.0258789999998,113.3334960000002,117.43603499999972,124.23095699999976,121.79492200000004,112.69238299999961,105.38476599999922,116.53857400000015,87.05126999999993
376,100.64111300000059,52.56396500000028,101.9228520000006,-22.435790999999426,106.15380900000036,115.76904300000024,113.84619099999964,117.69238299999961,126.79492200000004,121.6665039999998,118.0771479999994,103.58984400000008,123.0771479999994,89.23095699999976
377,103.20507799999996,58.333496000000196,104.48730499999965,-17.30761700000039,112.94873000000007,115.89746099999957,114.35888699999941,120.0,128.84619099999964,124.10253900000043,123.0771479999994,102.05126999999993,129.3588869999994,92.17968800000017
378,103.58984400000008,59.87158199999976,105.12841800000024,-12.435790999999426,115.76904300000024,115.89746099999957,113.46142599999985,120.64111300000059,126.6665039999998,125.0,122.05126999999993,101.2822270000006,130.38476599999922,92.43603499999972
379,100.38476599999922,56.025878999999804,102.17968800000017,-9.487060999999812,111.53857400000015,115.12841800000024,110.76904300000024,117.69238299999961,119.74365200000011,120.89746099999957,113.7177729999994,100.89746099999957,124.87158199999976,88.84619099999964
380,95.76904300000024,49.61523400000078,97.82031300000017,-8.205077999999958,102.69238299999961,113.7177729999994,108.0771479999994,112.17968800000017,112.30761700000039,113.84619099999964,103.3334960000002,100.38476599999922,116.41015599999992,83.7177729999994
381,94.23095699999976,47.05126999999993,96.6665039999998,-6.41015600000037,96.2822270000006,112.94873000000007,108.58984400000008,108.7177729999994,110.25634799999989,109.74365200000011,99.35888699999941,100.64111300000059,111.0258789999998,81.9228520000006
382,98.84619099999964,52.69238299999961,101.6665039999998,-1.9228520000006029,98.0771479999994,113.46142599999985,113.46142599999985,111.2822270000006,116.0258789999998,113.3334960000002,106.53857400000015,102.82031300000017,113.0771479999994,86.79492200000004
383,108.7177729999994,65.0,111.15380900000036,4.358886999999413,107.82031300000017,114.74365200000011,120.0,118.84619099999964,126.15380900000036,122.82031300000017,121.41015599999992,107.05126999999993,121.79492200000004,97.05126999999993
