,EEG.AF3,EEG.F7,EEG.F3,EEG.FC5,EEG.T7,EEG.P7,EEG.O1,EEG.O2,EEG.P8,EEG.T8,EEG.FC6,EEG.F4,EEG.F8,EEG.AF4
0,169.87158199999976,93.0771479999994,183.20507799999996,130.6411130000006,133.20507799999996,116.79492200000004,135.12841800000024,145.6411130000006,128.20507799999996,199.23095699999976,-87.56420900000057,130.6411130000006,162.94873000000007,159.87158199999976
1,166.15380900000036,97.69238299999961,180.0,113.58984400000008,139.3588869999994,117.30761700000039,135.2563479999999,154.7436520000001,152.43603499999972,202.3076170000004,-92.05127000000039,133.20507799999996,167.3076170000004,153.9741210000002
2,159.23095699999976,98.9741210000002,176.41015599999992,98.58984400000008,140.76904300000024,117.17968800000017,135.76904300000024,156.2822270000006,160.38476599999922,196.6665039999998,-96.02563499999997,133.0771479999994,167.43603499999972,149.10253900000043
3,150.2563479999999,97.43603499999972,173.58984400000008,85.51269500000035,137.43603499999972,116.9228520000006,134.87158199999976,147.3076170000004,146.15380900000036,181.79492200000004,-100.38452099999995,129.87158199999976,165.51269500000035,145.38476599999922
4,142.82031300000017,96.6665039999998,172.94873000000007,75.12841800000024,133.0771479999994,116.53857400000015,132.05126999999993,133.58984400000008,120.76904300000024,165.76904300000024,-101.41015600000037,125.89746099999957,166.79492200000004,143.0771479999994
5,140.51269500000035,99.35888699999941,174.48730499999965,67.94873000000007,130.6411130000006,116.6665039999998,128.0771479999994,125.0,104.61523400000078,160.0,-93.71801800000003,124.35888699999941,175.51269500000035,142.6923829999996
6,143.84619099999964,105.76904300000024,177.17968800000017,63.589844000000085,130.2563479999999,116.79492200000004,124.10253900000043,127.56396500000028,110.64111300000059,170.0,-74.8718259999996,127.43603499999972,191.15380900000036,144.3588869999994
7,150.0,113.84619099999964,178.3334960000002,60.38476599999922,131.53857400000015,116.6665039999998,121.15380900000036,138.46142599999985,134.3588869999994,189.87158199999976,-48.07690400000001,133.3334960000002,209.3588869999994,146.9228520000006
8,154.10253900000043,120.51269500000035,175.38476599999922,55.76904300000024,134.23095699999976,116.15380900000036,119.48730499999965,148.3334960000002,158.20507799999996,206.6665039999998,-21.28198199999997,137.3076170000004,223.84619099999964,149.10253900000043
9,151.53857400000015,123.20507799999996,167.82031300000017,47.94873000000007,138.20507799999996,115.89746099999957,118.84619099999964,149.7436520000001,165.89746099999957,210.51269500000035,-1.5385740000001533,135.51269500000035,229.87158199999976,149.3588869999994
10,141.9228520000006,121.0258789999998,158.20507799999996,37.17968800000017,142.6923829999996,116.2822270000006,118.58984400000008,143.46142599999985,155.76904300000024,201.6665039999998,9.102539000000434,128.0771479999994,226.41015599999992,146.9228520000006
11,129.23095699999976,115.76904300000024,150.38476599999922,26.282227000000603,146.53857400000015,117.17968800000017,118.84619099999964,135.89746099999957,139.23095699999976,188.9741210000002,13.589844000000085,119.61523400000078,216.2822270000006,142.05126999999993
12,118.9741210000002,111.15380900000036,146.79492200000004,18.333496000000196,148.9741210000002,117.56396500000028,119.61523400000078,132.82031300000017,129.23095699999976,180.38476599999922,17.82031300000017,114.48730499999965,205.12841800000024,136.15380900000036
13,115.0,111.0258789999998,146.79492200000004,14.871581999999762,149.48730499999965,117.43603499999972,120.25634799999989,134.7436520000001,129.48730499999965,177.94873000000007,26.025878999999804,114.48730499999965,197.94873000000007,130.6411130000006
14,116.6665039999998,116.15380900000036,147.56396500000028,15.512695000000349,148.20507799999996,116.79492200000004,119.35888699999941,137.94873000000007,135.0,178.9741210000002,39.74365200000011,117.56396500000028,195.76904300000024,127.05126999999993
15,120.64111300000059,124.61523400000078,147.05126999999993,18.974121000000196,145.38476599999922,116.41015599999992,116.9228520000006,138.7177729999994,137.94873000000007,180.51269500000035,56.9228520000006,120.12841800000024,195.38476599999922,126.0258789999998
16,123.0771479999994,132.6923829999996,145.76904300000024,24.230956999999762,141.6665039999998,116.53857400000015,114.35888699999941,136.0258789999998,134.48730499999965,180.89746099999957,73.3334960000002,120.25634799999989,191.79492200000004,126.6665039999998
17,122.43603499999972,138.0771479999994,145.38476599999922,31.153809000000365,138.20507799999996,116.6665039999998,113.7177729999994,131.6665039999998,126.6665039999998,180.76904300000024,85.0,118.3334960000002,181.6665039999998,126.6665039999998
18,119.74365200000011,140.76904300000024,146.6665039999998,39.87158199999976,137.05126999999993,116.41015599999992,115.0,127.69238299999961,118.9741210000002,180.2563479999999,90.25634799999989,116.41015599999992,165.12841800000024,123.9741210000002
19,116.41015599999992,142.6923829999996,148.20507799999996,49.61523400000078,139.23095699999976,115.89746099999957,116.2822270000006,125.12841800000024,113.58984400000008,178.20507799999996,91.0258789999998,115.64111300000059,145.51269500000035,118.9741210000002
20,113.3334960000002,146.53857400000015,147.56396500000028,58.846190999999635,143.58984400000008,115.38476599999922,115.64111300000059,122.69238299999961,109.35888699999941,173.3334960000002,91.15380900000036,116.41015599999992,126.53857400000015,114.10253900000043
21,111.2822270000006,153.7177729999994,144.3588869999994,67.05126999999993,147.6923829999996,115.12841800000024,112.30761700000039,119.61523400000078,104.74365200000011,166.79492200000004,94.10253900000043,117.43603499999972,110.51269500000035,112.05126999999993
22,110.76904300000024,164.10253900000043,140.2563479999999,75.76904300000024,149.7436520000001,115.25634799999989,108.3334960000002,116.0258789999998,99.74365200000011,162.56396500000028,99.61523400000078,117.69238299999961,97.17968800000017,113.0771479999994
23,111.79492200000004,175.89746099999957,138.0771479999994,87.69238299999961,149.23095699999976,115.76904300000024,106.15380900000036,112.69238299999961,95.64111300000059,163.0771479999994,104.74365200000011,116.41015599999992,84.87158199999976,115.12841800000024
24,114.74365200000011,186.79492200000004,139.10253900000043,104.23095699999976,147.3076170000004,116.0258789999998,107.69238299999961,109.87158199999976,92.43603499999972,166.53857400000015,106.2822270000006,113.9741210000002,71.2822270000006,116.15380900000036
25,119.35888699999941,195.89746099999957,142.17968800000017,124.35888699999941,146.15380900000036,115.76904300000024,111.9228520000006,106.15380900000036,88.20507799999996,168.0771479999994,102.56396500000028,111.79492200000004,55.25634799999989,115.76904300000024
26,125.12841800000024,204.87158199999976,145.51269500000035,145.2563479999999,147.3076170000004,115.12841800000024,115.76904300000024,101.0258789999998,81.15380900000036,163.84619099999964,95.64111300000059,111.0258789999998,37.30761700000039,115.64111300000059
27,130.89746099999957,215.6411130000006,147.56396500000028,164.7436520000001,150.51269500000035,114.87158199999976,116.79492200000004,95.38476599999922,71.41015599999992,154.7436520000001,88.9741210000002,112.17968800000017,18.717772999999397,117.56396500000028
28,136.0258789999998,229.3588869999994,148.46142599999985,181.15380900000036,153.20507799999996,115.0,115.25634799999989,92.30761700000039,62.69238299999961,146.0258789999998,85.89746099999957,114.48730499999965,0.6411130000005869,121.79492200000004
29,140.12841800000024,243.84619099999964,149.10253900000043,194.48730499999965,152.82031300000017,115.64111300000059,113.0771479999994,94.61523400000078,59.87158199999976,143.84619099999964,86.9228520000006,116.79492200000004,-16.538574000000153,127.56396500000028
30,143.9741210000002,256.4101559999999,150.6411130000006,205.76904300000024,148.7177729999994,116.0258789999998,112.17968800000017,102.30761700000039,64.87158199999976,151.79492200000004,90.12841800000024,117.82031300000017,-32.30761700000039,133.0771479999994
31,148.58984400000008,265.6411130000006,152.94873000000007,216.79492200000004,143.0771479999994,116.0258789999998,112.94873000000007,112.30761700000039,75.64111300000059,166.53857400000015,91.9228520000006,116.9228520000006,-45.76928699999962,137.56396500000028
32,154.23095699999976,272.82031300000017,154.3588869999994,228.20507799999996,138.3334960000002,116.2822270000006,113.7177729999994,119.61523400000078,85.89746099999957,180.51269500000035,89.87158199999976,114.48730499999965,-56.28198199999997,141.2822270000006
33,160.12841800000024,280.3847659999992,153.20507799999996,239.61523400000078,136.0258789999998,116.9228520000006,113.3334960000002,121.53857400000015,90.89746099999957,187.05126999999993,83.9741210000002,112.56396500000028,-64.48706099999981,144.7436520000001
34,165.51269500000035,290.6411130000006,150.0,250.51269500000035,136.79492200000004,117.69238299999961,111.79492200000004,118.84619099999964,89.74365200000011,185.38476599999922,76.15380900000036,112.82031300000017,-71.92309599999999,147.43603499999972
35,169.7436520000001,303.5898440000001,146.41015599999992,260.2563479999999,140.2563479999999,118.20507799999996,110.89746099999957,115.25634799999989,85.51269500000035,180.89746099999957,69.74365200000011,114.74365200000011,-81.02563499999997,148.46142599999985
36,173.0771479999994,318.3334960000002,145.12841800000024,268.7177729999994,145.0,118.3334960000002,111.53857400000015,114.23095699999976,82.05126999999993,179.61523400000078,66.53857400000015,116.0258789999998,-93.71801800000003,148.0771479999994
37,176.0258789999998,332.94873000000007,146.6665039999998,275.6411130000006,148.84619099999964,118.20507799999996,113.0771479999994,116.15380900000036,81.79492200000004,183.9741210000002,66.9228520000006,115.12841800000024,-110.1281740000004,147.56396500000028
38,178.9741210000002,346.4101559999999,148.9741210000002,281.53857400000015,150.0,118.20507799999996,113.58984400000008,118.58984400000008,84.48730499999965,192.43603499999972,69.48730499999965,111.9228520000006,-127.43579099999943,148.46142599999985
39,181.53857400000015,357.3076170000004,149.23095699999976,286.4101559999999,148.9741210000002,118.0771479999994,112.05126999999993,118.46142599999985,87.69238299999961,200.76904300000024,72.17968800000017,108.20507799999996,-142.6923829999996,150.2563479999999
40,182.82031300000017,364.7436520000001,145.38476599999922,290.2563479999999,147.43603499999972,117.82031300000017,109.10253900000043,114.35888699999941,88.3334960000002,204.61523400000078,73.58984400000008,106.0258789999998,-154.23071300000038,150.51269500000035
41,182.3076170000004,369.10253900000043,138.9741210000002,292.82031300000017,147.82031300000017,117.43603499999972,106.0258789999998,107.69238299999961,85.38476599999922,201.6665039999998,73.20507799999996,105.89746099999957,-163.20507799999996,147.43603499999972
42,179.87158199999976,372.17968800000017,132.94873000000007,294.3588869999994,150.2563479999999,117.17968800000017,104.23095699999976,102.17968800000017,80.12841800000024,192.3076170000004,72.05126999999993,107.05126999999993,-171.15380900000036,141.2822270000006
43,175.51269500000035,375.51269500000035,130.38476599999922,293.7177729999994,152.43603499999972,117.30761700000039,103.9741210000002,100.76904300000024,75.51269500000035,179.87158199999976,70.89746099999957,107.69238299999961,-178.58984399999963,134.3588869999994
44,169.3588869999994,378.9741210000002,131.0258789999998,288.84619099999964,152.05126999999993,117.56396500000028,103.58984400000008,102.82031300000017,72.17968800000017,168.46142599999985,70.12841800000024,106.15380900000036,-185.38452099999995,128.46142599999985
45,163.0771479999994,382.05126999999993,132.6923829999996,279.3588869999994,148.9741210000002,117.82031300000017,101.79492200000004,104.23095699999976,69.87158199999976,161.53857400000015,69.74365200000011,102.43603499999972,-191.28198199999997,124.10253900000043
46,159.23095699999976,385.51269500000035,133.9741210000002,269.3588869999994,146.0258789999998,117.94873000000007,99.10253900000043,102.30761700000039,68.3334960000002,160.0,71.15380900000036,99.10253900000043,-196.53857400000015,121.53857400000015
47,160.0,391.15380900000036,135.51269500000035,265.12841800000024,146.79492200000004,118.3334960000002,97.94873000000007,97.82031300000017,68.9741210000002,162.3076170000004,76.79492200000004,98.84619099999964,-199.8718259999996,121.2822270000006
48,164.7436520000001,398.46142599999985,138.3334960000002,269.23095699999976,151.41015599999992,118.20507799999996,100.51269500000035,94.10253900000043,72.43603499999972,164.7436520000001,86.6665039999998,101.6665039999998,-199.7436520000001,122.94873000000007
49,168.58984400000008,403.5898440000001,141.9228520000006,276.53857400000015,156.79492200000004,117.56396500000028,105.12841800000024,92.82031300000017,76.15380900000036,162.94873000000007,96.6665039999998,105.0,-195.64111300000013,124.23095699999976
50,165.38476599999922,401.53857400000015,143.84619099999964,278.20507799999996,158.7177729999994,117.05126999999993,107.43603499999972,92.30761700000039,74.87158199999976,153.9741210000002,100.51269500000035,105.38476599999922,-188.46142599999985,121.79492200000004
51,152.56396500000028,391.53857400000015,141.0258789999998,267.6923829999996,154.61523400000078,117.05126999999993,103.7177729999994,88.58984400000008,65.89746099999957,138.9741210000002,94.74365200000011,101.6665039999998,-180.76928699999962,113.7177729999994
52,133.3334960000002,377.17968800000017,132.6923829999996,246.79492200000004,145.12841800000024,116.41015599999992,93.9741210000002,80.12841800000024,51.9228520000006,122.82031300000017,81.79492200000004,95.89746099999957,-175.2563479999999,100.51269500000035
53,115.38476599999922,364.48730499999965,122.30761700000039,224.10253900000043,133.7177729999994,113.9741210000002,83.3334960000002,69.74365200000011,39.48730499999965,110.89746099999957,67.94873000000007,91.6665039999998,-173.58984399999963,85.76904300000024
54,104.87158199999976,357.17968800000017,115.12841800000024,208.46142599999985,125.51269500000035,110.12841800000024,78.3334960000002,62.69238299999961,35.0,105.51269500000035,59.48730499999965,91.6665039999998,-174.35888699999987,73.3334960000002
55,103.20507799999996,356.0258789999998,114.23095699999976,202.82031300000017,124.61523400000078,107.30761700000039,82.17968800000017,62.56396500000028,39.61523400000078,104.23095699999976,58.589844000000085,94.48730499999965,-175.0,66.0258789999998
56,105.51269500000035,357.5639650000003,118.0771479999994,201.2822270000006,129.87158199999976,107.43603499999972,92.43603499999972,67.30761700000039,47.82031300000017,102.56396500000028,61.9228520000006,96.9228520000006,-174.10253899999998,63.846190999999635
57,104.61523400000078,356.53857400000015,120.89746099999957,193.9741210000002,135.38476599999922,109.87158199999976,102.17968800000017,71.15380900000036,51.025878999999804,96.2822270000006,63.20507799999996,95.76904300000024,-172.56420900000057,63.333496000000196
58,95.64111300000059,348.9741210000002,117.56396500000028,174.48730499999965,135.38476599999922,112.30761700000039,105.12841800000024,68.7177729999994,44.102539000000434,84.10253900000043,58.333496000000196,90.89746099999957,-172.6923829999996,59.74365200000011
59,79.61523400000078,335.12841800000024,107.43603499999972,145.6411130000006,129.3588869999994,112.94873000000007,100.51269500000035,60.38476599999922,29.74365200000011,68.46142599999985,48.46142599999985,85.25634799999989,-175.0,51.666503999999804
60,62.56396500000028,319.6152340000008,94.74365200000011,116.41015599999992,121.9228520000006,111.79492200000004,92.43603499999972,51.666503999999804,17.30761700000039,53.7177729999994,39.23095699999976,81.79492200000004,-176.923096,41.153809000000365
61,50.0,307.17968800000017,84.23095699999976,94.87158199999976,117.82031300000017,110.38476599999922,86.2822270000006,48.20507799999996,15.384765999999217,43.7177729999994,35.51269500000035,81.9228520000006,-174.10253899999998,31.922852000000603
62,42.30761700000039,298.84619099999964,77.43603499999972,81.0258789999998,116.0258789999998,110.12841800000024,84.87158199999976,50.76904300000024,24.102539000000434,38.46142599999985,37.17968800000017,83.9741210000002,-165.64111300000013,24.871581999999762
63,35.64111300000059,290.89746099999957,72.43603499999972,68.3334960000002,111.9228520000006,111.6665039999998,86.53857400000015,55.0,35.38476599999922,34.102539000000434,39.23095699999976,84.61523400000078,-155.38452099999995,17.69238299999961
64,27.17968800000017,280.12841800000024,67.17968800000017,51.666503999999804,103.9741210000002,114.23095699999976,87.94873000000007,55.64111300000059,40.51269500000035,27.82031300000017,37.82031300000017,82.30761700000039,-148.33325200000036,9.358886999999413
65,18.846190999999635,267.94873000000007,62.82031300000017,32.69238299999961,96.53857400000015,116.15380900000036,87.69238299999961,52.17968800000017,38.20507799999996,21.025878999999804,34.61523400000078,78.3334960000002,-145.1281740000004,2.5639650000002803
66,16.282227000000603,258.7177729999994,62.05126999999993,18.589844000000085,96.15380900000036,116.6665039999998,86.6665039999998,49.48730499999965,35.25634799999989,18.205077999999958,35.51269500000035,76.53857400000015,-141.02563499999997,1.9228520000006029
67,21.922852000000603,253.84619099999964,65.12841800000024,12.948730000000069,103.84619099999964,116.0258789999998,86.53857400000015,52.30761700000039,38.333496000000196,22.43603499999972,43.974121000000196,78.84619099999964,-130.5129390000002,8.461425999999847
68,31.666503999999804,250.51269500000035,68.7177729999994,12.17968800000017,113.3334960000002,115.25634799999989,87.05126999999993,60.51269500000035,47.69238299999961,32.69238299999961,58.20507799999996,83.3334960000002,-113.07690400000001,17.43603499999972
69,38.7177729999994,244.87158199999976,69.35888699999941,9.102539000000434,116.79492200000004,114.87158199999976,87.05126999999993,68.9741210000002,58.589844000000085,44.61523400000078,72.43603499999972,86.2822270000006,-92.43579099999943,22.94873000000007
70,39.23095699999976,236.15380900000036,66.41015599999992,-0.38476599999921746,111.15380900000036,114.74365200000011,86.2822270000006,72.94873000000007,66.15380900000036,53.846190999999635,82.56396500000028,85.89746099999957,-73.33325200000036,22.43603499999972
71,34.74365200000011,225.51269500000035,61.79492200000004,-15.38452099999995,99.87158199999976,114.35888699999941,85.12841800000024,71.15380900000036,68.9741210000002,58.589844000000085,88.0771479999994,83.3334960000002,-58.33325200000036,18.333496000000196
72,28.974121000000196,213.46142599999985,57.43603499999972,-32.948729999999614,88.20507799999996,112.94873000000007,83.3334960000002,65.0,67.43603499999972,58.333496000000196,89.61523400000078,79.48730499999965,-47.30761700000039,13.205077999999958
73,23.717772999999397,198.7177729999994,52.94873000000007,-51.153809000000365,79.35888699999941,111.15380900000036,80.0,57.30761700000039,61.9228520000006,52.56396500000028,87.94873000000007,75.12841800000024,-38.58984399999963,7.948730000000069
74,18.846190999999635,181.15380900000036,47.17968800000017,-68.58984399999963,74.10253900000043,110.12841800000024,75.12841800000024,50.12841800000024,53.0771479999994,41.79492200000004,84.35888699999941,70.38476599999922,-30.641113000000132,2.4360349999997197
75,14.358886999999413,163.9741210000002,40.64111300000059,-83.58984399999963,71.6665039999998,111.2822270000006,70.64111300000059,45.12841800000024,43.589844000000085,29.102539000000434,82.17968800000017,66.9228520000006,-21.025634999999966,-2.5639650000002803
76,11.666503999999804,151.53857400000015,36.53857400000015,-94.35888699999987,71.9228520000006,113.84619099999964,69.23095699999976,43.333496000000196,37.94873000000007,20.51269500000035,85.64111300000059,66.53857400000015,-7.692382999999609,-5.512939000000188
77,12.051269999999931,145.76904300000024,37.94873000000007,-100.25634799999989,75.76904300000024,116.15380900000036,72.30761700000039,44.74365200000011,39.35888699999941,20.897460999999566,96.9228520000006,70.0,10.769043000000238,-4.358886999999868
78,15.641113000000587,145.12841800000024,44.61523400000078,-102.43579099999943,83.46142599999985,116.9228520000006,78.58984400000008,48.7177729999994,46.666503999999804,29.74365200000011,114.23095699999976,76.0258789999998,31.794922000000042,0.769043000000238
79,19.48730499999965,145.12841800000024,52.43603499999972,-102.94872999999961,92.17968800000017,115.0,83.84619099999964,53.333496000000196,55.51269500000035,40.897460999999566,132.3076170000004,81.6665039999998,50.12841800000024,6.922852000000603
80,20.128418000000238,140.51269500000035,55.76904300000024,-104.74365200000011,96.41015599999992,110.89746099999957,84.23095699999976,56.410155999999915,60.12841800000024,46.410155999999915,145.0,83.58984400000008,59.74365200000011,9.358886999999413
81,15.384765999999217,128.3334960000002,51.53857400000015,-109.23071300000038,92.30761700000039,105.51269500000035,78.46142599999985,56.410155999999915,57.82031300000017,41.9228520000006,148.7177729999994,80.38476599999922,58.846190999999635,4.743652000000111
82,7.43603499999972,111.15380900000036,42.05126999999993,-114.61547900000005,81.41015599999992,100.89746099999957,69.87158199999976,53.974121000000196,50.64111300000059,30.897460999999566,145.76904300000024,73.9741210000002,51.153809000000365,-5.0
83,1.0258789999998044,95.76904300000024,33.846190999999635,-116.66674799999964,70.64111300000059,98.84619099999964,64.23095699999976,51.53857400000015,44.102539000000434,21.794922000000042,143.0771479999994,68.84619099999964,44.23095699999976,-13.076904000000013
84,0.12841800000023795,87.30761700000039,31.794922000000042,-112.30761700000039,65.64111300000059,100.38476599999922,65.64111300000059,51.666503999999804,42.94873000000007,22.82031300000017,146.53857400000015,67.69238299999961,43.589844000000085,-13.58984399999963
85,3.5898440000000846,85.12841800000024,35.12841800000024,-103.97436500000003,66.79492200000004,103.58984400000008,72.56396500000028,54.23095699999976,47.69238299999961,35.38476599999922,156.9228520000006,70.0,48.46142599999985,-6.666747999999643
86,6.666503999999804,83.58984400000008,39.23095699999976,-96.66674799999964,69.61523400000078,105.51269500000035,79.87158199999976,57.94873000000007,54.87158199999976,53.846190999999635,170.2563479999999,72.56396500000028,54.102539000000434,2.1796880000001693
87,6.025878999999804,78.3334960000002,40.0,-93.46142599999985,70.64111300000059,104.74365200000011,83.58984400000008,62.05126999999993,60.64111300000059,70.76904300000024,181.79492200000004,73.0771479999994,56.79492200000004,7.307617000000391
88,2.8203130000001693,69.87158199999976,38.333496000000196,-91.66674799999964,70.76904300000024,102.56396500000028,84.35888699999941,67.43603499999972,64.87158199999976,82.17968800000017,191.0258789999998,71.6665039999998,57.82031300000017,7.948730000000069
89,2.1796880000001693,63.333496000000196,38.0771479999994,-85.76928699999962,73.46142599999985,101.9228520000006,86.41015599999992,75.64111300000059,70.38476599999922,89.61523400000078,200.76904300000024,70.89746099999957,61.9228520000006,7.56396500000028
90,7.307617000000391,62.05126999999993,42.30761700000039,-73.20507799999996,79.74365200000011,104.74365200000011,91.79492200000004,85.89746099999957,78.7177729999994,95.89746099999957,213.46142599999985,73.20507799999996,71.2822270000006,10.256347999999889
91,16.794922000000042,63.974121000000196,49.61523400000078,-57.435790999999426,85.51269500000035,109.48730499999965,98.0771479999994,94.61523400000078,87.82031300000017,101.79492200000004,227.43603499999972,78.58984400000008,82.30761700000039,16.794922000000042
92,25.384765999999217,64.23095699999976,55.76904300000024,-44.8718259999996,85.12841800000024,113.58984400000008,101.9228520000006,98.3334960000002,93.0771479999994,105.64111300000059,239.10253900000043,84.35888699999941,88.9741210000002,24.48730499999965
93,28.717772999999397,59.35888699999941,57.56396500000028,-39.23071300000038,77.30761700000039,114.87158199999976,101.79492200000004,96.79492200000004,92.43603499999972,105.76904300000024,246.79492200000004,87.30761700000039,88.20507799999996,29.615234000000783
94,26.538574000000153,50.25634799999989,54.87158199999976,-39.48706099999981,67.05126999999993,113.3334960000002,98.58984400000008,92.43603499999972,88.0771479999994,103.3334960000002,251.2822270000006,86.6665039999998,81.9228520000006,30.25634799999989
95,22.56396500000028,41.025878999999804,50.64111300000059,-40.89746100000002,61.410155999999915,110.89746099999957,94.74365200000011,88.46142599999985,84.48730499999965,101.53857400000015,254.23095699999976,83.9741210000002,74.74365200000011,27.69238299999961
96,21.282227000000603,36.025878999999804,48.20507799999996,-38.71801800000003,64.74365200000011,109.61523400000078,91.9228520000006,86.53857400000015,84.74365200000011,102.94873000000007,256.9228520000006,81.79492200000004,71.53857400000015,25.897460999999566
97,25.384765999999217,36.53857400000015,49.48730499999965,-31.794922000000042,75.25634799999989,111.0258789999998,91.15380900000036,86.9228520000006,88.3334960000002,107.82031300000017,259.6152340000008,82.17968800000017,74.10253900000043,27.94873000000007
98,33.46142599999985,38.46142599999985,52.94873000000007,-22.948729999999614,86.53857400000015,114.74365200000011,92.56396500000028,88.7177729999994,92.94873000000007,114.48730499999965,262.17968800000017,84.61523400000078,79.61523400000078,33.46142599999985
99,40.64111300000059,34.74365200000011,55.76904300000024,-17.179442999999992,91.41015599999992,118.58984400000008,95.12841800000024,90.89746099999957,96.2822270000006,120.12841800000024,264.10253900000043,87.30761700000039,82.82031300000017,38.46142599999985
100,42.05126999999993,21.025878999999804,55.64111300000059,-17.820557000000008,86.53857400000015,119.35888699999941,96.9228520000006,92.69238299999961,96.6665039999998,122.82031300000017,263.9741210000002,87.56396500000028,79.87158199999976,38.0771479999994
101,35.25634799999989,1.153809000000365,51.410155999999915,-23.076904000000013,74.61523400000078,115.76904300000024,96.79492200000004,93.0771479999994,94.23095699999976,122.30761700000039,260.6411130000006,84.23095699999976,71.2822270000006,31.153809000000365
102,23.589844000000085,-13.846190999999635,45.0,-26.923095999999987,62.82031300000017,108.9741210000002,94.48730499999965,92.05126999999993,90.0,119.74365200000011,254.61523400000078,78.3334960000002,60.76904300000024,21.025878999999804
103,14.102539000000434,-13.333252000000357,39.23095699999976,-23.333252000000357,58.20507799999996,102.43603499999972,90.76904300000024,89.74365200000011,85.89746099999957,117.30761700000039,248.3334960000002,72.56396500000028,53.0771479999994,13.589844000000085
104,13.077147999999397,5.256347999999889,36.9228520000006,-11.025634999999966,63.333496000000196,99.10253900000043,87.05126999999993,86.9228520000006,83.84619099999964,116.2822270000006,244.61523400000078,69.23095699999976,49.74365200000011,12.692382999999609
105,21.410155999999915,33.7177729999994,38.46142599999985,5.512695000000349,74.10253900000043,101.2822270000006,85.12841800000024,84.10253900000043,83.9741210000002,115.89746099999957,243.9741210000002,68.9741210000002,48.7177729999994,17.94873000000007
106,33.846190999999635,58.46142599999985,41.53857400000015,20.128418000000238,83.20507799999996,107.69238299999961,85.51269500000035,82.17968800000017,84.74365200000011,115.38476599999922,244.10253900000043,70.89746099999957,45.64111300000059,25.25634799999989
107,42.82031300000017,68.7177729999994,43.46142599999985,28.846190999999635,85.0,114.61523400000078,87.56396500000028,81.41015599999992,84.74365200000011,114.48730499999965,242.17968800000017,73.3334960000002,37.43603499999972,28.846190999999635
108,43.7177729999994,63.333496000000196,43.0771479999994,31.666503999999804,78.84619099999964,117.82031300000017,89.23095699999976,81.79492200000004,83.7177729999994,113.46142599999985,237.17968800000017,75.25634799999989,24.358886999999413,26.153809000000365
109,37.56396500000028,49.87158199999976,42.43603499999972,32.30761700000039,70.38476599999922,115.76904300000024,89.10253900000043,83.20507799999996,82.94873000000007,112.94873000000007,231.53857400000015,77.30761700000039,10.512695000000349,20.128418000000238
110,29.615234000000783,38.846190999999635,43.7177729999994,34.61523400000078,66.0258789999998,110.64111300000059,87.30761700000039,85.76904300000024,83.0771479999994,112.17968800000017,228.20507799999996,80.38476599999922,1.5385740000001533,16.282227000000603
111,24.871581999999762,35.25634799999989,47.17968800000017,39.48730499999965,66.9228520000006,106.15380900000036,85.89746099999957,89.35888699999941,84.23095699999976,109.74365200000011,228.84619099999964,83.84619099999964,0.256347999999889,17.94873000000007
112,24.358886999999413,36.2822270000006,50.38476599999922,43.333496000000196,69.74365200000011,104.74365200000011,87.56396500000028,92.69238299999961,85.64111300000059,105.25634799999989,231.2822270000006,85.89746099999957,5.128418000000238,22.30761700000039
113,25.641113000000587,35.76904300000024,51.666503999999804,42.94873000000007,70.51269500000035,106.2822270000006,92.56396500000028,94.48730499999965,86.9228520000006,100.89746099999957,231.79492200000004,85.38476599999922,11.922852000000603,24.102539000000434
114,26.153809000000365,31.025878999999804,51.153809000000365,38.589844000000085,69.61523400000078,108.9741210000002,98.9741210000002,95.64111300000059,89.10253900000043,100.64111300000059,228.9741210000002,82.17968800000017,17.17968800000017,21.538574000000153
115,25.641113000000587,24.48730499999965,50.64111300000059,34.87158199999976,69.87158199999976,110.76904300000024,104.23095699999976,98.58984400000008,93.0771479999994,106.6665039999998,224.3588869999994,78.20507799999996,19.871581999999762,17.43603499999972
116,24.74365200000011,20.128418000000238,50.51269500000035,35.64111300000059,72.94873000000007,110.76904300000024,106.41015599999992,103.9741210000002,98.0771479999994,117.05126999999993,220.51269500000035,75.76904300000024,21.025878999999804,15.641113000000587
117,23.077147999999397,18.717772999999397,49.35888699999941,40.76904300000024,77.43603499999972,109.87158199999976,105.38476599999922,109.48730499999965,101.41015599999992,126.41015599999992,218.58984400000008,76.0258789999998,21.153809000000365,16.666503999999804
118,20.769043000000238,18.077147999999397,46.025878999999804,46.666503999999804,80.76904300000024,109.35888699999941,102.94873000000007,112.56396500000028,102.17968800000017,130.51269500000035,218.7177729999994,78.46142599999985,20.51269500000035,18.589844000000085
119,19.48730499999965,17.43603499999972,41.79492200000004,50.0,82.30761700000039,110.12841800000024,102.17968800000017,113.3334960000002,102.05126999999993,130.2563479999999,220.51269500000035,81.53857400000015,20.51269500000035,20.641113000000587
120,21.025878999999804,17.94873000000007,39.61523400000078,50.25634799999989,82.94873000000007,110.89746099999957,105.12841800000024,115.12841800000024,104.35888699999941,130.2563479999999,224.10253900000043,84.23095699999976,23.333496000000196,23.205077999999958
121,25.641113000000587,20.384765999999217,41.666503999999804,49.61523400000078,82.94873000000007,110.76904300000024,111.0258789999998,120.0,110.38476599999922,133.0771479999994,229.10253900000043,86.2822270000006,29.74365200000011,26.794922000000042
122,31.153809000000365,22.56396500000028,47.30761700000039,49.87158199999976,81.6665039999998,109.23095699999976,116.41015599999992,126.6665039999998,117.82031300000017,136.41015599999992,233.58984400000008,87.43603499999972,37.30761700000039,30.384765999999217
123,34.48730499999965,21.666503999999804,53.589844000000085,51.2822270000006,78.0771479999994,106.9228520000006,117.43603499999972,131.0258789999998,122.56396500000028,135.89746099999957,235.38476599999922,87.56396500000028,42.17968800000017,33.0771479999994
124,34.87158199999976,16.794922000000042,57.05126999999993,53.333496000000196,73.20507799999996,104.87158199999976,113.3334960000002,130.0,122.17968800000017,129.23095699999976,233.58984400000008,86.6665039999998,42.30761700000039,33.846190999999635
125,33.0771479999994,10.128418000000238,56.153809000000365,54.74365200000011,69.61523400000078,104.10253900000043,106.2822270000006,123.46142599999985,117.56396500000028,120.38476599999922,229.10253900000043,85.38476599999922,38.589844000000085,32.94873000000007
126,31.025878999999804,5.769043000000238,52.30761700000039,54.61523400000078,69.61523400000078,105.38476599999922,100.51269500000035,115.38476599999922,112.56396500000028,116.0258789999998,223.84619099999964,84.61523400000078,34.61523400000078,31.922852000000603
127,30.641113000000587,6.153809000000365,49.48730499999965,53.589844000000085,74.10253900000043,107.30761700000039,98.84619099999964,111.0258789999998,111.2822270000006,120.0,220.12841800000024,85.0,34.23095699999976,32.56396500000028
128,32.43603499999972,10.897460999999566,50.38476599999922,53.20507799999996,80.64111300000059,107.94873000000007,101.0258789999998,112.56396500000028,114.35888699999941,128.0771479999994,218.46142599999985,86.53857400000015,37.94873000000007,35.76904300000024
129,34.87158199999976,16.922852000000603,54.23095699999976,55.0,85.12841800000024,106.53857400000015,104.10253900000043,117.56396500000028,118.84619099999964,131.79492200000004,217.94873000000007,88.46142599999985,43.0771479999994,39.87158199999976
130,35.897460999999566,20.641113000000587,57.43603499999972,58.974121000000196,84.23095699999976,104.74365200000011,105.12841800000024,121.0258789999998,120.64111300000059,126.41015599999992,216.79492200000004,89.48730499999965,46.410155999999915,42.30761700000039
131,35.12841800000024,20.897460999999566,57.69238299999961,63.589844000000085,77.82031300000017,104.23095699999976,103.7177729999994,120.0,118.46142599999985,116.2822270000006,215.6411130000006,88.58984400000008,46.666503999999804,41.9228520000006
132,34.23095699999976,19.358886999999413,56.153809000000365,67.69238299999961,70.25634799999989,105.51269500000035,102.69238299999961,116.2822270000006,115.0,111.15380900000036,216.15380900000036,86.41015599999992,46.2822270000006,40.51269500000035
133,35.76904300000024,18.846190999999635,55.51269500000035,71.0258789999998,66.41015599999992,107.43603499999972,104.48730499999965,114.23095699999976,114.35888699999941,117.69238299999961,220.12841800000024,85.0,48.7177729999994,41.2822270000006
134,39.74365200000011,20.384765999999217,57.30761700000039,73.3334960000002,67.82031300000017,108.84619099999964,108.84619099999964,116.79492200000004,117.56396500000028,133.20507799999996,226.6665039999998,85.64111300000059,55.0,45.51269500000035
135,44.48730499999965,22.43603499999972,60.12841800000024,74.48730499999965,71.79492200000004,109.10253900000043,112.05126999999993,122.17968800000017,121.79492200000004,147.3076170000004,232.3076170000004,87.43603499999972,62.43603499999972,51.2822270000006
136,47.43603499999972,22.30761700000039,61.53857400000015,73.84619099999964,75.76904300000024,108.58984400000008,110.38476599999922,125.76904300000024,123.7177729999994,150.38476599999922,234.10253900000043,88.3334960000002,67.17968800000017,55.12841800000024
137,48.333496000000196,20.128418000000238,60.51269500000035,73.0771479999994,79.35888699999941,108.3334960000002,104.74365200000011,124.87158199999976,122.17968800000017,141.6665039999998,232.56396500000028,87.30761700000039,67.82031300000017,55.51269500000035
138,48.589844000000085,19.358886999999413,58.46142599999985,74.10253900000043,84.35888699999941,109.23095699999976,99.61523400000078,121.79492200000004,119.61523400000078,129.23095699999976,231.2822270000006,85.51269500000035,66.2822270000006,54.35888699999941
139,49.48730499999965,22.30761700000039,58.0771479999994,77.56396500000028,91.0258789999998,111.0258789999998,99.87158199999976,120.64111300000059,119.61523400000078,123.7177729999994,233.46142599999985,85.12841800000024,66.2822270000006,54.102539000000434
140,50.0,26.538574000000153,59.48730499999965,81.6665039999998,98.20507799999996,111.9228520000006,105.12841800000024,122.43603499999972,122.82031300000017,128.84619099999964,238.20507799999996,86.79492200000004,69.74365200000011,54.74365200000011
141,48.0771479999994,27.17968800000017,61.025878999999804,82.94873000000007,103.0771479999994,110.89746099999957,111.0258789999998,124.74365200000011,126.15380900000036,138.9741210000002,240.89746099999957,88.58984400000008,75.38476599999922,54.87158199999976
142,42.82031300000017,21.153809000000365,60.76904300000024,79.35888699999941,103.58984400000008,108.58984400000008,112.82031300000017,123.58984400000008,125.89746099999957,144.48730499999965,237.82031300000017,88.0771479999994,79.48730499999965,53.46142599999985
143,36.53857400000015,10.769043000000238,58.974121000000196,73.20507799999996,100.25634799999989,106.79492200000004,109.74365200000011,118.3334960000002,120.51269500000035,139.87158199999976,229.48730499999965,85.38476599999922,80.0,51.410155999999915
144,33.46142599999985,2.3076170000003913,58.46142599999985,69.23095699999976,96.15380900000036,106.53857400000015,105.51269500000035,112.30761700000039,112.94873000000007,127.17968800000017,221.2822270000006,83.46142599999985,78.20507799999996,51.025878999999804
145,36.53857400000015,1.6665039999998044,61.53857400000015,71.79492200000004,95.76904300000024,108.58984400000008,105.25634799999989,110.76904300000024,108.3334960000002,115.0,219.23095699999976,85.38476599999922,78.58984400000008,54.74365200000011
146,46.025878999999804,10.641113000000587,68.58984400000008,81.9228520000006,101.53857400000015,112.17968800000017,110.89746099999957,115.89746099999957,110.0,111.9228520000006,225.76904300000024,91.9228520000006,84.87158199999976,63.0771479999994
147,57.56396500000028,24.871581999999762,77.17968800000017,96.0258789999998,110.89746099999957,115.64111300000059,119.10253900000043,125.0,116.41015599999992,120.0,237.05126999999993,99.61523400000078,95.89746099999957,73.0771479999994
148,64.48730499999965,35.51269500000035,82.56396500000028,106.9228520000006,117.17968800000017,116.9228520000006,123.46142599999985,130.76904300000024,121.79492200000004,132.6923829999996,244.87158199999976,103.84619099999964,105.0,78.58984400000008
149,61.666503999999804,35.0,81.0258789999998,108.46142599999985,114.23095699999976,115.76904300000024,119.23095699999976,127.30761700000039,120.51269500000035,139.48730499999965,242.17968800000017,101.41015599999992,103.84619099999964,75.12841800000024
150,50.12841800000024,22.56396500000028,73.3334960000002,99.74365200000011,102.05126999999993,114.10253900000043,107.69238299999961,114.61523400000078,111.53857400000015,134.48730499999965,228.58984400000008,93.84619099999964,90.64111300000059,64.23095699999976
151,37.17968800000017,5.641113000000587,64.74365200000011,87.05126999999993,87.94873000000007,113.20507799999996,95.89746099999957,99.87158199999976,99.74365200000011,120.76904300000024,212.05126999999993,85.76904300000024,72.30761700000039,52.43603499999972
152,31.538574000000153,-4.871825999999601,61.025878999999804,79.23095699999976,81.53857400000015,113.3334960000002,91.15380900000036,91.41015599999992,91.6665039999998,107.17968800000017,202.6923829999996,82.17968800000017,60.0,47.43603499999972
153,36.410155999999915,-3.3334960000001956,63.846190999999635,81.41015599999992,86.41015599999992,114.23095699999976,95.51269500000035,93.0771479999994,91.0258789999998,102.05126999999993,205.12841800000024,84.35888699999941,60.64111300000059,51.79492200000004
154,47.43603499999972,7.948730000000069,70.38476599999922,91.53857400000015,97.82031300000017,115.64111300000059,104.74365200000011,101.6665039999998,96.15380900000036,107.82031300000017,216.0258789999998,88.84619099999964,71.9228520000006,61.79492200000004
155,57.30761700000039,21.153809000000365,75.64111300000059,103.0771479999994,107.43603499999972,116.6665039999998,112.30761700000039,109.87158199999976,102.30761700000039,118.7177729999994,226.9228520000006,91.0258789999998,85.64111300000059,71.41015599999992
156,60.51269500000035,29.230956999999762,76.41015599999992,109.35888699999941,109.35888699999941,116.53857400000015,114.10253900000043,111.6665039999998,105.64111300000059,126.0258789999998,231.15380900000036,88.84619099999964,93.7177729999994,75.51269500000035
157,57.05126999999993,29.48730499999965,73.0771479999994,108.0771479999994,103.9741210000002,115.0,111.41015599999992,106.2822270000006,105.25634799999989,124.10253900000043,227.6923829999996,84.87158199999976,94.10253900000043,73.7177729999994
158,51.025878999999804,23.589844000000085,69.10253900000043,102.05126999999993,96.6665039999998,113.46142599999985,108.46142599999985,98.7177729999994,102.82031300000017,115.64111300000059,220.89746099999957,83.7177729999994,90.51269500000035,69.10253900000043
159,47.56396500000028,15.0,67.82031300000017,96.53857400000015,93.7177729999994,113.58984400000008,108.58984400000008,95.38476599999922,101.15380900000036,109.23095699999976,216.79492200000004,87.17968800000017,88.84619099999964,66.15380900000036
160,49.35888699999941,8.077147999999397,70.38476599999922,96.15380900000036,97.30761700000039,115.51269500000035,112.05126999999993,99.23095699999976,101.79492200000004,111.79492200000004,218.58984400000008,93.58984400000008,91.6665039999998,67.30761700000039
161,55.0,5.512695000000349,74.48730499999965,101.41015599999992,103.9741210000002,117.82031300000017,116.15380900000036,108.0771479999994,104.35888699999941,122.69238299999961,224.7436520000001,98.7177729999994,96.6665039999998,71.53857400000015
162,60.12841800000024,7.948730000000069,77.05126999999993,109.10253900000043,107.56396500000028,118.3334960000002,117.17968800000017,115.64111300000059,106.79492200000004,133.84619099999964,229.87158199999976,99.10253900000043,98.58984400000008,75.12841800000024
163,60.38476599999922,13.205077999999958,76.15380900000036,114.35888699999941,104.23095699999976,116.41015599999992,112.94873000000007,116.41015599999992,106.9228520000006,137.05126999999993,229.48730499999965,94.74365200000011,94.87158199999976,75.0
164,55.25634799999989,17.82031300000017,71.9228520000006,115.0,95.25634799999989,112.69238299999961,105.25634799999989,109.61523400000078,104.23095699999976,130.2563479999999,222.56396500000028,88.0771479999994,87.94873000000007,70.89746099999957
165,48.589844000000085,20.128418000000238,66.79492200000004,112.82031300000017,85.25634799999989,109.10253900000043,98.7177729999994,99.74365200000011,100.38476599999922,119.23095699999976,212.94873000000007,82.56396500000028,83.3334960000002,65.64111300000059
166,44.87158199999976,20.128418000000238,63.46142599999985,111.53857400000015,79.23095699999976,107.17968800000017,97.30761700000039,93.3334960000002,98.0771479999994,111.6665039999998,206.0258789999998,80.89746099999957,84.61523400000078,62.94873000000007
167,45.897460999999566,18.717772999999397,63.20507799999996,113.9741210000002,79.35888699999941,107.69238299999961,101.41015599999992,94.48730499999965,98.58984400000008,111.0258789999998,204.7436520000001,82.94873000000007,90.51269500000035,63.7177729999994
168,49.74365200000011,17.43603499999972,65.0,119.74365200000011,85.25634799999989,110.51269500000035,107.30761700000039,102.30761700000039,101.6665039999998,114.74365200000011,208.3334960000002,86.41015599999992,96.6665039999998,66.15380900000036
169,53.589844000000085,17.82031300000017,67.05126999999993,126.41015599999992,93.9741210000002,114.35888699999941,111.0258789999998,112.17968800000017,105.76904300000024,118.9741210000002,214.10253900000043,88.20507799999996,99.23095699999976,67.82031300000017
170,55.897460999999566,20.51269500000035,68.58984400000008,131.0258789999998,102.17968800000017,117.17968800000017,111.41015599999992,118.9741210000002,109.48730499999965,122.17968800000017,219.48730499999965,87.56396500000028,98.84619099999964,68.0771479999994
171,56.9228520000006,24.102539000000434,69.10253900000043,132.3076170000004,106.53857400000015,116.79492200000004,110.38476599999922,120.0,112.05126999999993,125.38476599999922,223.58984400000008,86.15380900000036,98.3334960000002,67.82031300000017
172,58.589844000000085,25.769043000000238,69.23095699999976,130.89746099999957,105.76904300000024,113.58984400000008,110.38476599999922,116.6665039999998,113.46142599999985,129.61523400000078,226.2822270000006,86.0258789999998,100.25634799999989,69.23095699999976
173,61.79492200000004,24.230956999999762,69.48730499999965,128.9741210000002,101.9228520000006,110.38476599999922,112.43603499999972,113.46142599999985,114.87158199999976,135.0,227.94873000000007,88.84619099999964,105.0,73.0771479999994
174,66.6665039999998,22.05126999999993,70.89746099999957,128.58984400000008,98.46142599999985,109.23095699999976,115.25634799999989,114.10253900000043,117.17968800000017,139.7436520000001,229.3588869999994,93.58984400000008,111.15380900000036,78.84619099999964
175,71.6665039999998,22.43603499999972,73.58984400000008,130.38476599999922,97.30761700000039,110.0,117.56396500000028,118.7177729999994,119.87158199999976,141.6665039999998,231.0258789999998,97.82031300000017,116.41015599999992,84.61523400000078
176,74.61523400000078,25.128418000000238,76.6665039999998,132.82031300000017,97.69238299999961,111.53857400000015,118.58984400000008,123.9741210000002,122.17968800000017,139.7436520000001,232.82031300000017,99.61523400000078,119.23095699999976,87.82031300000017
177,73.9741210000002,26.410155999999915,78.7177729999994,134.10253900000043,98.20507799999996,112.69238299999961,118.20507799999996,126.53857400000015,123.0771479999994,135.51269500000035,233.7177729999994,98.84619099999964,119.10253900000043,87.17968800000017
178,70.25634799999989,22.94873000000007,78.84619099999964,133.58984400000008,99.10253900000043,113.0771479999994,116.53857400000015,125.12841800000024,122.82031300000017,132.56396500000028,233.58984400000008,96.9228520000006,117.05126999999993,84.48730499999965
179,65.0,15.641113000000587,76.6665039999998,132.6923829999996,101.53857400000015,112.69238299999961,113.9741210000002,121.41015599999992,121.2822270000006,132.6923829999996,232.82031300000017,95.38476599999922,114.74365200000011,82.43603499999972
180,60.38476599999922,9.615234000000783,73.3334960000002,132.82031300000017,105.51269500000035,112.05126999999993,110.89746099999957,117.43603499999972,118.84619099999964,134.3588869999994,231.6665039999998,95.25634799999989,113.3334960000002,82.69238299999961
181,57.17968800000017,8.461425999999847,70.0,134.3588869999994,108.58984400000008,111.15380900000036,107.43603499999972,115.0,115.51269500000035,133.46142599999985,230.12841800000024,95.38476599999922,112.17968800000017,84.23095699999976
182,55.0,11.666503999999804,68.0771479999994,135.38476599999922,107.30761700000039,110.12841800000024,104.10253900000043,113.84619099999964,111.53857400000015,127.69238299999961,227.6923829999996,93.84619099999964,109.35888699999941,84.23095699999976
183,52.94873000000007,15.512695000000349,67.43603499999972,134.3588869999994,100.89746099999957,109.35888699999941,101.41015599999992,112.17968800000017,106.9228520000006,118.46142599999985,223.9741210000002,90.12841800000024,103.3334960000002,81.15380900000036
184,51.025878999999804,16.538574000000153,67.05126999999993,131.79492200000004,92.56396500000028,109.61523400000078,100.51269500000035,108.20507799999996,102.17968800000017,109.48730499999965,218.84619099999964,85.64111300000059,94.35888699999941,75.38476599999922
185,49.74365200000011,13.974121000000196,66.0258789999998,129.7436520000001,88.0771479999994,111.2822270000006,101.6665039999998,102.17968800000017,97.94873000000007,103.7177729999994,213.46142599999985,83.58984400000008,85.0,69.10253900000043
186,49.48730499999965,10.128418000000238,64.87158199999976,130.2563479999999,90.64111300000059,113.7177729999994,104.10253900000043,97.05126999999993,95.12841800000024,102.56396500000028,209.3588869999994,85.76904300000024,78.84619099999964,64.74365200000011
187,50.76904300000024,8.717772999999397,65.12841800000024,133.58984400000008,98.46142599999985,115.76904300000024,107.43603499999972,95.76904300000024,95.38476599999922,106.0258789999998,208.0771479999994,90.89746099999957,78.0771479999994,63.7177729999994
188,53.46142599999985,12.17968800000017,68.0771479999994,138.3334960000002,105.64111300000059,116.6665039999998,111.53857400000015,99.87158199999976,99.87158199999976,113.84619099999964,210.38476599999922,95.76904300000024,83.20507799999996,66.41015599999992
189,57.17968800000017,19.230956999999762,73.3334960000002,143.0771479999994,106.79492200000004,116.41015599999992,115.51269500000035,106.9228520000006,108.46142599999985,124.61523400000078,215.12841800000024,98.46142599999985,91.9228520000006,72.30761700000039
190,61.53857400000015,26.410155999999915,79.23095699999976,147.05126999999993,102.94873000000007,115.12841800000024,117.94873000000007,113.3334960000002,118.58984400000008,135.6411130000006,220.12841800000024,99.35888699999941,100.76904300000024,79.87158199999976
191,66.6665039999998,31.153809000000365,84.48730499999965,151.41015599999992,100.25634799999989,113.9741210000002,117.94873000000007,116.15380900000036,127.17968800000017,144.3588869999994,224.23095699999976,100.0,107.43603499999972,87.69238299999961
192,73.3334960000002,35.0,89.35888699999941,158.3334960000002,105.38476599999922,113.7177729999994,116.53857400000015,116.2822270000006,132.6923829999996,149.3588869999994,228.3334960000002,101.53857400000015,112.17968800000017,95.12841800000024
193,81.2822270000006,40.897460999999566,94.23095699999976,168.7177729999994,118.58984400000008,114.61523400000078,116.15380900000036,116.6665039999998,135.6411130000006,151.9228520000006,234.10253900000043,104.23095699999976,117.69238299999961,102.17968800000017
194,87.69238299999961,48.974121000000196,97.94873000000007,179.61523400000078,132.43603499999972,115.51269500000035,117.82031300000017,118.58984400000008,135.89746099999957,152.56396500000028,240.0,106.9228520000006,124.23095699999976,107.17968800000017
195,88.3334960000002,55.0,97.82031300000017,185.6411130000006,137.56396500000028,115.38476599999922,119.74365200000011,119.87158199999976,132.6923829999996,150.6411130000006,241.79492200000004,107.94873000000007,129.3588869999994,107.94873000000007
196,81.9228520000006,55.12841800000024,93.20507799999996,184.10253900000043,131.0258789999998,114.23095699999976,118.84619099999964,117.82031300000017,127.05126999999993,146.15380900000036,237.05126999999993,107.43603499999972,130.76904300000024,103.84619099999964
197,73.0771479999994,51.025878999999804,87.05126999999993,178.58984400000008,118.9741210000002,112.94873000000007,115.25634799999989,113.9741210000002,122.17968800000017,141.9228520000006,229.10253900000043,106.6665039999998,129.23095699999976,98.0771479999994
198,69.23095699999976,48.0771479999994,85.0,175.89746099999957,111.6665039999998,113.0771479999994,112.30761700000039,113.0771479999994,122.43603499999972,142.3076170000004,225.38476599999922,108.0771479999994,129.3588869999994,96.41015599999992
199,74.87158199999976,51.153809000000365,89.74365200000011,180.38476599999922,114.74365200000011,114.61523400000078,113.58984400000008,118.58984400000008,129.48730499999965,148.9741210000002,230.89746099999957,112.05126999999993,134.7436520000001,102.43603499999972
200,87.94873000000007,59.61523400000078,98.84619099999964,190.12841800000024,126.0258789999998,116.0258789999998,119.35888699999941,129.3588869999994,141.2822270000006,159.10253900000043,242.94873000000007,116.79492200000004,144.23095699999976,114.35888699999941
201,100.51269500000035,68.0771479999994,106.2822270000006,198.46142599999985,137.56396500000028,115.76904300000024,125.38476599999922,139.23095699999976,152.17968800000017,167.3076170000004,253.0771479999994,119.61523400000078,152.56396500000028,125.64111300000059
202,104.48730499999965,71.0258789999998,106.53857400000015,199.48730499999965,142.56396500000028,113.84619099999964,127.17968800000017,141.53857400000015,155.76904300000024,168.58984400000008,253.7177729999994,118.7177729999994,153.84619099999964,129.48730499999965
203,97.30761700000039,66.0258789999998,98.9741210000002,192.17968800000017,139.3588869999994,111.41015599999992,123.20507799999996,134.87158199999976,149.23095699999976,161.15380900000036,243.46142599999985,114.74365200000011,145.51269500000035,123.20507799999996
204,84.10253900000043,55.38476599999922,88.0771479999994,181.6665039999998,131.41015599999992,109.61523400000078,116.15380900000036,123.3334960000002,135.76904300000024,146.9228520000006,228.58984400000008,109.35888699999941,130.6411130000006,110.0
205,73.7177729999994,44.48730499999965,80.51269500000035,174.10253900000043,123.7177729999994,108.7177729999994,110.64111300000059,113.7177729999994,122.82031300000017,132.05126999999993,217.43603499999972,104.35888699999941,116.41015599999992,97.69238299999961
206,72.17968800000017,38.20507799999996,80.12841800000024,173.0771479999994,119.23095699999976,108.58984400000008,109.74365200000011,110.38476599999922,117.56396500000028,123.46142599999985,215.0,101.41015599999992,109.48730499999965,92.82031300000017
207,77.56396500000028,37.30761700000039,85.38476599999922,176.9228520000006,117.69238299999961,109.35888699999941,112.94873000000007,112.30761700000039,120.89746099999957,124.74365200000011,219.48730499999965,101.2822270000006,112.30761700000039,96.2822270000006
208,82.94873000000007,38.974121000000196,90.12841800000024,181.0258789999998,117.17968800000017,110.25634799999989,116.15380900000036,115.89746099999957,127.69238299999961,133.0771479999994,224.48730499999965,103.3334960000002,121.9228520000006,102.30761700000039
209,82.94873000000007,40.0,90.0,181.41015599999992,116.9228520000006,110.25634799999989,116.6665039999998,117.94873000000007,131.9228520000006,141.9228520000006,224.3588869999994,106.41015599999992,131.79492200000004,104.35888699999941
210,77.94873000000007,40.38476599999922,86.0258789999998,177.6923829999996,118.0771479999994,109.23095699999976,114.74365200000011,118.84619099999964,131.6665039999998,146.41015599999992,219.3588869999994,109.74365200000011,136.15380900000036,100.76904300000024
211,73.20507799999996,42.30761700000039,82.94873000000007,173.3334960000002,121.53857400000015,108.84619099999964,113.9741210000002,121.15380900000036,130.12841800000024,146.53857400000015,214.7436520000001,112.69238299999961,132.43603499999972,95.89746099999957
212,72.94873000000007,47.05126999999993,84.48730499999965,171.0258789999998,126.41015599999992,110.12841800000024,116.9228520000006,126.15380900000036,130.76904300000024,146.0258789999998,215.12841800000024,115.12841800000024,122.05126999999993,95.64111300000059
213,77.56396500000028,53.20507799999996,90.51269500000035,171.6665039999998,129.87158199999976,112.30761700000039,122.30761700000039,132.17968800000017,134.23095699999976,147.43603499999972,220.2563479999999,115.76904300000024,108.58984400000008,100.89746099999957
214,83.46142599999985,58.589844000000085,97.30761700000039,174.10253900000043,130.51269500000035,113.84619099999964,126.41015599999992,135.89746099999957,138.9741210000002,150.2563479999999,225.51269500000035,113.9741210000002,96.15380900000036,108.3334960000002
215,87.56396500000028,62.69238299999961,100.51269500000035,177.17968800000017,129.48730499999965,113.9741210000002,126.6665039999998,136.0258789999998,142.82031300000017,151.2822270000006,226.9228520000006,110.25634799999989,87.56396500000028,113.3334960000002
216,88.58984400000008,65.89746099999957,98.58984400000008,179.87158199999976,128.46142599999985,113.0771479999994,123.7177729999994,133.58984400000008,144.48730499999965,148.20507799999996,223.46142599999985,106.6665039999998,83.20507799999996,112.94873000000007
217,86.6665039999998,67.30761700000039,92.56396500000028,180.6411130000006,128.0771479999994,111.15380900000036,119.35888699999941,130.76904300000024,143.46142599999985,140.6411130000006,216.9228520000006,104.35888699999941,80.25634799999989,107.30761700000039
218,83.20507799999996,64.74365200000011,86.15380900000036,178.7177729999994,128.20507799999996,108.7177729999994,115.76904300000024,128.58984400000008,140.12841800000024,132.3076170000004,210.0,103.7177729999994,75.76904300000024,99.48730499999965
219,80.76904300000024,59.61523400000078,83.58984400000008,175.89746099999957,128.7177729999994,106.79492200000004,114.48730499999965,128.20507799999996,137.56396500000028,128.3334960000002,205.6411130000006,105.0,69.87158199999976,94.10253900000043
220,81.9228520000006,56.666503999999804,87.30761700000039,176.0258789999998,130.12841800000024,106.15380900000036,116.2822270000006,130.89746099999957,138.58984400000008,132.6923829999996,205.89746099999957,108.0771479999994,66.0258789999998,95.0
221,86.53857400000015,59.35888699999941,95.51269500000035,180.89746099999957,131.79492200000004,107.17968800000017,120.38476599999922,136.53857400000015,143.46142599999985,142.94873000000007,209.7436520000001,111.79492200000004,67.56396500000028,101.9228520000006
222,91.41015599999992,65.38476599999922,103.58984400000008,187.6923829999996,131.9228520000006,109.23095699999976,124.61523400000078,142.82031300000017,148.20507799999996,151.6665039999998,213.46142599999985,113.9741210000002,73.0771479999994,109.87158199999976
223,93.0771479999994,69.23095699999976,106.79492200000004,191.6665039999998,130.0,110.51269500000035,126.53857400000015,145.51269500000035,148.58984400000008,151.53857400000015,212.94873000000007,113.3334960000002,77.82031300000017,113.84619099999964
224,91.15380900000036,67.43603499999972,104.61523400000078,190.12841800000024,127.56396500000028,109.74365200000011,125.12841800000024,142.43603499999972,143.7177729999994,142.6923829999996,208.3334960000002,110.25634799999989,77.82031300000017,111.79492200000004
225,87.69238299999961,62.05126999999993,100.25634799999989,185.38476599999922,127.17968800000017,107.69238299999961,121.6665039999998,135.51269500000035,136.53857400000015,132.3076170000004,203.7177729999994,106.9228520000006,73.3334960000002,106.6665039999998
226,86.0258789999998,57.69238299999961,97.56396500000028,182.6923829999996,130.0,106.79492200000004,117.94873000000007,129.7436520000001,131.41015599999992,128.9741210000002,202.6923829999996,105.89746099999957,68.3334960000002,102.56396500000028
227,86.9228520000006,57.56396500000028,97.43603499999972,185.51269500000035,133.84619099999964,108.3334960000002,115.51269500000035,128.3334960000002,130.2563479999999,135.2563479999999,205.38476599999922,108.20507799999996,66.41015599999992,101.6665039999998
228,89.10253900000043,61.025878999999804,98.0771479999994,192.43603499999972,135.12841800000024,111.9228520000006,114.74365200000011,130.12841800000024,132.05126999999993,145.51269500000035,207.82031300000017,112.69238299999961,68.3334960000002,102.82031300000017
229,90.0,64.35888699999941,97.05126999999993,198.46142599999985,132.43603499999972,115.64111300000059,115.0,131.2822270000006,133.84619099999964,150.89746099999957,206.53857400000015,116.53857400000015,71.2822270000006,103.9741210000002
230,87.69238299999961,64.48730499999965,94.48730499999965,199.48730499999965,127.69238299999961,117.69238299999961,115.64111300000059,128.58984400000008,133.46142599999985,145.51269500000035,201.15380900000036,117.05126999999993,72.17968800000017,103.58984400000008
231,82.82031300000017,60.76904300000024,91.79492200000004,195.38476599999922,124.87158199999976,116.9228520000006,116.15380900000036,123.46142599999985,130.51269500000035,130.6411130000006,194.3588869999994,113.46142599999985,69.87158199999976,101.15380900000036
232,77.69238299999961,55.25634799999989,90.89746099999957,190.51269500000035,125.89746099999957,113.84619099999964,116.2822270000006,119.23095699999976,126.53857400000015,114.10253900000043,189.23095699999976,107.30761700000039,66.2822270000006,97.05126999999993
233,75.64111300000059,51.79492200000004,92.82031300000017,190.38476599999922,129.3588869999994,110.51269500000035,116.15380900000036,119.74365200000011,124.35888699999941,105.38476599999922,187.17968800000017,102.05126999999993,65.25634799999989,93.7177729999994
234,78.84619099999964,52.56396500000028,97.05126999999993,196.79492200000004,131.9228520000006,109.61523400000078,116.53857400000015,125.0,126.2822270000006,109.87158199999976,188.7177729999994,100.89746099999957,68.46142599999985,94.74365200000011
235,85.38476599999922,56.410155999999915,101.9228520000006,206.79492200000004,131.15380900000036,111.2822270000006,117.56396500000028,132.3076170000004,131.6665039999998,124.48730499999965,193.20507799999996,104.87158199999976,75.25634799999989,101.0258789999998
236,90.12841800000024,59.102539000000434,105.0,213.9741210000002,127.30761700000039,113.46142599999985,118.58984400000008,137.05126999999993,136.79492200000004,140.0,197.6923829999996,111.2822270000006,81.9228520000006,108.7177729999994
237,89.35888699999941,58.589844000000085,105.0,214.61523400000078,122.69238299999961,113.58984400000008,118.46142599999985,136.6665039999998,138.3334960000002,148.20507799999996,199.7436520000001,115.76904300000024,85.12841800000024,112.94873000000007
238,84.61523400000078,56.666503999999804,103.0771479999994,210.89746099999957,120.76904300000024,111.0258789999998,116.6665039999998,132.05126999999993,135.76904300000024,146.9228520000006,198.58984400000008,116.53857400000015,84.61523400000078,111.9228520000006
239,81.2822270000006,57.17968800000017,102.05126999999993,208.84619099999964,123.7177729999994,107.69238299999961,114.23095699999976,127.69238299999961,132.17968800000017,140.6411130000006,196.9228520000006,115.12841800000024,82.94873000000007,108.46142599999985
240,83.20507799999996,62.30761700000039,103.9741210000002,212.6923829999996,129.7436520000001,106.53857400000015,112.43603499999972,126.53857400000015,130.89746099999957,136.15380900000036,197.43603499999972,113.84619099999964,83.0771479999994,106.53857400000015
241,89.61523400000078,69.74365200000011,108.58984400000008,221.41015599999992,135.0,108.84619099999964,112.17968800000017,128.84619099999964,133.46142599999985,137.6923829999996,201.41015599999992,113.9741210000002,86.0258789999998,109.10253900000043
242,96.2822270000006,75.12841800000024,114.23095699999976,230.76904300000024,136.53857400000015,113.20507799999996,113.46142599999985,131.9228520000006,138.9741210000002,144.7436520000001,206.9228520000006,115.12841800000024,89.74365200000011,115.76904300000024
243,99.35888699999941,76.2822270000006,118.7177729999994,236.2822270000006,133.9741210000002,116.2822270000006,115.89746099999957,133.46142599999985,145.0,153.3334960000002,210.89746099999957,116.9228520000006,91.9228520000006,123.46142599999985
244,97.43603499999972,73.46142599999985,119.61523400000078,235.89746099999957,128.84619099999964,116.0258789999998,117.56396500000028,132.3076170000004,147.3076170000004,157.6923829999996,210.51269500000035,118.46142599999985,90.76904300000024,127.30761700000039
245,91.15380900000036,66.9228520000006,115.25634799999989,230.0,122.94873000000007,112.17968800000017,116.15380900000036,128.58984400000008,142.56396500000028,153.3334960000002,204.10253900000043,118.58984400000008,85.64111300000059,123.84619099999964
246,83.0771479999994,57.30761700000039,106.53857400000015,221.41015599999992,116.6665039999998,106.9228520000006,110.0,122.17968800000017,131.0258789999998,140.38476599999922,192.3076170000004,116.79492200000004,77.43603499999972,113.7177729999994
247,76.6665039999998,47.30761700000039,97.69238299999961,215.2563479999999,110.76904300000024,103.46142599999985,101.2822270000006,114.48730499999965,117.30761700000039,123.7177729999994,179.7436520000001,113.7177729999994,69.10253900000043,102.43603499999972
248,75.12841800000024,42.30761700000039,94.61523400000078,215.89746099999957,107.56396500000028,104.48730499999965,94.74365200000011,109.23095699999976,108.3334960000002,110.76904300000024,172.43603499999972,111.41015599999992,64.35888699999941,97.05126999999993
249,79.61523400000078,45.897460999999566,100.25634799999989,224.10253900000043,109.48730499999965,109.48730499999965,95.12841800000024,109.61523400000078,108.9741210000002,106.9228520000006,173.84619099999964,111.0258789999998,66.0258789999998,101.0258789999998
250,88.0771479999994,56.410155999999915,111.79492200000004,236.41015599999992,116.15380900000036,115.0,102.82031300000017,115.76904300000024,118.0771479999994,112.43603499999972,181.15380900000036,112.82031300000017,72.82031300000017,111.41015599999992
251,95.51269500000035,66.2822270000006,121.6665039999998,246.6665039999998,124.10253900000043,117.43603499999972,112.56396500000028,122.94873000000007,129.7436520000001,122.69238299999961,187.56396500000028,115.64111300000059,80.0,120.76904300000024
252,97.17968800000017,68.84619099999964,123.58984400000008,251.2822270000006,129.10253900000043,116.15380900000036,117.69238299999961,127.05126999999993,136.9228520000006,131.53857400000015,188.20507799999996,117.82031300000017,83.0771479999994,122.69238299999961
253,92.69238299999961,63.20507799999996,117.05126999999993,250.89746099999957,129.3588869999994,112.56396500000028,115.51269500000035,127.05126999999993,136.6665039999998,134.87158199999976,184.48730499999965,118.3334960000002,81.15380900000036,117.56396500000028
254,85.76904300000024,55.76904300000024,107.05126999999993,249.3588869999994,126.6665039999998,109.10253900000043,108.84619099999964,125.64111300000059,131.79492200000004,133.20507799999996,181.79492200000004,117.30761700000039,77.05126999999993,110.89746099999957
255,81.53857400000015,54.23095699999976,99.87158199999976,250.38476599999922,123.84619099999964,107.69238299999961,103.0771479999994,125.51269500000035,127.69238299999961,130.2563479999999,183.7177729999994,115.38476599999922,74.74365200000011,107.82031300000017
256,82.56396500000028,60.76904300000024,99.10253900000043,254.48730499999965,122.30761700000039,109.48730499999965,101.9228520000006,126.41015599999992,127.56396500000028,130.2563479999999,188.58984400000008,113.84619099999964,75.51269500000035,109.35888699999941
257,88.46142599999985,70.25634799999989,103.7177729999994,259.7436520000001,121.6665039999998,113.3334960000002,104.87158199999976,126.79492200000004,130.51269500000035,133.20507799999996,192.43603499999972,113.46142599999985,77.17968800000017,112.94873000000007
258,95.76904300000024,74.61523400000078,108.84619099999964,263.5898440000001,120.38476599999922,116.41015599999992,108.9741210000002,125.64111300000059,133.0771479999994,135.2563479999999,192.56396500000028,114.10253900000043,76.9228520000006,113.58984400000008
259,99.74365200000011,69.87158199999976,109.48730499999965,264.23095699999976,118.0771479999994,116.79492200000004,110.76904300000024,122.56396500000028,132.3076170000004,131.6665039999998,188.84619099999964,115.12841800000024,73.7177729999994,108.7177729999994
260,97.94873000000007,59.61523400000078,104.61523400000078,262.6923829999996,115.51269500000035,115.12841800000024,109.23095699999976,118.9741210000002,127.94873000000007,122.69238299999961,184.10253900000043,115.25634799999989,69.74365200000011,100.89746099999957
261,93.20507799999996,52.94873000000007,98.3334960000002,262.3076170000004,116.0258789999998,113.9741210000002,106.79492200000004,117.05126999999993,123.7177729999994,114.35888699999941,182.56396500000028,114.35888699999941,69.48730499999965,96.41015599999992
262,91.41015599999992,57.56396500000028,96.9228520000006,266.53857400000015,122.94873000000007,114.61523400000078,107.56396500000028,120.12841800000024,124.48730499999965,115.0,187.43603499999972,113.84619099999964,76.41015599999992,100.64111300000059
263,96.2822270000006,73.46142599999985,102.94873000000007,276.0258789999998,136.15380900000036,116.41015599999992,112.94873000000007,129.3588869999994,132.82031300000017,127.17968800000017,197.82031300000017,114.87158199999976,89.74365200000011,112.17968800000017
264,105.51269500000035,91.15380900000036,112.56396500000028,286.9228520000006,149.7436520000001,117.82031300000017,121.15380900000036,141.0258789999998,145.38476599999922,145.51269500000035,209.10253900000043,117.56396500000028,103.7177729999994,124.23095699999976
265,113.3334960000002,99.10253900000043,119.23095699999976,292.82031300000017,155.51269500000035,117.56396500000028,127.56396500000028,148.9741210000002,155.38476599999922,160.2563479999999,215.51269500000035,119.74365200000011,111.2822270000006,129.7436520000001
266,114.87158199999976,92.82031300000017,118.58984400000008,290.3847659999992,149.23095699999976,115.89746099999957,128.7177729999994,148.20507799999996,157.43603499999972,164.87158199999976,214.7436520000001,119.35888699999941,109.61523400000078,126.6665039999998
267,110.38476599999922,78.9741210000002,112.17968800000017,281.2822270000006,135.6411130000006,114.10253900000043,125.0,139.7436520000001,151.79492200000004,159.87158199999976,208.46142599999985,115.76904300000024,102.05126999999993,118.9741210000002
268,103.0771479999994,67.82031300000017,104.48730499999965,271.4101559999999,123.9741210000002,113.9741210000002,119.10253900000043,128.84619099999964,143.7177729999994,150.51269500000035,201.0258789999998,109.87158199999976,94.35888699999941,112.69238299999961
269,96.2822270000006,64.74365200000011,98.9741210000002,265.6411130000006,119.61523400000078,115.0,113.7177729999994,120.38476599999922,137.43603499999972,141.2822270000006,194.87158199999976,104.23095699999976,89.35888699999941,111.41015599999992
270,91.15380900000036,66.15380900000036,95.89746099999957,264.3588869999994,120.64111300000059,115.64111300000059,109.10253900000043,115.12841800000024,132.94873000000007,132.82031300000017,189.61523400000078,100.64111300000059,84.87158199999976,112.94873000000007
271,87.17968800000017,65.51269500000035,93.46142599999985,264.6152340000008,120.51269500000035,114.23095699999976,104.74365200000011,111.0258789999998,128.20507799999996,124.23095699999976,184.3588869999994,99.35888699999941,77.17968800000017,111.9228520000006
272,83.9741210000002,59.74365200000011,90.76904300000024,263.3334960000002,115.76904300000024,111.6665039999998,101.41015599999992,106.53857400000015,122.30761700000039,115.89746099999957,179.3588869999994,99.61523400000078,65.76904300000024,105.89746099999957
273,82.43603499999972,52.43603499999972,88.9741210000002,260.0,108.46142599999985,110.12841800000024,100.51269500000035,102.56396500000028,117.82031300000017,110.0,175.51269500000035,100.0,53.974121000000196,97.56396500000028
274,83.58984400000008,50.12841800000024,89.74365200000011,257.6923829999996,104.74365200000011,111.2822270000006,102.69238299999961,101.41015599999992,117.82031300000017,108.58984400000008,173.84619099999964,100.38476599999922,46.2822270000006,92.94873000000007
275,87.82031300000017,55.76904300000024,93.3334960000002,260.3847659999992,108.46142599999985,114.48730499999965,107.56396500000028,104.48730499999965,122.69238299999961,111.9228520000006,173.84619099999964,101.15380900000036,45.64111300000059,95.25634799999989
276,93.3334960000002,66.0258789999998,98.3334960000002,268.3334960000002,117.69238299999961,117.30761700000039,112.69238299999961,110.76904300000024,128.3334960000002,117.17968800000017,175.38476599999922,103.20507799999996,50.51269500000035,102.30761700000039
277,97.69238299999961,73.7177729999994,102.69238299999961,277.82031300000017,125.38476599999922,117.17968800000017,116.2822270000006,117.56396500000028,130.6411130000006,120.89746099999957,178.0771479999994,106.79492200000004,56.025878999999804,109.23095699999976
278,98.84619099999964,73.9741210000002,104.61523400000078,282.5639650000003,125.38476599999922,114.23095699999976,116.6665039999998,121.15380900000036,128.20507799999996,122.05126999999993,181.15380900000036,111.15380900000036,57.17968800000017,111.9228520000006
279,96.15380900000036,67.56396500000028,103.84619099999964,279.48730499999965,116.53857400000015,110.38476599999922,113.58984400000008,119.35888699999941,123.84619099999964,121.6665039999998,182.82031300000017,114.48730499999965,52.05126999999993,110.0
280,91.79492200000004,60.12841800000024,101.6665039999998,271.6665039999998,104.23095699999976,108.3334960000002,107.94873000000007,114.10253900000043,121.2822270000006,122.05126999999993,181.9228520000006,115.89746099999957,43.7177729999994,105.76904300000024
281,89.23095699999976,57.69238299999961,99.74365200000011,266.15380900000036,95.89746099999957,109.48730499999965,102.69238299999961,109.74365200000011,122.69238299999961,123.3334960000002,178.58984400000008,115.38476599999922,37.30761700000039,102.30761700000039
282,90.25634799999989,62.17968800000017,99.48730499999965,267.82031300000017,95.89746099999957,112.82031300000017,100.0,109.35888699999941,126.41015599999992,123.84619099999964,174.23095699999976,114.61523400000078,37.43603499999972,101.2822270000006
283,93.46142599999985,69.87158199999976,100.89746099999957,275.0,101.79492200000004,116.53857400000015,100.12841800000024,112.17968800000017,129.23095699999976,121.15380900000036,170.38476599999922,114.61523400000078,43.20507799999996,103.0771479999994
284,97.30761700000039,74.87158199999976,103.3334960000002,282.4360349999997,107.43603499999972,118.46142599999985,101.6665039999998,115.25634799999989,128.84619099999964,115.25634799999989,168.3334960000002,115.12841800000024,50.64111300000059,106.41015599999992
285,101.0258789999998,74.48730499999965,106.53857400000015,285.89746099999957,109.48730499999965,117.94873000000007,103.58984400000008,116.79492200000004,126.15380900000036,109.35888699999941,169.7436520000001,115.64111300000059,55.51269500000035,109.74365200000011
286,104.61523400000078,71.0258789999998,110.25634799999989,285.6411130000006,110.12841800000024,116.41015599999992,105.12841800000024,117.30761700000039,124.35888699999941,108.3334960000002,174.7436520000001,116.2822270000006,56.79492200000004,111.6665039999998
287,107.05126999999993,68.20507799999996,113.20507799999996,284.87158199999976,113.20507799999996,115.51269500000035,106.2822270000006,117.94873000000007,125.38476599999922,113.84619099999964,181.15380900000036,116.53857400000015,56.53857400000015,111.9228520000006
288,106.2822270000006,67.82031300000017,112.69238299999961,284.48730499999965,117.94873000000007,115.76904300000024,106.15380900000036,118.0771479999994,127.17968800000017,121.53857400000015,185.0,115.38476599999922,56.410155999999915,110.51269500000035
289,101.53857400000015,68.58984400000008,107.56396500000028,282.6923829999996,119.23095699999976,116.15380900000036,104.48730499999965,115.76904300000024,125.89746099999957,123.7177729999994,182.3076170000004,111.9228520000006,56.153809000000365,107.43603499999972
290,94.35888699999941,68.0771479999994,100.0,276.9228520000006,112.69238299999961,115.38476599999922,101.6665039999998,110.76904300000024,120.25634799999989,115.76904300000024,172.56396500000028,106.79492200000004,54.35888699999941,101.79492200000004
291,88.20507799999996,65.38476599999922,93.84619099999964,268.20507799999996,99.48730499999965,113.20507799999996,98.58984400000008,104.23095699999976,112.56396500000028,100.51269500000035,159.23095699999976,101.9228520000006,50.38476599999922,94.10253900000043
292,86.2822270000006,61.2822270000006,91.6665039999998,260.51269500000035,86.79492200000004,110.51269500000035,96.9228520000006,98.7177729999994,107.30761700000039,86.2822270000006,147.94873000000007,99.87158199999976,46.153809000000365,86.6665039999998
293,90.12841800000024,58.846190999999635,93.58984400000008,258.9741210000002,82.69238299999961,109.10253900000043,97.17968800000017,96.41015599999992,107.69238299999961,82.05126999999993,144.23095699999976,101.6665039999998,45.51269500000035,83.20507799999996
294,98.3334960000002,61.410155999999915,97.56396500000028,265.51269500000035,90.76904300000024,110.51269500000035,99.10253900000043,98.46142599999985,113.3334960000002,91.41015599999992,149.10253900000043,106.41015599999992,51.153809000000365,85.64111300000059
295,106.41015599999992,68.9741210000002,100.89746099999957,276.6665039999998,106.9228520000006,113.9741210000002,101.2822270000006,103.58984400000008,120.38476599999922,108.9741210000002,158.20507799999996,111.53857400000015,61.2822270000006,92.05126999999993
296,109.87158199999976,77.94873000000007,101.41015599999992,286.0258789999998,121.53857400000015,117.43603499999972,102.05126999999993,108.20507799999996,124.74365200000011,123.9741210000002,164.3588869999994,114.23095699999976,69.48730499999965,98.58984400000008
297,107.94873000000007,83.58984400000008,99.87158199999976,289.10253900000043,127.05126999999993,118.58984400000008,101.53857400000015,110.12841800000024,125.12841800000024,127.43603499999972,163.84619099999964,113.46142599999985,71.15380900000036,102.17968800000017
298,105.38476599999922,85.12841800000024,99.35888699999941,287.3076170000004,122.69238299999961,117.05126999999993,101.9228520000006,109.61523400000078,124.61523400000078,120.25634799999989,159.7436520000001,111.15380900000036,68.46142599999985,103.3334960000002
299,107.94873000000007,84.87158199999976,102.56396500000028,285.6411130000006,114.61523400000078,114.61523400000078,105.89746099999957,110.12841800000024,127.17968800000017,111.79492200000004,159.23095699999976,110.51269500000035,68.7177729999994,105.12841800000024
300,117.17968800000017,85.64111300000059,109.23095699999976,288.0771479999994,109.74365200000011,113.3334960000002,113.46142599999985,113.58984400000008,133.84619099999964,111.6665039999998,166.6665039999998,112.94873000000007,77.17968800000017,109.35888699999941
301,128.20507799999996,87.56396500000028,115.25634799999989,294.10253900000043,111.2822270000006,114.10253900000043,120.51269500000035,119.48730499999965,141.2822270000006,121.15380900000036,179.7436520000001,116.9228520000006,91.41015599999992,115.12841800000024
302,134.61523400000078,88.84619099999964,116.79492200000004,298.9741210000002,116.79492200000004,115.89746099999957,122.56396500000028,124.48730499999965,144.3588869999994,133.20507799999996,190.38476599999922,118.9741210000002,102.69238299999961,119.35888699999941
303,132.82031300000017,87.69238299999961,112.30761700000039,299.23095699999976,120.76904300000024,117.17968800000017,118.46142599999985,125.76904300000024,140.89746099999957,137.82031300000017,191.6665039999998,117.30761700000039,104.10253900000043,118.7177729999994
304,124.48730499999965,84.23095699999976,104.74365200000011,294.6152340000008,118.58984400000008,117.17968800000017,111.15380900000036,122.69238299999961,132.94873000000007,130.76904300000024,182.43603499999972,113.20507799999996,95.38476599999922,112.30761700000039
305,114.74365200000011,79.74365200000011,98.58984400000008,288.20507799999996,111.15380900000036,115.76904300000024,105.12841800000024,117.43603499999972,125.51269500000035,116.41015599999992,168.20507799999996,109.35888699999941,82.94873000000007,103.20507799999996
306,108.7177729999994,76.2822270000006,96.79492200000004,283.0771479999994,103.0771479999994,114.35888699999941,103.58984400000008,112.94873000000007,122.94873000000007,105.12841800000024,157.17968800000017,108.20507799999996,75.25634799999989,96.79492200000004
307,109.48730499999965,75.76904300000024,99.23095699999976,281.0258789999998,99.23095699999976,114.35888699999941,106.6665039999998,111.9228520000006,125.64111300000059,104.61523400000078,155.0,109.87158199999976,76.53857400000015,96.79492200000004
308,116.15380900000036,77.94873000000007,103.3334960000002,281.4101559999999,100.51269500000035,115.51269500000035,111.9228520000006,114.10253900000043,130.76904300000024,114.23095699999976,160.76904300000024,112.69238299999961,83.7177729999994,102.17968800000017
309,124.74365200000011,80.89746099999957,106.9228520000006,283.20507799999996,104.87158199999976,116.79492200000004,116.0258789999998,117.30761700000039,134.48730499999965,126.2822270000006,168.84619099999964,114.35888699999941,89.74365200000011,108.3334960000002
310,130.89746099999957,82.94873000000007,109.61523400000078,286.0258789999998,110.12841800000024,116.9228520000006,116.79492200000004,118.9741210000002,134.7436520000001,132.56396500000028,173.46142599999985,114.23095699999976,89.87158199999976,112.17968800000017
311,132.3076170000004,84.48730499999965,112.30761700000039,289.87158199999976,115.12841800000024,116.0258789999998,114.48730499999965,118.9741210000002,132.6923829999996,131.0258789999998,173.58984400000008,113.3334960000002,85.64111300000059,114.35888699999941
312,130.2563479999999,86.79492200000004,115.12841800000024,293.7177729999994,118.58984400000008,115.12841800000024,110.89746099999957,118.58984400000008,130.6411130000006,125.76904300000024,171.53857400000015,113.3334960000002,82.56396500000028,117.43603499999972
313,126.79492200000004,89.61523400000078,116.6665039999998,294.7436520000001,119.23095699999976,114.61523400000078,107.43603499999972,118.84619099999964,129.48730499999965,121.15380900000036,169.87158199999976,113.9741210000002,83.9741210000002,121.0258789999998
314,122.82031300000017,89.87158199999976,114.48730499999965,291.15380900000036,115.76904300000024,114.48730499999965,104.23095699999976,118.46142599999985,127.69238299999961,117.56396500000028,167.94873000000007,113.58984400000008,87.05126999999993,121.9228520000006
315,117.82031300000017,85.25634799999989,108.0771479999994,282.82031300000017,108.58984400000008,114.10253900000043,101.2822270000006,115.12841800000024,123.3334960000002,111.79492200000004,164.10253900000043,110.76904300000024,86.41015599999992,117.43603499999972
316,112.69238299999961,77.05126999999993,100.51269500000035,273.46142599999985,101.15380900000036,113.3334960000002,98.9741210000002,108.9741210000002,116.9228520000006,101.79492200000004,158.20507799999996,106.2822270000006,80.12841800000024,108.84619099999964
317,110.38476599999922,70.12841800000024,96.79492200000004,268.3334960000002,97.30761700000039,112.82031300000017,98.20507799999996,103.20507799999996,111.6665039999998,90.64111300000059,153.7177729999994,102.94873000000007,72.17968800000017,101.53857400000015
318,112.69238299999961,69.23095699999976,99.61523400000078,270.0,98.9741210000002,113.0771479999994,98.9741210000002,100.89746099999957,110.64111300000059,84.48730499999965,153.20507799999996,103.58984400000008,68.20507799999996,100.0
319,117.82031300000017,74.61523400000078,106.53857400000015,276.4101559999999,103.3334960000002,113.84619099999964,100.64111300000059,102.82031300000017,113.46142599999985,87.17968800000017,155.76904300000024,107.94873000000007,70.64111300000059,104.87158199999976
320,122.05126999999993,81.9228520000006,112.69238299999961,282.17968800000017,106.0258789999998,114.61523400000078,101.9228520000006,107.05126999999993,116.79492200000004,97.43603499999972,158.58984400000008,113.58984400000008,76.9228520000006,112.43603499999972
321,123.58984400000008,86.6665039999998,115.64111300000059,284.23095699999976,105.25634799999989,114.74365200000011,102.43603499999972,111.53857400000015,118.58984400000008,110.12841800000024,160.2563479999999,117.30761700000039,82.82031300000017,118.0771479999994
322,123.46142599999985,87.69238299999961,116.0258789999998,282.6923829999996,103.3334960000002,114.48730499999965,103.0771479999994,115.25634799999989,118.84619099999964,120.12841800000024,161.53857400000015,118.3334960000002,86.0258789999998,119.61523400000078
323,123.20507799999996,86.53857400000015,115.25634799999989,280.51269500000035,103.0771479999994,114.23095699999976,104.10253900000043,117.30761700000039,119.10253900000043,124.23095699999976,163.0771479999994,117.05126999999993,86.53857400000015,117.82031300000017
324,122.69238299999961,85.0,113.9741210000002,279.6152340000008,104.61523400000078,113.9741210000002,105.0,116.2822270000006,119.74365200000011,122.17968800000017,163.46142599999985,115.12841800000024,85.12841800000024,114.61523400000078
325,121.53857400000015,84.23095699999976,111.79492200000004,279.7436520000001,106.2822270000006,114.23095699999976,104.35888699999941,112.05126999999993,119.87158199999976,116.0258789999998,160.76904300000024,113.84619099999964,82.82031300000017,112.05126999999993
326,120.0,84.61523400000078,109.61523400000078,280.2563479999999,106.79492200000004,114.87158199999976,102.17968800000017,106.6665039999998,119.10253900000043,110.0,155.38476599999922,114.35888699999941,81.15380900000036,112.05126999999993
327,119.48730499999965,86.53857400000015,108.20507799999996,281.15380900000036,106.6665039999998,115.38476599999922,100.51269500000035,103.20507799999996,117.94873000000007,106.9228520000006,150.51269500000035,116.15380900000036,81.53857400000015,114.48730499999965
328,119.74365200000011,88.58984400000008,108.3334960000002,282.4360349999997,107.17968800000017,115.12841800000024,100.76904300000024,103.46142599999985,117.05126999999993,106.2822270000006,148.46142599999985,117.69238299999961,83.58984400000008,117.82031300000017
329,119.23095699999976,88.7177729999994,108.9741210000002,283.7177729999994,109.23095699999976,114.23095699999976,102.30761700000039,106.2822270000006,116.15380900000036,105.12841800000024,148.7177729999994,117.05126999999993,85.25634799999989,119.23095699999976
330,116.53857400000015,86.41015599999992,108.7177729999994,283.84619099999964,111.79492200000004,113.3334960000002,103.0771479999994,108.58984400000008,114.48730499999965,101.79492200000004,149.10253900000043,113.3334960000002,85.12841800000024,117.17968800000017
331,112.43603499999972,83.7177729999994,106.79492200000004,281.9228520000006,112.43603499999972,113.3334960000002,102.30761700000039,107.82031300000017,112.56396500000028,97.43603499999972,147.56396500000028,108.20507799999996,83.46142599999985,112.43603499999972
332,108.58984400000008,83.20507799999996,103.7177729999994,278.20507799999996,109.48730499999965,114.23095699999976,100.89746099999957,104.10253900000043,112.17968800000017,94.87158199999976,144.48730499999965,103.84619099999964,81.9228520000006,107.82031300000017
333,106.79492200000004,85.64111300000059,100.64111300000059,274.3588869999994,104.87158199999976,115.0,101.2822270000006,100.25634799999989,114.48730499999965,95.64111300000059,141.53857400000015,101.79492200000004,81.53857400000015,105.76904300000024
334,108.46142599999985,90.12841800000024,98.84619099999964,272.94873000000007,102.82031300000017,114.87158199999976,104.61523400000078,100.0,119.10253900000043,100.25634799999989,140.6411130000006,102.43603499999972,83.0771479999994,108.0771479999994
335,113.20507799999996,95.64111300000059,99.23095699999976,275.51269500000035,106.2822270000006,113.84619099999964,110.38476599999922,105.38476599999922,123.58984400000008,107.94873000000007,143.0771479999994,104.61523400000078,86.41015599999992,113.7177729999994
336,118.84619099999964,100.25634799999989,100.89746099999957,280.2563479999999,113.58984400000008,113.0771479999994,115.64111300000059,114.10253900000043,125.25634799999989,116.6665039999998,146.53857400000015,106.41015599999992,89.87158199999976,118.7177729999994
337,121.6665039999998,102.56396500000028,101.41015599999992,283.46142599999985,118.9741210000002,113.46142599999985,116.6665039999998,120.25634799999989,123.46142599999985,122.30761700000039,147.05126999999993,106.15380900000036,90.51269500000035,119.10253900000043
338,119.61523400000078,102.30761700000039,99.23095699999976,282.6923829999996,117.82031300000017,115.0,112.05126999999993,119.35888699999941,119.74365200000011,121.15380900000036,142.3076170000004,103.46142599999985,86.9228520000006,113.46142599999985
339,114.10253900000043,101.2822270000006,95.64111300000059,279.10253900000043,109.87158199999976,116.53857400000015,104.61523400000078,112.05126999999993,117.17968800000017,114.10253900000043,134.87158199999976,100.12841800000024,81.0258789999998,105.51269500000035
340,110.0,101.2822270000006,93.9741210000002,276.53857400000015,100.51269500000035,117.05126999999993,99.35888699999941,104.35888699999941,118.58984400000008,106.2822270000006,130.0,98.58984400000008,77.30761700000039,100.25634799999989
341,110.38476599999922,102.17968800000017,95.76904300000024,277.3076170000004,95.64111300000059,116.53857400000015,99.35888699999941,101.6665039999998,122.94873000000007,102.56396500000028,130.76904300000024,99.87158199999976,78.84619099999964,100.38476599999922
342,113.7177729999994,101.2822270000006,98.84619099999964,279.6152340000008,96.9228520000006,116.15380900000036,102.82031300000017,104.87158199999976,125.89746099999957,103.46142599999985,134.3588869999994,102.69238299999961,83.3334960000002,103.3334960000002
343,115.64111300000059,97.17968800000017,99.35888699999941,279.6152340000008,101.2822270000006,116.41015599999992,105.38476599999922,110.38476599999922,123.84619099999964,105.38476599999922,135.76904300000024,104.10253900000043,86.41015599999992,105.0
344,113.7177729999994,91.6665039999998,96.9228520000006,276.15380900000036,105.0,117.17968800000017,104.35888699999941,114.23095699999976,117.69238299999961,106.0258789999998,133.3334960000002,102.56396500000028,85.64111300000059,103.9741210000002
345,110.0,89.10253900000043,95.38476599999922,272.3076170000004,107.05126999999993,117.30761700000039,101.79492200000004,115.38476599999922,113.46142599999985,107.56396500000028,131.0258789999998,100.12841800000024,83.84619099999964,103.20507799999996
346,109.74365200000011,92.94873000000007,98.7177729999994,272.5639650000003,109.10253900000043,116.15380900000036,102.17968800000017,115.64111300000059,116.2822270000006,113.3334960000002,134.10253900000043,99.61523400000078,85.38476599999922,106.0258789999998
347,114.74365200000011,101.79492200000004,106.79492200000004,278.0771479999994,112.30761700000039,114.10253900000043,107.43603499999972,117.05126999999993,126.15380900000036,123.0771479999994,143.0771479999994,102.43603499999972,92.05126999999993,112.56396500000028
348,122.17968800000017,109.61523400000078,115.0,285.0,115.64111300000059,111.79492200000004,114.74365200000011,119.74365200000011,136.79492200000004,131.53857400000015,152.3076170000004,106.6665039999998,100.25634799999989,118.7177729999994
349,126.53857400000015,110.64111300000059,118.58984400000008,287.4360349999997,116.41015599999992,110.0,118.7177729999994,121.79492200000004,140.76904300000024,132.94873000000007,154.7436520000001,109.35888699999941,103.84619099999964,120.25634799999989
350,124.35888699999941,103.58984400000008,115.12841800000024,283.0771479999994,112.69238299999961,109.35888699999941,116.53857400000015,121.0258789999998,135.51269500000035,125.89746099999957,147.82031300000017,108.9741210000002,99.10253900000043,115.64111300000059
351,117.05126999999993,92.43603499999972,107.05126999999993,273.84619099999964,104.35888699999941,109.61523400000078,109.74365200000011,117.05126999999993,124.87158199999976,114.74365200000011,135.12841800000024,106.2822270000006,87.43603499999972,107.43603499999972
352,108.58984400000008,83.20507799999996,99.10253900000043,264.6152340000008,94.10253900000043,110.12841800000024,102.05126999999993,110.64111300000059,115.12841800000024,105.25634799999989,123.7177729999994,102.82031300000017,74.61523400000078,100.38476599999922
353,103.46142599999985,79.35888699999941,95.38476599999922,259.6152340000008,85.64111300000059,110.25634799999989,96.79492200000004,104.10253900000043,110.89746099999957,100.25634799999989,119.35888699999941,100.89746099999957,66.9228520000006,98.20507799999996
354,103.7177729999994,80.51269500000035,97.43603499999972,260.12841800000024,82.56396500000028,110.89746099999957,95.76904300000024,99.87158199999976,112.05126999999993,99.35888699999941,123.58984400000008,101.9228520000006,67.43603499999972,101.0258789999998
355,108.3334960000002,83.7177729999994,103.20507799999996,264.3588869999994,85.89746099999957,113.0771479999994,99.23095699999976,99.74365200000011,115.25634799999989,100.25634799999989,132.43603499999972,105.76904300000024,74.61523400000078,106.53857400000015
356,113.9741210000002,86.0258789999998,108.20507799999996,268.20507799999996,93.7177729999994,116.41015599999992,105.25634799999989,103.46142599999985,117.30761700000039,100.25634799999989,140.2563479999999,110.12841800000024,83.3334960000002,110.89746099999957
357,117.17968800000017,86.41015599999992,109.61523400000078,268.84619099999964,101.53857400000015,118.20507799999996,110.76904300000024,108.84619099999964,117.05126999999993,98.20507799999996,142.94873000000007,112.17968800000017,88.46142599999985,111.79492200000004
358,116.15380900000036,86.15380900000036,107.05126999999993,265.6411130000006,104.74365200000011,116.53857400000015,113.3334960000002,113.3334960000002,115.38476599999922,95.0,140.0,111.2822270000006,87.69238299999961,109.48730499999965
359,111.9228520000006,86.53857400000015,103.46142599999985,260.51269500000035,102.43603499999972,111.9228520000006,112.43603499999972,115.64111300000059,114.23095699999976,93.46142599999985,134.7436520000001,108.9741210000002,82.94873000000007,106.15380900000036
360,107.05126999999993,87.94873000000007,101.6665039999998,255.76904300000024,97.82031300000017,107.43603499999972,110.0,115.51269500000035,114.35888699999941,95.89746099999957,131.53857400000015,107.94873000000007,78.58984400000008,103.84619099999964
361,104.61523400000078,88.9741210000002,103.0771479999994,253.3334960000002,96.79492200000004,106.0258789999998,108.46142599999985,114.35888699999941,115.51269500000035,101.53857400000015,132.43603499999972,109.48730499999965,77.56396500000028,103.84619099999964
362,105.89746099999957,88.58984400000008,106.53857400000015,253.84619099999964,101.9228520000006,108.7177729999994,109.23095699999976,114.35888699999941,116.79492200000004,107.43603499999972,136.15380900000036,112.43603499999972,79.87158199999976,105.89746099999957
363,109.87158199999976,87.05126999999993,109.35888699999941,256.9228520000006,110.89746099999957,113.58984400000008,112.30761700000039,116.15380900000036,118.20507799999996,110.89746099999957,139.10253900000043,114.10253900000043,83.46142599999985,108.3334960000002
364,113.9741210000002,85.51269500000035,109.74365200000011,261.6665039999998,117.43603499999972,117.43603499999972,115.76904300000024,118.7177729999994,119.48730499999965,111.2822270000006,138.0771479999994,112.56396500000028,85.38476599999922,108.9741210000002
365,115.89746099999957,85.38476599999922,107.17968800000017,266.15380900000036,116.15380900000036,118.20507799999996,117.05126999999993,119.10253900000043,120.25634799999989,108.7177729999994,131.9228520000006,107.82031300000017,83.7177729999994,106.6665039999998
366,115.51269500000035,86.6665039999998,103.20507799999996,268.84619099999964,107.43603499999972,116.6665039999998,115.12841800000024,115.89746099999957,119.35888699999941,103.3334960000002,123.58984400000008,102.17968800000017,78.84619099999964,102.56396500000028
367,115.0,88.58984400000008,100.89746099999957,268.9741210000002,97.69238299999961,114.61523400000078,111.9228520000006,110.64111300000059,116.79492200000004,96.53857400000015,117.43603499999972,99.48730499999965,73.0771479999994,99.74365200000011
368,116.0258789999998,90.38476599999922,102.82031300000017,267.4360349999997,94.61523400000078,113.7177729999994,110.64111300000059,107.05126999999993,114.48730499999965,92.30761700000039,116.15380900000036,102.17968800000017,69.74365200000011,101.2822270000006
369,118.46142599999985,90.51269500000035,107.69238299999961,265.2563479999999,100.76904300000024,114.48730499999965,112.82031300000017,107.56396500000028,114.35888699999941,93.58984400000008,118.20507799999996,108.7177729999994,69.48730499999965,106.15380900000036
370,119.87158199999976,88.0771479999994,111.15380900000036,263.0771479999994,111.2822270000006,116.2822270000006,116.6665039999998,111.2822270000006,115.64111300000059,98.9741210000002,119.35888699999941,114.10253900000043,70.25634799999989,109.48730499999965
371,117.82031300000017,83.84619099999964,109.48730499999965,260.89746099999957,118.9741210000002,117.43603499999972,118.0771479999994,114.61523400000078,116.2822270000006,102.94873000000007,116.2822270000006,114.10253900000043,69.48730499999965,107.05126999999993
372,112.94873000000007,80.89746099999957,103.7177729999994,259.10253900000043,119.23095699999976,116.9228520000006,115.89746099999957,115.12841800000024,114.87158199999976,100.38476599999922,109.74365200000011,108.9741210000002,67.94873000000007,99.74365200000011
373,108.84619099999964,82.05126999999993,98.84619099999964,258.5898440000001,113.58984400000008,115.0,113.0771479999994,114.10253900000043,112.56396500000028,91.6665039999998,104.87158199999976,103.3334960000002,68.58984400000008,93.7177729999994
374,109.23095699999976,87.69238299999961,99.10253900000043,259.6152340000008,107.05126999999993,113.3334960000002,113.3334960000002,113.84619099999964,111.6665039999998,82.94873000000007,105.76904300000024,101.6665039999998,72.94873000000007,94.74365200000011
375,114.61523400000078,94.23095699999976,103.58984400000008,260.76904300000024,103.20507799999996,113.20507799999996,116.79492200000004,115.12841800000024,112.69238299999961,80.38476599999922,111.9228520000006,104.74365200000011,78.9741210000002,102.56396500000028
376,121.0258789999998,96.9228520000006,107.69238299999961,260.3847659999992,102.82031300000017,114.35888699999941,119.35888699999941,116.15380900000036,113.7177729999994,86.15380900000036,118.3334960000002,108.84619099999964,82.17968800000017,111.6665039999998
377,123.3334960000002,93.7177729999994,106.79492200000004,258.0771479999994,104.10253900000043,115.38476599999922,117.43603499999972,114.48730499999965,113.20507799999996,96.6665039999998,120.25634799999989,110.12841800000024,80.25634799999989,115.51269500000035
378,119.87158199999976,87.43603499999972,101.15380900000036,255.89746099999957,105.25634799999989,115.76904300000024,112.05126999999993,110.12841800000024,110.64111300000059,105.89746099999957,117.30761700000039,107.69238299999961,75.64111300000059,111.9228520000006
379,113.58984400000008,82.82031300000017,95.0,255.6411130000006,105.64111300000059,116.0258789999998,106.79492200000004,105.12841800000024,107.05126999999993,108.3334960000002,113.0771479999994,103.84619099999964,72.56396500000028,104.48730499999965
380,109.61523400000078,82.56396500000028,92.82031300000017,257.4360349999997,105.12841800000024,116.2822270000006,104.87158199999976,101.53857400000015,103.9741210000002,101.79492200000004,111.53857400000015,101.2822270000006,73.84619099999964,98.7177729999994
381,110.38476599999922,85.38476599999922,95.25634799999989,259.10253900000043,103.46142599999985,116.2822270000006,106.41015599999992,100.38476599999922,102.05126999999993,89.74365200000011,113.9741210000002,100.89746099999957,78.7177729999994,97.82031300000017
382,114.48730499999965,88.0771479999994,99.61523400000078,259.23095699999976,101.2822270000006,115.51269500000035,109.61523400000078,101.2822270000006,101.41015599999992,79.10253900000043,117.94873000000007,102.17968800000017,83.84619099999964,100.51269500000035
383,118.0771479999994,88.7177729999994,102.43603499999972,258.5898440000001,100.25634799999989,114.35888699999941,112.30761700000039,103.20507799999996,102.05126999999993,76.53857400000015,120.12841800000024,104.35888699999941,86.15380900000036,103.20507799999996
