,EEG.AF3,EEG.F7,EEG.F3,EEG.FC5,EEG.T7,EEG.P7,EEG.O1,EEG.O2,EEG.P8,EEG.T8,EEG.FC6,EEG.F4,EEG.F8,EEG.AF4
0,84.23095699999976,109.23095699999976,91.15380900000036,72.94873000000007,83.3334960000002,107.69238299999961,100.12841800000024,81.6665039999998,79.61523400000078,71.2822270000006,77.69238299999961,73.7177729999994,81.15380900000036,83.84619099999964
1,86.15380900000036,111.6665039999998,96.6665039999998,77.94873000000007,86.41015599999992,107.05126999999993,104.87158199999976,85.25634799999989,83.7177729999994,75.12841800000024,80.51269500000035,77.56396500000028,83.7177729999994,86.15380900000036
2,97.94873000000007,123.7177729999994,110.64111300000059,95.0,100.76904300000024,110.38476599999922,115.64111300000059,97.05126999999993,95.89746099999957,89.74365200000011,92.94873000000007,86.0258789999998,99.23095699999976,101.6665039999998
3,112.17968800000017,136.0258789999998,125.12841800000024,113.3334960000002,116.6665039999998,115.0,125.76904300000024,110.38476599999922,109.48730499999965,106.2822270000006,107.56396500000028,95.25634799999989,117.05126999999993,120.0
4,121.41015599999992,141.41015599999992,132.43603499999972,122.94873000000007,125.25634799999989,117.43603499999972,129.7436520000001,118.20507799999996,117.94873000000007,117.05126999999993,117.30761700000039,101.2822270000006,126.9228520000006,131.0258789999998
5,122.56396500000028,139.10253900000043,131.0258789999998,122.43603499999972,124.74365200000011,116.41015599999992,127.82031300000017,118.9741210000002,119.74365200000011,120.12841800000024,120.25634799999989,102.43603499999972,126.53857400000015,131.53857400000015
6,118.0771479999994,133.7177729999994,124.74365200000011,117.69238299999961,119.10253900000043,114.23095699999976,123.9741210000002,115.64111300000059,117.94873000000007,118.20507799999996,118.20507799999996,100.25634799999989,121.0258789999998,125.0
7,111.9228520000006,129.48730499999965,119.35888699999941,115.0,113.7177729999994,113.58984400000008,122.05126999999993,112.56396500000028,116.41015599999992,114.74365200000011,114.23095699999976,97.17968800000017,116.6665039999998,117.82031300000017
8,107.43603499999972,128.20507799999996,117.56396500000028,116.2822270000006,110.25634799999989,115.25634799999989,122.69238299999961,111.2822270000006,115.76904300000024,110.25634799999989,109.48730499999965,94.48730499999965,116.0258789999998,113.9741210000002
9,105.12841800000024,127.82031300000017,117.82031300000017,118.0771479999994,106.9228520000006,117.17968800000017,123.0771479999994,110.51269500000035,114.35888699999941,104.10253900000043,104.10253900000043,92.17968800000017,116.53857400000015,113.20507799999996
10,103.3334960000002,125.76904300000024,117.05126999999993,116.41015599999992,102.05126999999993,116.9228520000006,120.38476599999922,107.94873000000007,110.0,96.6665039999998,98.3334960000002,90.25634799999989,115.0,112.82031300000017
11,101.2822270000006,120.76904300000024,113.9741210000002,110.89746099999957,97.30761700000039,114.23095699999976,115.12841800000024,102.94873000000007,103.20507799999996,91.15380900000036,93.84619099999964,89.74365200000011,110.64111300000059,111.15380900000036
12,99.74365200000011,114.35888699999941,110.12841800000024,104.87158199999976,96.2822270000006,110.51269500000035,110.38476599999922,97.43603499999972,96.9228520000006,90.25634799999989,93.20507799999996,91.15380900000036,106.15380900000036,108.84619099999964
13,100.12841800000024,110.12841800000024,107.69238299999961,103.0771479999994,101.41015599999992,108.3334960000002,109.61523400000078,94.74365200000011,94.87158199999976,94.48730499999965,96.6665039999998,94.10253900000043,105.12841800000024,108.46142599999985
14,102.82031300000017,111.0258789999998,108.20507799999996,106.9228520000006,110.25634799999989,109.10253900000043,112.94873000000007,96.15380900000036,97.94873000000007,101.0258789999998,101.9228520000006,96.9228520000006,108.9741210000002,111.15380900000036
15,106.53857400000015,116.79492200000004,110.76904300000024,113.58984400000008,116.79492200000004,112.30761700000039,117.17968800000017,99.74365200000011,102.82031300000017,105.51269500000035,105.38476599999922,97.82031300000017,115.38476599999922,115.12841800000024
16,108.58984400000008,123.7177729999994,113.3334960000002,117.69238299999961,116.41015599999992,115.89746099999957,118.58984400000008,101.6665039999998,104.87158199999976,105.12841800000024,104.61523400000078,95.64111300000059,120.12841800000024,116.9228520000006
17,108.20507799999996,126.53857400000015,113.7177729999994,116.15380900000036,109.61523400000078,117.69238299999961,116.6665039999998,100.64111300000059,103.3334960000002,101.15380900000036,100.89746099999957,92.05126999999993,121.0258789999998,115.12841800000024
18,106.53857400000015,123.0771479999994,112.30761700000039,111.15380900000036,101.41015599999992,116.79492200000004,114.10253900000043,98.84619099999964,101.15380900000036,98.20507799999996,98.0771479999994,90.51269500000035,119.35888699999941,112.43603499999972
19,106.53857400000015,115.0,111.2822270000006,107.94873000000007,96.6665039999998,114.23095699999976,113.58984400000008,99.48730499999965,102.05126999999993,99.87158199999976,98.84619099999964,93.20507799999996,118.7177729999994,112.43603499999972
20,108.9741210000002,107.17968800000017,112.82031300000017,110.76904300000024,96.53857400000015,111.53857400000015,115.38476599999922,103.46142599999985,106.15380900000036,105.76904300000024,102.69238299999961,98.7177729999994,120.76904300000024,116.41015599999992
21,112.69238299999961,105.0,116.15380900000036,120.25634799999989,99.35888699999941,109.35888699999941,117.56396500000028,108.3334960000002,110.51269500000035,111.6665039999998,105.51269500000035,102.82031300000017,125.25634799999989,121.79492200000004
22,116.53857400000015,111.53857400000015,119.48730499999965,132.56396500000028,102.30761700000039,107.56396500000028,117.94873000000007,110.25634799999989,111.53857400000015,113.0771479999994,104.23095699999976,103.0771479999994,129.87158199999976,126.2822270000006
23,120.89746099999957,126.6665039999998,122.17968800000017,144.10253900000043,104.48730499999965,105.76904300000024,116.9228520000006,108.46142599999985,108.84619099999964,109.61523400000078,99.61523400000078,100.38476599999922,132.82031300000017,130.38476599999922
24,126.79492200000004,146.6665039999998,124.48730499999965,153.46142599999985,106.53857400000015,104.87158199999976,116.0258789999998,105.64111300000059,105.0,104.48730499999965,95.0,98.20507799999996,133.84619099999964,136.41015599999992
25,134.61523400000078,166.41015599999992,126.0258789999998,161.15380900000036,108.7177729999994,105.12841800000024,116.41015599999992,103.7177729999994,102.30761700000039,101.0258789999998,92.94873000000007,98.58984400000008,132.6923829999996,145.2563479999999
26,142.56396500000028,181.15380900000036,126.15380900000036,168.84619099999964,110.0,105.89746099999957,116.9228520000006,101.79492200000004,100.25634799999989,99.35888699999941,91.9228520000006,100.12841800000024,129.23095699999976,154.48730499999965
27,148.0771479999994,190.0,124.10253900000043,176.79492200000004,108.7177729999994,106.6665039999998,115.51269500000035,97.17968800000017,95.64111300000059,96.2822270000006,87.56396500000028,100.25634799999989,122.69238299999961,160.0
28,150.12841800000024,196.41015599999992,120.51269500000035,184.61523400000078,105.12841800000024,106.79492200000004,111.2822270000006,88.9741210000002,86.41015599999992,88.84619099999964,76.79492200000004,97.43603499999972,112.69238299999961,159.7436520000001
29,150.12841800000024,205.12841800000024,116.9228520000006,191.9228520000006,101.53857400000015,106.9228520000006,105.25634799999989,79.74365200000011,74.35888699999941,77.43603499999972,60.64111300000059,92.69238299999961,100.64111300000059,155.89746099999957
30,151.6665039999998,219.23095699999976,115.89746099999957,199.61523400000078,101.53857400000015,107.17968800000017,100.38476599999922,73.46142599999985,64.87158199999976,65.51269500000035,45.0,89.10253900000043,89.35888699999941,153.0771479999994
31,157.56396500000028,237.6923829999996,118.9741210000002,208.84619099999964,106.0258789999998,107.30761700000039,99.23095699999976,72.56396500000028,62.56396500000028,57.82031300000017,35.897460999999566,88.9741210000002,81.15380900000036,155.2563479999999
32,167.82031300000017,257.82031300000017,125.64111300000059,220.38476599999922,112.82031300000017,106.79492200000004,102.30761700000039,76.9228520000006,68.46142599999985,57.30761700000039,35.51269500000035,92.17968800000017,77.43603499999972,163.0771479999994
33,178.7177729999994,277.17968800000017,133.0771479999994,233.46142599999985,118.20507799999996,105.25634799999989,107.17968800000017,84.23095699999976,78.46142599999985,62.56396500000028,40.51269500000035,96.2822270000006,76.9228520000006,173.9741210000002
34,186.15380900000036,294.7436520000001,137.56396500000028,245.89746099999957,119.87158199999976,103.58984400000008,110.51269500000035,90.89746099999957,86.41015599999992,68.9741210000002,44.74365200000011,98.3334960000002,76.2822270000006,183.0771479999994
35,188.84619099999964,309.6152340000008,137.56396500000028,254.3588869999994,118.58984400000008,103.3334960000002,110.0,93.46142599999985,87.30761700000039,70.76904300000024,42.56396500000028,96.79492200000004,71.41015599999992,186.9228520000006
36,187.6923829999996,321.53857400000015,133.3334960000002,257.17968800000017,116.15380900000036,104.61523400000078,105.38476599999922,90.38476599999922,79.87158199999976,64.74365200000011,32.94873000000007,92.43603499999972,59.87158199999976,184.23095699999976
37,184.7436520000001,331.53857400000015,126.79492200000004,255.38476599999922,114.48730499999965,105.89746099999957,98.20507799999996,82.17968800000017,66.2822270000006,51.9228520000006,18.717772999999397,87.43603499999972,42.43603499999972,177.17968800000017
38,181.41015599999992,340.89746099999957,120.38476599999922,251.2822270000006,114.35888699999941,105.89746099999957,90.64111300000059,70.89746099999957,51.025878999999804,35.897460999999566,4.871581999999762,83.58984400000008,22.43603499999972,168.84619099999964
39,178.58984400000008,350.89746099999957,115.76904300000024,247.94873000000007,116.15380900000036,104.61523400000078,85.0,59.48730499999965,38.7177729999994,20.897460999999566,-5.641113000000132,81.41015599999992,3.4614259999998467,161.2822270000006
40,177.6923829999996,361.79492200000004,114.10253900000043,247.82031300000017,120.0,102.82031300000017,82.82031300000017,51.9228520000006,32.82031300000017,10.128418000000238,-12.692382999999609,80.51269500000035,-11.153809000000365,156.0258789999998
41,180.12841800000024,373.7177729999994,115.12841800000024,251.6665039999998,125.12841800000024,101.6665039999998,84.48730499999965,50.51269500000035,32.94873000000007,5.769043000000238,-18.076904000000013,80.0,-20.38452099999995,153.84619099999964
42,185.38476599999922,386.53857400000015,117.94873000000007,258.7177729999994,129.48730499999965,101.53857400000015,88.84619099999964,53.846190999999635,36.025878999999804,7.179688000000169,-22.564209000000574,79.48730499999965,-25.512939000000188,155.6411130000006
43,191.79492200000004,398.9741210000002,121.9228520000006,266.6665039999998,130.38476599999922,102.43603499999972,93.0771479999994,56.53857400000015,37.43603499999972,11.794922000000042,-25.769286999999622,79.10253900000043,-29.74365200000011,160.12841800000024
44,196.53857400000015,409.10253900000043,126.0258789999998,273.3334960000002,127.43603499999972,103.58984400000008,94.48730499999965,54.48730499999965,35.51269500000035,16.666503999999804,-26.923095999999987,79.61523400000078,-35.89746100000002,164.10253900000043
45,197.94873000000007,416.2822270000006,129.7436520000001,277.3076170000004,122.43603499999972,103.7177729999994,92.17968800000017,48.333496000000196,32.69238299999961,20.0,-25.89746100000002,81.41015599999992,-44.35888699999987,164.87158199999976
46,196.41015599999992,421.9228520000006,132.3076170000004,278.9741210000002,117.94873000000007,102.69238299999961,87.94873000000007,42.82031300000017,32.30761700000039,21.666503999999804,-24.10253899999998,83.7177729999994,-53.20507799999996,161.2822270000006
47,193.3334960000002,428.20507799999996,133.0771479999994,279.7436520000001,115.25634799999989,101.15380900000036,84.10253900000043,42.43603499999972,35.12841800000024,21.922852000000603,-24.230713000000378,85.25634799999989,-60.51293900000019,155.51269500000035
48,190.12841800000024,436.79492200000004,131.9228520000006,281.2822270000006,114.61523400000078,100.12841800000024,82.69238299999961,46.025878999999804,37.56396500000028,20.51269500000035,-28.333252000000357,84.61523400000078,-66.53857400000015,150.38476599999922
49,188.20507799999996,446.79492200000004,129.61523400000078,284.48730499999965,115.76904300000024,100.51269500000035,83.46142599999985,48.846190999999635,35.64111300000059,17.05126999999993,-36.66674799999964,82.30761700000039,-72.69238299999961,147.43603499999972
50,187.3076170000004,456.2822270000006,127.05126999999993,289.23095699999976,118.84619099999964,102.05126999999993,84.87158199999976,47.17968800000017,29.230956999999762,12.051269999999931,-46.53857400000015,78.9741210000002,-80.25634799999989,146.6665039999998
51,187.3076170000004,463.9741210000002,125.38476599999922,294.3588869999994,123.7177729999994,104.23095699999976,85.38476599999922,42.69238299999961,22.43603499999972,7.43603499999972,-53.71801800000003,76.15380900000036,-88.46142599999985,146.9228520000006
52,188.20507799999996,470.51269500000035,125.51269500000035,298.7177729999994,129.87158199999976,106.41015599999992,84.74365200000011,40.25634799999989,20.897460999999566,5.769043000000238,-55.64111300000013,75.38476599999922,-94.8718259999996,148.0771479999994
53,190.2563479999999,477.5639650000003,127.56396500000028,301.79492200000004,136.15380900000036,107.94873000000007,84.35888699999941,42.69238299999961,26.025878999999804,7.43603499999972,-52.435790999999426,77.17968800000017,-98.07690400000001,149.61523400000078
54,193.20507799999996,485.2563479999999,131.41015599999992,303.46142599999985,141.15380900000036,108.58984400000008,85.51269500000035,48.333496000000196,33.7177729999994,10.512695000000349,-47.564209000000574,80.64111300000059,-98.58984399999963,150.89746099999957
55,195.76904300000024,492.4360349999997,135.2563479999999,303.46142599999985,143.20507799999996,108.20507799999996,87.82031300000017,52.05126999999993,37.94873000000007,11.794922000000042,-45.0,83.20507799999996,-98.84619099999964,150.38476599999922
56,196.15380900000036,497.05126999999993,137.43603499999972,301.6665039999998,141.6665039999998,106.79492200000004,89.61523400000078,50.76904300000024,35.38476599999922,9.230956999999762,-46.66674799999964,83.46142599999985,-101.53857400000015,147.94873000000007
57,193.46142599999985,499.10253900000043,136.15380900000036,297.5639650000003,137.05126999999993,105.25634799999989,88.58984400000008,44.74365200000011,27.82031300000017,3.846190999999635,-51.66674799999964,81.53857400000015,-107.56420900000057,144.10253900000043
58,187.82031300000017,499.23095699999976,131.2822270000006,290.89746099999957,131.53857400000015,104.74365200000011,84.35888699999941,36.9228520000006,19.74365200000011,-2.5639650000002803,-57.564209000000574,78.46142599999985,-116.15380900000036,139.61523400000078
59,180.51269500000035,498.3334960000002,124.23095699999976,282.3076170000004,127.43603499999972,104.74365200000011,78.46142599999985,30.128418000000238,14.230956999999762,-8.333252000000357,-62.30761700000039,75.38476599999922,-126.02563499999997,134.48730499999965
60,173.46142599999985,497.3076170000004,117.82031300000017,273.7177729999994,126.15380900000036,104.10253900000043,74.10253900000043,25.897460999999566,11.282227000000603,-13.205077999999958,-65.38452099999995,73.20507799999996,-135.1281740000004,129.7436520000001
61,168.46142599999985,497.3076170000004,114.48730499999965,267.3076170000004,127.82031300000017,103.20507799999996,73.9741210000002,24.102539000000434,9.102539000000434,-16.923095999999987,-66.53857400000015,73.0771479999994,-141.28198199999997,126.79492200000004
62,165.89746099999957,498.46142599999985,115.12841800000024,263.7177729999994,131.53857400000015,104.10253900000043,78.20507799999996,24.358886999999413,7.43603499999972,-19.487060999999812,-65.76928699999962,75.12841800000024,-143.20507799999996,126.15380900000036
63,165.6411130000006,500.0,117.94873000000007,261.4101559999999,135.0,107.69238299999961,84.35888699999941,26.538574000000153,8.205077999999958,-19.8718259999996,-63.58984399999963,77.30761700000039,-141.15380900000036,126.2822270000006
64,166.2822270000006,500.76904300000024,119.87158199999976,258.20507799999996,136.2822270000006,112.05126999999993,88.9741210000002,31.153809000000365,13.077147999999397,-17.564209000000574,-60.64111300000013,77.43603499999972,-136.02563499999997,125.12841800000024
65,166.53857400000015,500.89746099999957,119.61523400000078,253.46142599999985,135.0,114.10253900000043,89.87158199999976,37.56396500000028,21.153809000000365,-11.794922000000042,-57.69238299999961,75.38476599999922,-130.0,122.82031300000017
66,165.51269500000035,502.17968800000017,117.56396500000028,247.94873000000007,132.94873000000007,112.43603499999972,87.56396500000028,43.974121000000196,29.74365200000011,-3.2050779999999577,-54.74365200000011,73.20507799999996,-125.38452099999995,121.53857400000015
67,163.84619099999964,505.2563479999999,115.51269500000035,243.3334960000002,132.6923829999996,108.7177729999994,84.61523400000078,48.46142599999985,36.153809000000365,6.025878999999804,-51.28198199999997,73.20507799999996,-124.10253899999998,122.56396500000028
68,162.6923829999996,508.84619099999964,114.61523400000078,240.76904300000024,135.6411130000006,105.51269500000035,83.0771479999994,50.51269500000035,39.74365200000011,13.717772999999397,-45.89746100000002,75.64111300000059,-125.1281740000004,125.51269500000035
69,163.20507799999996,511.2822270000006,114.87158199999976,240.0,140.12841800000024,105.12841800000024,83.84619099999964,51.153809000000365,41.53857400000015,18.589844000000085,-38.33325200000036,78.9741210000002,-125.89746100000002,128.3334960000002
70,164.61523400000078,511.4101559999999,115.25634799999989,239.61523400000078,142.82031300000017,108.3334960000002,85.89746099999957,51.025878999999804,42.30761700000039,19.74365200000011,-29.8718259999996,81.2822270000006,-124.23071300000038,128.9741210000002
71,165.12841800000024,509.10253900000043,114.74365200000011,237.56396500000028,140.38476599999922,113.0771479999994,87.56396500000028,49.35888699999941,41.2822270000006,16.666503999999804,-23.846190999999635,81.2822270000006,-122.17944299999999,126.53857400000015
72,163.0771479999994,504.48730499999965,112.69238299999961,232.82031300000017,133.58984400000008,116.53857400000015,87.56396500000028,45.64111300000059,37.30761700000039,9.871581999999762,-22.69238299999961,78.58984400000008,-123.20507799999996,121.6665039999998
73,158.84619099999964,498.9741210000002,109.74365200000011,225.89746099999957,126.9228520000006,116.53857400000015,86.53857400000015,41.79492200000004,31.282227000000603,2.1796880000001693,-26.28198199999997,75.0,-128.97436500000003,115.76904300000024
74,154.23095699999976,494.6152340000008,107.30761700000039,219.23095699999976,125.64111300000059,113.3334960000002,86.0258789999998,41.153809000000365,26.538574000000153,-2.3076170000003913,-31.153809000000365,72.30761700000039,-136.66674799999964,110.51269500000035
75,150.89746099999957,491.9228520000006,106.41015599999992,214.61523400000078,129.87158199999976,109.23095699999976,86.2822270000006,44.74365200000011,25.641113000000587,-1.9228520000006029,-33.58984399999963,72.17968800000017,-141.41015600000037,106.79492200000004
76,148.20507799999996,489.3588869999994,105.89746099999957,210.76904300000024,134.48730499999965,106.41015599999992,85.38476599999922,50.0,28.846190999999635,1.153809000000365,-32.30761700000039,73.7177729999994,-141.28198199999997,104.74365200000011
77,145.38476599999922,485.2563479999999,104.48730499999965,205.12841800000024,134.10253900000043,105.76904300000024,82.56396500000028,53.20507799999996,33.589844000000085,3.4614259999998467,-28.205077999999958,75.38476599999922,-137.9487299999996,103.46142599999985
78,142.82031300000017,480.51269500000035,102.43603499999972,196.6665039999998,128.0771479999994,107.30761700000039,79.48730499999965,53.974121000000196,38.0771479999994,4.230956999999762,-22.69238299999961,76.53857400000015,-133.84619099999964,103.0771479999994
79,143.20507799999996,478.5898440000001,102.56396500000028,188.20507799999996,122.69238299999961,110.25634799999989,79.61523400000078,55.51269500000035,43.46142599999985,7.051269999999931,-16.025634999999966,77.69238299999961,-128.71801800000003,105.64111300000059
80,148.0771479999994,482.4360349999997,107.05126999999993,183.7177729999994,124.74365200000011,113.3334960000002,85.25634799999989,60.897460999999566,50.76904300000024,15.256347999999889,-7.435790999999426,79.74365200000011,-120.89746100000002,112.56396500000028
81,155.6411130000006,491.0258789999998,113.7177729999994,184.23095699999976,135.76904300000024,115.0,94.35888699999941,68.9741210000002,58.974121000000196,26.666503999999804,2.1796880000001693,82.30761700000039,-110.51293900000019,121.41015599999992
82,161.0258789999998,497.94873000000007,117.43603499999972,186.41015599999992,148.84619099999964,114.35888699999941,101.79492200000004,74.35888699999941,63.7177729999994,33.589844000000085,9.230956999999762,83.46142599999985,-101.79492200000004,126.15380900000036
83,159.48730499999965,496.0258789999998,114.10253900000043,185.2563479999999,154.61523400000078,111.79492200000004,102.82031300000017,72.30761700000039,60.51269500000035,29.102539000000434,9.871581999999762,82.05126999999993,-100.0,121.9228520000006
84,150.76904300000024,484.10253900000043,105.0,178.3334960000002,148.9741210000002,109.10253900000043,96.9228520000006,63.333496000000196,48.974121000000196,13.589844000000085,2.9487300000000687,78.46142599999985,-107.43579099999943,110.12841800000024
85,139.10253900000043,468.0771479999994,95.25634799999989,167.17968800000017,137.3076170000004,107.94873000000007,88.0771479999994,52.82031300000017,34.35888699999941,-4.230713000000378,-7.564209000000574,75.12841800000024,-120.1281740000004,97.05126999999993
86,130.6411130000006,456.4101559999999,90.76904300000024,154.87158199999976,128.7177729999994,108.9741210000002,81.79492200000004,47.43603499999972,24.871581999999762,-14.358886999999868,-14.61547900000005,74.23095699999976,-131.41015600000037,89.48730499999965
87,129.10253900000043,452.94873000000007,93.0771479999994,144.23095699999976,129.61523400000078,111.15380900000036,81.53857400000015,49.61523400000078,26.282227000000603,-11.794922000000042,-12.307617000000391,76.0258789999998,-135.1281740000004,89.74365200000011
88,133.0771479999994,455.2563479999999,98.7177729999994,135.38476599999922,139.10253900000043,112.43603499999972,86.15380900000036,56.666503999999804,37.56396500000028,0.256347999999889,-0.8974609999995664,77.94873000000007,-129.8718259999996,94.87158199999976
89,136.6665039999998,457.17968800000017,102.05126999999993,127.43603499999972,149.48730499999965,112.05126999999993,90.51269500000035,62.56396500000028,51.79492200000004,12.43603499999972,12.56396500000028,77.30761700000039,-121.02563499999997,98.3334960000002
90,133.3334960000002,452.94873000000007,99.35888699999941,118.46142599999985,152.43603499999972,110.38476599999922,90.0,62.94873000000007,60.76904300000024,17.05126999999993,18.846190999999635,72.94873000000007,-116.53857400000015,95.25634799999989
91,122.30761700000039,441.2822270000006,91.41015599999992,107.43603499999972,144.61523400000078,109.23095699999976,85.25634799999989,58.333496000000196,60.12841800000024,12.051269999999931,14.230956999999762,66.2822270000006,-120.51293900000019,84.87158199999976
92,108.9741210000002,427.17968800000017,83.3334960000002,95.89746099999957,131.2822270000006,109.48730499999965,80.76904300000024,52.94873000000007,52.43603499999972,2.6923829999996087,4.358886999999413,60.76904300000024,-129.61547900000005,72.17968800000017
93,100.76904300000024,417.5639650000003,80.25634799999989,86.53857400000015,122.30761700000039,111.6665039999998,81.53857400000015,50.897460999999566,43.7177729999994,-4.358886999999868,-0.256347999999889,59.61523400000078,-135.5129390000002,64.10253900000043
94,100.89746099999957,415.6411130000006,83.20507799999996,80.76904300000024,124.10253900000043,114.87158199999976,87.43603499999972,53.20507799999996,38.7177729999994,-6.666747999999643,6.282227000000603,63.20507799999996,-132.56420900000057,63.974121000000196
95,106.2822270000006,417.17968800000017,87.94873000000007,76.2822270000006,134.48730499999965,117.05126999999993,93.3334960000002,56.666503999999804,37.56396500000028,-7.179442999999992,21.538574000000153,67.94873000000007,-121.92309599999999,69.35888699999941
96,110.76904300000024,414.10253900000043,88.7177729999994,68.7177729999994,145.6411130000006,116.41015599999992,93.7177729999994,57.17968800000017,36.666503999999804,-10.0,36.2822270000006,68.9741210000002,-109.23071300000038,74.61523400000078
97,110.25634799999989,402.05126999999993,83.3334960000002,56.410155999999915,150.6411130000006,112.82031300000017,87.56396500000028,53.846190999999635,33.0771479999994,-15.38452099999995,43.333496000000196,65.38476599999922,-99.35888699999987,75.12841800000024
98,104.35888699999941,383.84619099999964,74.48730499999965,42.30761700000039,147.94873000000007,108.46142599999985,79.35888699999941,49.23095699999976,28.333496000000196,-19.230713000000378,42.30761700000039,60.12841800000024,-92.82055700000001,71.41015599999992
99,96.2822270000006,365.76904300000024,67.82031300000017,31.025878999999804,140.51269500000035,106.6665039999998,74.61523400000078,47.43603499999972,26.538574000000153,-17.69238299999961,38.46142599999985,58.0771479999994,-88.07690400000001,67.43603499999972
100,89.61523400000078,352.05126999999993,66.6665039999998,24.74365200000011,132.56396500000028,108.7177729999994,76.0258789999998,50.12841800000024,30.641113000000587,-10.769286999999622,38.20507799999996,60.897460999999566,-83.33325200000036,66.53857400000015
101,86.53857400000015,342.3076170000004,69.87158199999976,21.410155999999915,126.15380900000036,113.20507799999996,82.30761700000039,56.153809000000365,39.61523400000078,-1.5385740000001533,43.589844000000085,66.0258789999998,-77.17944299999999,68.7177729999994
102,87.43603499999972,332.94873000000007,74.35888699999941,17.82031300000017,121.6665039999998,117.17968800000017,89.74365200000011,62.17968800000017,49.48730499999965,7.820313000000169,52.69238299999961,69.74365200000011,-68.33325200000036,72.30761700000039
103,91.41015599999992,321.2822270000006,78.0771479999994,12.82031300000017,118.84619099999964,117.82031300000017,95.0,66.0258789999998,56.025878999999804,17.17968800000017,61.53857400000015,70.25634799999989,-56.153809000000365,76.15380900000036
104,96.6665039999998,307.82031300000017,81.15380900000036,8.205077999999958,117.43603499999972,114.74365200000011,97.05126999999993,67.43603499999972,57.94873000000007,26.538574000000153,68.0771479999994,68.7177729999994,-41.53857400000015,80.64111300000059
105,101.79492200000004,294.7436520000001,84.61523400000078,7.051269999999931,117.43603499999972,109.48730499999965,97.43603499999972,67.43603499999972,57.43603499999972,34.61523400000078,72.56396500000028,68.3334960000002,-26.794922000000042,86.15380900000036
106,105.38476599999922,284.6152340000008,88.58984400000008,10.384765999999217,118.3334960000002,105.51269500000035,97.94873000000007,67.43603499999972,57.69238299999961,40.12841800000024,77.17968800000017,70.64111300000059,-14.61547900000005,92.30761700000039
107,106.41015599999992,277.4360349999997,92.43603499999972,16.666503999999804,119.35888699999941,105.76904300000024,99.74365200000011,68.3334960000002,60.51269500000035,42.30761700000039,82.17968800000017,75.51269500000035,-6.923095999999987,97.43603499999972
108,105.0,270.6411130000006,95.0,21.666503999999804,119.87158199999976,110.12841800000024,101.79492200000004,70.0,65.12841800000024,41.9228520000006,85.89746099999957,80.38476599999922,-4.230713000000378,99.87158199999976
109,101.9228520000006,261.6665039999998,95.89746099999957,21.666503999999804,119.87158199999976,115.76904300000024,102.56396500000028,72.17968800000017,69.23095699999976,40.897460999999566,86.79492200000004,83.0771479999994,-4.102538999999979,99.61523400000078
110,99.10253900000043,249.48730499999965,95.12841800000024,16.025878999999804,119.10253900000043,119.10253900000043,101.41015599999992,74.87158199999976,71.6665039999998,41.2822270000006,85.89746099999957,82.94873000000007,-2.5639650000002803,98.20507799999996
111,98.3334960000002,236.0258789999998,93.46142599999985,7.948730000000069,117.69238299999961,118.7177729999994,99.48730499999965,77.94873000000007,72.43603499999972,44.48730499999965,86.2822270000006,81.41015599999992,4.230956999999762,97.69238299999961
112,99.74365200000011,224.23095699999976,91.79492200000004,2.1796880000001693,115.89746099999957,115.64111300000059,98.3334960000002,80.76904300000024,73.0771479999994,50.12841800000024,89.74365200000011,80.38476599999922,16.538574000000153,98.9741210000002
113,101.53857400000015,216.15380900000036,90.89746099999957,1.153809000000365,113.7177729999994,111.79492200000004,98.58984400000008,83.0771479999994,75.12841800000024,56.666503999999804,95.12841800000024,80.76904300000024,30.128418000000238,101.2822270000006
114,101.79492200000004,211.2822270000006,89.87158199999976,3.5898440000000846,111.2822270000006,109.10253900000043,100.0,84.74365200000011,79.35888699999941,62.82031300000017,99.87158199999976,81.9228520000006,39.74365200000011,103.0771479999994
115,100.25634799999989,207.56396500000028,88.20507799999996,6.410155999999915,110.0,108.58984400000008,101.6665039999998,86.2822270000006,84.87158199999976,68.0771479999994,102.56396500000028,82.30761700000039,42.56396500000028,103.46142599999985
116,97.43603499999972,204.10253900000043,86.53857400000015,7.56396500000028,111.79492200000004,110.38476599999922,102.69238299999961,87.30761700000039,88.58984400000008,71.53857400000015,103.3334960000002,81.53857400000015,40.12841800000024,102.94873000000007
117,94.35888699999941,200.76904300000024,85.76904300000024,7.692382999999609,118.0771479999994,113.84619099999964,102.30761700000039,87.30761700000039,87.56396500000028,72.30761700000039,103.3334960000002,80.76904300000024,36.79492200000004,102.43603499999972
118,92.30761700000039,197.94873000000007,86.41015599999992,7.820313000000169,127.05126999999993,116.9228520000006,101.0258789999998,86.0258789999998,81.79492200000004,70.12841800000024,102.69238299999961,80.89746099999957,36.666503999999804,102.69238299999961
119,91.41015599999992,194.7436520000001,87.82031300000017,8.077147999999397,134.61523400000078,117.82031300000017,100.12841800000024,83.84619099999964,74.61523400000078,66.2822270000006,100.76904300000024,81.2822270000006,39.87158199999976,102.94873000000007
120,90.64111300000059,189.87158199999976,87.94873000000007,6.922852000000603,136.6665039999998,115.76904300000024,100.12841800000024,81.41015599999992,69.23095699999976,62.56396500000028,96.6665039999998,80.64111300000059,42.82031300000017,101.2822270000006
121,88.0771479999994,182.17968800000017,84.74365200000011,2.8203130000001693,131.79492200000004,111.9228520000006,100.89746099999957,79.87158199999976,67.94873000000007,60.76904300000024,90.51269500000035,78.3334960000002,40.897460999999566,95.76904300000024
122,82.43603499999972,172.82031300000017,78.0771479999994,-3.717772999999397,122.82031300000017,108.3334960000002,101.6665039999998,79.87158199999976,70.76904300000024,61.666503999999804,84.74365200000011,75.12841800000024,33.333496000000196,87.56396500000028
123,75.38476599999922,164.48730499999965,70.25634799999989,-9.743652000000111,115.38476599999922,106.41015599999992,102.30761700000039,83.0771479999994,77.05126999999993,64.48730499999965,81.41015599999992,72.30761700000039,24.230956999999762,80.0
124,70.25634799999989,160.0,65.0,-12.179442999999992,114.23095699999976,107.05126999999993,104.35888699999941,89.74365200000011,85.12841800000024,67.69238299999961,81.2822270000006,71.0258789999998,19.615234000000783,76.41015599999992
125,69.23095699999976,160.12841800000024,64.35888699999941,-10.769286999999622,119.48730499999965,109.48730499999965,108.9741210000002,97.82031300000017,92.82031300000017,69.87158199999976,83.0771479999994,71.53857400000015,22.43603499999972,77.69238299999961
126,71.53857400000015,162.94873000000007,66.79492200000004,-7.948729999999614,127.43603499999972,112.82031300000017,115.51269500000035,103.7177729999994,97.82031300000017,71.0258789999998,83.84619099999964,73.3334960000002,30.0,81.2822270000006
127,73.46142599999985,163.84619099999964,68.9741210000002,-7.179442999999992,133.46142599999985,115.12841800000024,120.38476599999922,103.9741210000002,98.46142599999985,71.41015599999992,81.9228520000006,75.38476599999922,36.025878999999804,83.46142599999985
128,71.9228520000006,159.23095699999976,68.58984400000008,-10.0,135.12841800000024,115.38476599999922,120.12841800000024,98.7177729999994,94.48730499999965,70.76904300000024,76.9228520000006,76.41015599999992,35.25634799999989,81.41015599999992
129,67.05126999999993,149.61523400000078,66.15380900000036,-14.61547900000005,133.46142599999985,113.58984400000008,115.0,91.15380900000036,87.82031300000017,68.7177729999994,71.41015599999992,76.2822270000006,27.94873000000007,75.64111300000059
130,62.43603499999972,138.9741210000002,64.23095699999976,-17.69238299999961,131.0258789999998,110.76904300000024,108.58984400000008,86.0258789999998,81.79492200000004,66.79492200000004,68.3334960000002,75.51269500000035,19.871581999999762,69.61523400000078
131,61.410155999999915,132.3076170000004,64.61523400000078,-16.538574000000153,129.7436520000001,107.56396500000028,105.0,86.2822270000006,79.23095699999976,66.79492200000004,68.58984400000008,75.12841800000024,16.282227000000603,67.05126999999993
132,64.23095699999976,130.89746099999957,66.79492200000004,-11.794922000000042,128.58984400000008,104.10253900000043,105.76904300000024,91.15380900000036,80.89746099999957,69.74365200000011,70.51269500000035,75.89746099999957,17.94873000000007,69.10253900000043
133,67.82031300000017,131.9228520000006,68.84619099999964,-6.538574000000153,125.25634799999989,100.89746099999957,109.35888699999941,97.69238299999961,85.89746099999957,74.74365200000011,71.15380900000036,78.0771479999994,21.282227000000603,74.23095699999976
134,69.61523400000078,132.05126999999993,69.35888699999941,-3.2050779999999577,119.23095699999976,99.48730499999965,113.7177729999994,103.0771479999994,92.69238299999961,80.12841800000024,69.10253900000043,80.76904300000024,22.94873000000007,79.48730499999965
135,70.64111300000059,130.12841800000024,69.35888699999941,-1.153809000000365,112.82031300000017,100.89746099999957,117.43603499999972,106.79492200000004,99.23095699999976,84.74365200000011,66.15380900000036,83.20507799999996,23.077147999999397,83.46142599999985
136,73.58984400000008,127.05126999999993,70.89746099999957,1.2822270000006029,110.25634799999989,104.10253900000043,120.25634799999989,110.12841800000024,104.61523400000078,87.82031300000017,64.61523400000078,85.64111300000059,24.230956999999762,86.41015599999992
137,79.23095699999976,124.10253900000043,75.0,4.487304999999651,113.46142599999985,107.56396500000028,122.82031300000017,113.58984400000008,107.82031300000017,88.9741210000002,65.51269500000035,87.94873000000007,27.94873000000007,88.7177729999994
138,84.87158199999976,121.41015599999992,79.74365200000011,7.307617000000391,120.38476599999922,109.74365200000011,124.35888699999941,116.6665039999998,108.3334960000002,88.58984400000008,67.69238299999961,89.61523400000078,32.69238299999961,90.12841800000024
139,86.9228520000006,117.82031300000017,82.17968800000017,8.205077999999958,126.15380900000036,110.38476599999922,123.9741210000002,118.0771479999994,106.53857400000015,87.56396500000028,68.58984400000008,89.48730499999965,34.87158199999976,89.61523400000078
140,83.9741210000002,112.43603499999972,80.51269500000035,7.43603499999972,126.2822270000006,109.74365200000011,121.79492200000004,117.56396500000028,103.9741210000002,86.9228520000006,67.17968800000017,88.3334960000002,32.30761700000039,86.79492200000004
141,78.46142599999985,106.0258789999998,75.76904300000024,7.179688000000169,119.61523400000078,108.58984400000008,118.9741210000002,116.15380900000036,102.94873000000007,87.82031300000017,63.589844000000085,87.43603499999972,26.410155999999915,83.3334960000002
142,74.61523400000078,100.38476599999922,70.64111300000059,9.102539000000434,109.35888699999941,107.43603499999972,117.94873000000007,115.76904300000024,104.23095699999976,89.74365200000011,59.87158199999976,87.82031300000017,21.153809000000365,81.6665039999998
143,75.0,97.43603499999972,67.82031300000017,13.333496000000196,100.51269500000035,106.79492200000004,118.9741210000002,116.79492200000004,106.0258789999998,90.89746099999957,57.30761700000039,88.46142599999985,19.74365200000011,82.69238299999961
144,79.10253900000043,96.79492200000004,68.58984400000008,17.43603499999972,96.9228520000006,107.05126999999993,120.64111300000059,117.82031300000017,105.76904300000024,89.74365200000011,55.897460999999566,88.46142599999985,21.922852000000603,84.87158199999976
145,83.46142599999985,96.6665039999998,72.05126999999993,18.717772999999397,99.23095699999976,108.46142599999985,120.76904300000024,117.56396500000028,103.0771479999994,87.05126999999993,55.0,87.82031300000017,25.128418000000238,85.89746099999957
146,85.0,96.15380900000036,76.0258789999998,16.282227000000603,105.51269500000035,110.76904300000024,118.9741210000002,116.2822270000006,100.64111300000059,85.12841800000024,54.102539000000434,87.05126999999993,28.077147999999397,84.87158199999976
147,83.20507799999996,96.0258789999998,78.3334960000002,12.17968800000017,111.9228520000006,113.3334960000002,117.30761700000039,116.15380900000036,101.41015599999992,86.53857400000015,53.46142599999985,86.15380900000036,31.666503999999804,82.94873000000007
148,80.89746099999957,98.46142599999985,78.20507799999996,9.358886999999413,116.2822270000006,114.87158199999976,118.58984400000008,118.7177729999994,106.41015599999992,91.15380900000036,53.7177729999994,85.0,37.43603499999972,82.05126999999993
149,81.0258789999998,103.9741210000002,76.15380900000036,9.487304999999651,118.20507799999996,115.0,123.46142599999985,123.20507799999996,112.69238299999961,97.05126999999993,55.0,83.84619099999964,45.38476599999922,83.46142599999985
150,84.35888699999941,110.25634799999989,73.9741210000002,11.922852000000603,119.48730499999965,114.35888699999941,129.10253900000043,126.79492200000004,116.41015599999992,101.6665039999998,56.9228520000006,83.7177729999994,53.846190999999635,86.79492200000004
151,87.69238299999961,113.84619099999964,73.3334960000002,13.846190999999635,121.0258789999998,113.58984400000008,131.41015599999992,126.0258789999998,115.0,103.3334960000002,58.20507799999996,84.87158199999976,60.0,90.25634799999989
152,87.56396500000028,112.69238299999961,73.7177729999994,13.077147999999397,121.15380900000036,113.0771479999994,128.58984400000008,120.64111300000059,108.9741210000002,101.6665039999998,58.20507799999996,86.15380900000036,62.17968800000017,91.0258789999998
153,82.94873000000007,107.56396500000028,73.46142599999985,9.102539000000434,118.3334960000002,112.82031300000017,122.69238299999961,113.46142599999985,102.05126999999993,97.94873000000007,56.79492200000004,86.15380900000036,61.025878999999804,88.20507799999996
154,76.9228520000006,101.6665039999998,71.41015599999992,3.5898440000000846,112.56396500000028,112.56396500000028,117.43603499999972,108.3334960000002,98.46142599999985,94.87158199999976,55.38476599999922,84.61523400000078,59.102539000000434,83.3334960000002
155,72.94873000000007,98.58984400000008,67.43603499999972,-1.0258789999998044,106.79492200000004,111.79492200000004,115.25634799999989,107.56396500000028,99.35888699999941,95.0,54.61523400000078,82.05126999999993,58.46142599999985,78.7177729999994
156,73.0771479999994,100.0,62.69238299999961,-3.077147999999397,104.10253900000043,110.25634799999989,115.89746099999957,109.74365200000011,102.56396500000028,98.20507799999996,54.48730499999965,79.10253900000043,59.102539000000434,76.41015599999992
157,76.79492200000004,104.23095699999976,59.48730499999965,-2.9487300000000687,105.76904300000024,108.9741210000002,117.69238299999961,111.2822270000006,104.74365200000011,101.6665039999998,54.35888699999941,76.41015599999992,59.48730499999965,76.79492200000004
158,81.9228520000006,108.20507799999996,59.23095699999976,-1.4101559999999154,110.89746099999957,109.74365200000011,118.84619099999964,109.87158199999976,104.10253900000043,102.17968800000017,54.102539000000434,75.12841800000024,58.46142599999985,78.84619099999964
159,86.15380900000036,109.23095699999976,62.43603499999972,1.0258789999998044,116.41015599999992,112.43603499999972,118.46142599999985,105.51269500000035,101.79492200000004,98.9741210000002,53.974121000000196,76.53857400000015,56.2822270000006,81.0258789999998
160,88.20507799999996,107.43603499999972,67.30761700000039,3.9741210000001956,119.48730499999965,115.0,117.30761700000039,100.76904300000024,99.74365200000011,94.10253900000043,54.35888699999941,80.25634799999989,54.35888699999941,82.30761700000039
161,87.82031300000017,104.74365200000011,70.89746099999957,6.794922000000042,119.61523400000078,116.0258789999998,116.15380900000036,98.58984400000008,99.48730499999965,91.0258789999998,55.25634799999989,83.84619099999964,54.87158199999976,82.69238299999961
162,86.2822270000006,103.46142599999985,71.0258789999998,7.692382999999609,117.94873000000007,115.89746099999957,115.64111300000059,100.38476599999922,100.76904300000024,91.53857400000015,56.025878999999804,85.0,58.46142599999985,82.56396500000028
163,84.35888699999941,103.9741210000002,68.0771479999994,5.0,115.76904300000024,115.38476599999922,115.64111300000059,104.74365200000011,101.79492200000004,94.87158199999976,55.64111300000059,82.82031300000017,63.589844000000085,82.17968800000017
164,82.43603499999972,104.61523400000078,63.974121000000196,-1.4101559999999154,113.0771479999994,114.87158199999976,116.0258789999998,108.58984400000008,101.6665039999998,98.0771479999994,54.102539000000434,78.58984400000008,67.82031300000017,80.89746099999957
165,80.76904300000024,104.23095699999976,61.025878999999804,-8.71801800000003,110.12841800000024,113.9741210000002,117.05126999999993,110.12841800000024,101.41015599999992,99.35888699999941,52.94873000000007,74.61523400000078,70.0,78.9741210000002
166,80.51269500000035,103.7177729999994,60.76904300000024,-12.692382999999609,108.84619099999964,113.3334960000002,119.87158199999976,110.0,103.3334960000002,99.61523400000078,55.12841800000024,73.20507799999996,71.2822270000006,78.46142599999985
167,82.94873000000007,105.0,63.974121000000196,-9.61547900000005,111.41015599999992,113.3334960000002,124.48730499999965,111.9228520000006,109.23095699999976,102.30761700000039,62.30761700000039,76.0258789999998,74.35888699999941,81.41015599999992
168,88.3334960000002,109.35888699999941,69.10253900000043,-0.512695000000349,117.43603499999972,113.9741210000002,130.0,118.0771479999994,118.84619099999964,109.48730499999965,73.0771479999994,81.9228520000006,80.0,87.17968800000017
169,94.23095699999976,115.12841800000024,72.94873000000007,8.974121000000196,123.0771479999994,114.48730499999965,133.7177729999994,127.05126999999993,128.46142599999985,119.10253900000043,82.17968800000017,87.82031300000017,85.89746099999957,92.30761700000039
170,96.2822270000006,118.84619099999964,72.56396500000028,12.56396500000028,123.9741210000002,114.74365200000011,133.7177729999994,133.3334960000002,133.20507799999996,125.51269500000035,84.35888699999941,90.0,88.20507799999996,92.69238299999961
171,92.43603499999972,117.56396500000028,67.43603499999972,7.820313000000169,118.58984400000008,114.61523400000078,129.7436520000001,132.56396500000028,130.38476599999922,123.58984400000008,78.3334960000002,86.6665039999998,84.61523400000078,86.79492200000004
172,85.0,111.53857400000015,60.38476599999922,-1.5385740000001533,110.38476599999922,114.23095699999976,123.7177729999994,125.25634799999989,122.17968800000017,113.0771479999994,67.94873000000007,79.87158199999976,76.53857400000015,77.82031300000017
173,79.48730499999965,104.10253900000043,54.87158199999976,-8.58984399999963,105.76904300000024,114.10253900000043,118.58984400000008,116.41015599999992,114.10253900000043,100.51269500000035,60.51269500000035,73.9741210000002,68.9741210000002,71.9228520000006
174,79.10253900000043,99.74365200000011,53.0771479999994,-8.58984399999963,107.94873000000007,114.35888699999941,116.6665039999998,111.53857400000015,110.89746099999957,93.7177729999994,60.25634799999989,72.94873000000007,66.41015599999992,72.43603499999972
175,82.30761700000039,99.61523400000078,53.846190999999635,-2.3076170000003913,114.48730499999965,115.12841800000024,118.20507799999996,111.79492200000004,112.43603499999972,96.0258789999998,65.25634799999989,76.9228520000006,69.10253900000043,77.94873000000007
176,84.61523400000078,102.05126999999993,54.61523400000078,4.743652000000111,120.0,115.89746099999957,121.53857400000015,115.0,115.0,103.58984400000008,70.12841800000024,82.69238299999961,73.9741210000002,83.7177729999994
177,83.9741210000002,104.10253900000043,54.48730499999965,7.948730000000069,121.41015599999992,116.15380900000036,125.0,118.46142599999985,115.51269500000035,110.0,70.89746099999957,86.0258789999998,77.05126999999993,86.0258789999998
178,82.43603499999972,105.25634799999989,54.87158199999976,7.56396500000028,119.61523400000078,115.89746099999957,127.69238299999961,121.2822270000006,114.74365200000011,112.56396500000028,68.84619099999964,85.89746099999957,77.43603499999972,85.51269500000035
179,83.58984400000008,106.9228520000006,58.589844000000085,6.153809000000365,118.46142599999985,115.38476599999922,130.12841800000024,124.35888699999941,116.2822270000006,113.9741210000002,67.94873000000007,84.23095699999976,77.69238299999961,86.15380900000036
180,88.20507799999996,109.87158199999976,65.64111300000059,6.153809000000365,120.12841800000024,115.12841800000024,132.6923829999996,127.94873000000007,121.79492200000004,117.17968800000017,71.0258789999998,83.58984400000008,80.51269500000035,90.64111300000059
181,94.10253900000043,112.69238299999961,72.56396500000028,7.43603499999972,123.7177729999994,115.12841800000024,135.0,131.0258789999998,128.3334960000002,122.17968800000017,76.6665039999998,84.74365200000011,85.51269500000035,97.94873000000007
182,97.17968800000017,112.82031300000017,75.38476599999922,8.333496000000196,124.87158199999976,115.38476599999922,135.76904300000024,131.41015599999992,130.6411130000006,125.38476599999922,80.64111300000059,86.53857400000015,89.87158199999976,103.7177729999994
183,95.12841800000024,109.48730499999965,72.56396500000028,8.205077999999958,121.0258789999998,115.38476599999922,134.23095699999976,127.30761700000039,125.0,123.20507799999996,80.38476599999922,87.05126999999993,90.76904300000024,104.23095699999976
184,89.74365200000011,105.0,67.05126999999993,8.077147999999397,113.58984400000008,115.0,130.6411130000006,119.48730499999965,112.94873000000007,115.76904300000024,76.79492200000004,86.0258789999998,87.94873000000007,100.12841800000024
185,86.15380900000036,103.3334960000002,63.974121000000196,9.615234000000783,108.7177729999994,114.35888699999941,126.9228520000006,111.41015599999992,101.15380900000036,107.43603499999972,74.87158199999976,84.87158199999976,83.9741210000002,96.41015599999992
186,89.23095699999976,107.05126999999993,67.05126999999993,14.615234000000783,111.2822270000006,114.10253900000043,125.0,107.56396500000028,96.6665039999998,103.58984400000008,78.46142599999985,85.89746099999957,82.69238299999961,98.20507799999996
187,99.48730499999965,115.0,75.76904300000024,22.43603499999972,120.89746099999957,114.23095699999976,126.53857400000015,110.25634799999989,102.05126999999993,107.17968800000017,87.69238299999961,90.12841800000024,85.76904300000024,106.53857400000015
188,112.43603499999972,122.94873000000007,86.0258789999998,30.769043000000238,131.53857400000015,114.87158199999976,130.76904300000024,117.30761700000039,113.46142599999985,116.15380900000036,97.82031300000017,95.76904300000024,91.6665039999998,116.2822270000006
189,121.0258789999998,126.2822270000006,92.17968800000017,36.153809000000365,136.41015599999992,116.15380900000036,135.38476599999922,124.35888699999941,122.94873000000007,124.48730499999965,103.20507799999996,99.35888699999941,95.89746099999957,120.76904300000024
190,120.12841800000024,122.94873000000007,91.0258789999998,36.025878999999804,132.82031300000017,117.56396500000028,137.17968800000017,127.69238299999961,124.87158199999976,126.53857400000015,100.38476599999922,98.20507799999996,95.25634799999989,116.41015599999992
191,109.87158199999976,115.0,83.7177729999994,30.25634799999989,122.43603499999972,118.20507799999996,134.7436520000001,126.53857400000015,118.3334960000002,120.89746099999957,90.89746099999957,92.43603499999972,89.23095699999976,104.87158199999976
192,95.25634799999989,106.15380900000036,74.10253900000043,20.641113000000587,110.25634799999989,116.79492200000004,128.7177729999994,122.17968800000017,108.46142599999985,110.51269500000035,79.23095699999976,85.0,80.0,91.15380900000036
193,83.3334960000002,99.23095699999976,66.9228520000006,10.641113000000587,101.15380900000036,113.84619099999964,121.9228520000006,117.30761700000039,101.15380900000036,101.15380900000036,69.87158199999976,79.74365200000011,70.89746099999957,80.89746099999957
194,78.20507799999996,94.61523400000078,64.61523400000078,4.102539000000434,97.56396500000028,110.51269500000035,117.30761700000039,114.74365200000011,100.12841800000024,97.43603499999972,65.38476599999922,78.7177729999994,64.87158199999976,77.17968800000017
195,79.23095699999976,91.6665039999998,66.0258789999998,2.8203130000001693,98.84619099999964,108.46142599999985,116.2822270000006,115.76904300000024,104.35888699999941,99.48730499999965,65.51269500000035,80.38476599999922,63.333496000000196,79.61523400000078
196,82.56396500000028,89.10253900000043,67.82031300000017,5.512695000000349,102.30761700000039,108.46142599999985,116.9228520000006,118.84619099999964,108.9741210000002,103.46142599999985,67.82031300000017,81.9228520000006,64.74365200000011,84.10253900000043
197,83.7177729999994,87.05126999999993,66.9228520000006,8.589844000000085,105.0,110.51269500000035,116.9228520000006,120.51269500000035,109.61523400000078,105.38476599999922,69.74365200000011,81.79492200000004,66.41015599999992,85.89746099999957
198,81.41015599999992,86.41015599999992,63.846190999999635,10.0,105.89746099999957,113.58984400000008,115.51269500000035,118.46142599999985,105.76904300000024,103.7177729999994,70.51269500000035,81.0258789999998,66.15380900000036,83.58984400000008
199,77.17968800000017,88.7177729999994,61.666503999999804,10.897460999999566,106.9228520000006,115.76904300000024,114.48730499999965,115.12841800000024,101.53857400000015,100.89746099999957,72.17968800000017,82.05126999999993,65.38476599999922,80.38476599999922
200,75.38476599999922,94.48730499999965,64.10253900000043,14.487304999999651,110.25634799999989,115.51269500000035,116.15380900000036,114.74365200000011,101.9228520000006,100.76904300000024,77.17968800000017,85.76904300000024,66.6665039999998,81.0258789999998
201,78.46142599999985,101.41015599999992,71.2822270000006,22.05126999999993,115.51269500000035,113.20507799999996,120.89746099999957,119.61523400000078,108.58984400000008,105.0,85.51269500000035,91.15380900000036,70.64111300000059,86.9228520000006
202,84.87158199999976,105.64111300000059,79.74365200000011,31.153809000000365,119.48730499999965,110.64111300000059,126.79492200000004,126.9228520000006,118.20507799999996,112.30761700000039,93.3334960000002,95.51269500000035,75.38476599999922,94.48730499999965
203,89.48730499999965,103.84619099999964,84.35888699999941,36.666503999999804,119.23095699999976,109.48730499999965,130.6411130000006,131.41015599999992,125.12841800000024,118.58984400000008,96.15380900000036,96.15380900000036,77.69238299999961,98.3334960000002
204,88.7177729999994,96.41015599999992,82.43603499999972,35.51269500000035,114.61523400000078,109.74365200000011,130.89746099999957,130.51269500000035,125.25634799999989,120.89746099999957,93.0771479999994,92.56396500000028,76.2822270000006,95.89746099999957
205,83.58984400000008,87.56396500000028,75.76904300000024,29.230956999999762,108.58984400000008,110.64111300000059,128.58984400000008,125.76904300000024,119.23095699999976,118.7177729999994,87.82031300000017,87.56396500000028,72.56396500000028,90.12841800000024
206,78.46142599999985,82.17968800000017,70.0,22.94873000000007,104.23095699999976,110.89746099999957,126.41015599999992,121.53857400000015,112.05126999999993,114.74365200000011,85.76904300000024,84.61523400000078,70.0,85.89746099999957
207,76.6665039999998,82.56396500000028,69.74365200000011,21.153809000000365,102.30761700000039,110.0,125.89746099999957,120.64111300000059,109.35888699999941,112.30761700000039,89.61523400000078,85.64111300000059,70.51269500000035,86.79492200000004
208,78.0771479999994,86.15380900000036,74.35888699999941,23.717772999999397,101.6665039999998,109.10253900000043,125.76904300000024,123.0771479999994,112.17968800000017,112.94873000000007,97.69238299999961,89.23095699999976,73.20507799999996,91.41015599999992
209,80.12841800000024,88.7177729999994,79.74365200000011,27.43603499999972,101.15380900000036,109.48730499999965,123.46142599999985,126.0258789999998,117.43603499999972,115.64111300000059,105.0,92.56396500000028,75.76904300000024,95.64111300000059
210,81.15380900000036,87.94873000000007,82.05126999999993,28.974121000000196,101.0258789999998,111.53857400000015,118.9741210000002,126.79492200000004,120.38476599999922,118.58984400000008,107.43603499999972,93.58984400000008,76.53857400000015,96.15380900000036
211,81.53857400000015,85.12841800000024,80.76904300000024,28.077147999999397,102.30761700000039,113.9741210000002,115.76904300000024,126.41015599999992,119.61523400000078,120.38476599999922,105.12841800000024,92.30761700000039,76.0258789999998,92.94873000000007
212,82.69238299999961,84.10253900000043,77.69238299999961,27.43603499999972,105.64111300000059,115.76904300000024,117.69238299999961,127.30761700000039,117.94873000000007,121.15380900000036,101.6665039999998,90.89746099999957,76.79492200000004,89.23095699999976
213,84.74365200000011,87.43603499999972,75.76904300000024,28.846190999999635,109.61523400000078,116.2822270000006,124.61523400000078,131.53857400000015,118.58984400000008,121.41015599999992,100.76904300000024,91.0258789999998,79.87158199999976,87.82031300000017
214,85.0,93.9741210000002,75.51269500000035,31.538574000000153,111.9228520000006,115.89746099999957,132.05126999999993,136.9228520000006,122.56396500000028,121.2822270000006,103.46142599999985,92.69238299999961,83.46142599999985,88.3334960000002
215,80.64111300000059,99.35888699999941,74.87158199999976,31.538574000000153,110.25634799999989,115.38476599999922,133.9741210000002,138.46142599999985,127.17968800000017,120.64111300000059,107.17968800000017,93.58984400000008,83.9741210000002,87.69238299999961
216,71.9228520000006,99.74365200000011,71.53857400000015,26.153809000000365,104.61523400000078,115.25634799999989,128.58984400000008,133.20507799999996,128.58984400000008,119.10253900000043,109.35888699999941,91.2822270000006,80.51269500000035,83.9741210000002
217,63.7177729999994,96.15380900000036,66.2822270000006,16.794922000000042,98.20507799999996,115.51269500000035,120.25634799999989,124.10253900000043,125.76904300000024,118.3334960000002,110.64111300000059,87.05126999999993,77.17968800000017,79.74365200000011
218,62.82031300000017,93.9741210000002,63.333496000000196,9.743652000000111,95.89746099999957,116.2822270000006,116.15380900000036,117.94873000000007,121.15380900000036,119.87158199999976,114.61523400000078,84.23095699999976,80.12841800000024,80.76904300000024
219,71.79492200000004,98.9741210000002,66.0258789999998,10.897460999999566,99.74365200000011,116.9228520000006,119.48730499999965,119.74365200000011,118.46142599999985,122.43603499999972,122.17968800000017,85.89746099999957,89.74365200000011,89.35888699999941
220,86.15380900000036,111.41015599999992,72.94873000000007,20.128418000000238,108.0771479999994,116.9228520000006,127.17968800000017,127.17968800000017,118.46142599999985,122.17968800000017,129.3588869999994,91.0258789999998,98.58984400000008,100.76904300000024
221,97.30761700000039,127.05126999999993,80.0,32.30761700000039,116.41015599999992,116.41015599999992,132.56396500000028,133.20507799999996,119.10253900000043,116.2822270000006,131.2822270000006,96.41015599999992,98.3334960000002,107.82031300000017
222,100.25634799999989,140.38476599999922,83.9741210000002,40.76904300000024,120.64111300000059,115.38476599999922,131.41015599999992,132.6923829999996,118.0771479999994,107.05126999999993,128.0771479999994,99.10253900000043,88.7177729999994,107.43603499999972
223,98.3334960000002,149.10253900000043,85.51269500000035,43.20507799999996,120.12841800000024,113.84619099999964,124.74365200000011,125.76904300000024,115.64111300000059,100.12841800000024,126.0258789999998,99.10253900000043,79.87158199999976,104.35888699999941
224,100.12841800000024,154.61523400000078,87.05126999999993,42.05126999999993,117.05126999999993,111.9228520000006,117.43603499999972,117.82031300000017,113.7177729999994,100.0,132.05126999999993,97.94873000000007,83.9741210000002,106.79492200000004
225,111.9228520000006,159.48730499999965,90.89746099999957,41.53857400000015,113.9741210000002,110.64111300000059,113.84619099999964,113.3334960000002,113.7177729999994,106.2822270000006,147.3076170000004,98.0771479999994,105.51269500000035,119.23095699999976
226,131.9228520000006,164.7436520000001,96.53857400000015,43.20507799999996,111.41015599999992,110.89746099999957,114.74365200000011,113.46142599999985,115.38476599999922,114.61523400000078,166.6665039999998,100.64111300000059,137.94873000000007,138.46142599999985
227,151.9228520000006,168.0771479999994,101.41015599999992,45.38476599999922,107.82031300000017,112.56396500000028,117.56396500000028,116.41015599999992,116.79492200000004,120.0,182.94873000000007,104.35888699999941,169.48730499999965,156.6665039999998
228,164.48730499999965,167.56396500000028,103.58984400000008,43.7177729999994,102.43603499999972,114.74365200000011,118.7177729999994,119.23095699999976,116.6665039999998,120.38476599999922,192.82031300000017,107.56396500000028,191.9228520000006,168.46142599999985
229,168.9741210000002,163.3334960000002,103.84619099999964,35.76904300000024,96.53857400000015,116.15380900000036,117.69238299999961,120.64111300000059,116.2822270000006,118.84619099999964,198.58984400000008,109.48730499999965,206.53857400000015,174.3588869999994
230,171.2822270000006,158.20507799999996,105.25634799999989,22.30761700000039,92.43603499999972,116.41015599999992,116.0258789999998,121.79492200000004,118.0771479999994,120.51269500000035,205.89746099999957,110.89746099999957,220.38476599999922,180.2563479999999
231,177.43603499999972,154.7436520000001,110.12841800000024,6.538574000000153,92.30761700000039,115.89746099999957,115.89746099999957,123.58984400000008,122.82031300000017,127.69238299999961,218.3334960000002,112.56396500000028,240.0,190.6411130000006
232,188.20507799999996,152.6923829999996,116.79492200000004,-9.358886999999868,95.38476599999922,115.25634799999989,116.6665039999998,125.38476599999922,128.0771479999994,137.3076170000004,233.84619099999964,114.74365200000011,264.7436520000001,205.12841800000024
233,199.61523400000078,149.61523400000078,121.6665039999998,-24.10253899999998,99.35888699999941,113.9741210000002,116.6665039999998,125.76904300000024,130.12841800000024,144.10253900000043,247.17968800000017,117.43603499999972,288.7177729999994,219.23095699999976
234,207.6923829999996,144.10253900000043,123.0771479999994,-37.564209000000574,102.43603499999972,112.43603499999972,115.76904300000024,125.12841800000024,128.84619099999964,144.87158199999976,254.87158199999976,120.51269500000035,306.79492200000004,228.84619099999964
235,212.43603499999972,137.94873000000007,123.58984400000008,-48.71801800000003,103.84619099999964,111.41015599999992,116.0258789999998,126.53857400000015,128.0771479999994,142.6923829999996,259.3588869999994,124.35888699999941,319.87158199999976,235.2563479999999
236,217.56396500000028,135.0,127.43603499999972,-56.41015600000037,104.87158199999976,112.17968800000017,118.84619099999964,132.17968800000017,132.43603499999972,143.58984400000008,266.0258789999998,129.23095699999976,333.84619099999964,243.0771479999994
237,225.6411130000006,136.2822270000006,136.0258789999998,-61.79492200000004,105.89746099999957,114.61523400000078,122.69238299999961,140.12841800000024,141.9228520000006,151.15380900000036,277.82031300000017,134.10253900000043,352.94873000000007,255.0
238,234.61523400000078,137.6923829999996,145.2563479999999,-68.84619099999964,105.51269500000035,117.05126999999993,123.0771479999994,144.61523400000078,151.2822270000006,161.9228520000006,290.3847659999992,136.6665039999998,373.5898440000001,268.0771479999994
239,239.23095699999976,131.53857400000015,148.7177729999994,-81.53857400000015,101.2822270000006,116.6665039999998,117.94873000000007,140.89746099999957,152.94873000000007,167.82031300000017,296.2822270000006,135.89746099999957,387.6923829999996,275.12841800000024
240,236.15380900000036,114.61523400000078,143.84619099999964,-100.0,92.69238299999961,112.30761700000039,109.23095699999976,130.12841800000024,144.7436520000001,163.84619099999964,292.17968800000017,132.6923829999996,390.89746099999957,272.4360349999997
241,228.58984400000008,92.43603499999972,134.87158199999976,-119.10253899999998,83.46142599999985,106.53857400000015,101.9228520000006,119.10253900000043,131.6665039999998,152.6923829999996,283.0771479999994,130.12841800000024,388.20507799999996,263.7177729999994
242,223.46142599999985,75.12841800000024,129.3588869999994,-132.43579099999943,78.7177729999994,103.20507799999996,100.51269500000035,114.74365200000011,122.82031300000017,142.56396500000028,278.3334960000002,130.76904300000024,389.6152340000008,257.94873000000007
243,225.89746099999957,68.0771479999994,132.17968800000017,-136.66674799999964,81.2822270000006,105.0,105.76904300000024,119.10253900000043,124.10253900000043,140.6411130000006,283.7177729999994,134.48730499999965,400.76904300000024,260.76904300000024
244,234.10253900000043,68.9741210000002,141.41015599999992,-134.7436520000001,89.10253900000043,110.51269500000035,114.61523400000078,128.3334960000002,133.58984400000008,147.56396500000028,296.53857400000015,138.3334960000002,418.0771479999994,270.51269500000035
245,242.17968800000017,70.0,150.76904300000024,-132.9487299999996,96.79492200000004,116.2822270000006,122.30761700000039,136.41015599999992,144.3588869999994,158.7177729999994,309.23095699999976,139.7436520000001,433.5898440000001,280.12841800000024
246,245.51269500000035,65.25634799999989,155.2563479999999,-135.89746100000002,99.23095699999976,118.58984400000008,125.38476599999922,140.12841800000024,150.76904300000024,168.58984400000008,315.76904300000024,138.58984400000008,442.3076170000004,284.6152340000008
247,244.87158199999976,54.48730499999965,154.10253900000043,-142.6923829999996,95.76904300000024,117.17968800000017,123.9741210000002,140.38476599999922,152.17968800000017,174.23095699999976,316.0258789999998,138.0771479999994,445.2563479999999,283.7177729999994
248,244.10253900000043,42.82031300000017,150.6411130000006,-148.20507799999996,90.25634799999989,114.74365200000011,120.89746099999957,140.51269500000035,151.79492200000004,176.53857400000015,313.9741210000002,140.6411130000006,446.6665039999998,281.15380900000036
249,245.38476599999922,34.87158199999976,148.7177729999994,-148.46142599999985,87.94873000000007,114.23095699999976,118.9741210000002,142.56396500000028,152.56396500000028,178.0771479999994,313.20507799999996,145.6411130000006,449.87158199999976,280.2563479999999
250,247.17968800000017,31.282227000000603,149.87158199999976,-144.10253899999998,90.25634799999989,116.0258789999998,118.9741210000002,144.7436520000001,154.87158199999976,180.2563479999999,314.23095699999976,150.0,454.10253900000043,281.15380900000036
251,245.6411130000006,28.333496000000196,151.79492200000004,-140.1281740000004,94.10253900000043,117.94873000000007,119.10253900000043,143.9741210000002,157.3076170000004,181.9228520000006,314.23095699999976,150.89746099999957,456.15380900000036,280.76904300000024
252,238.7177729999994,21.410155999999915,151.41015599999992,-142.179443,94.35888699999941,117.43603499999972,117.69238299999961,139.3588869999994,157.56396500000028,181.79492200000004,310.0,147.56396500000028,453.46142599999985,276.9228520000006
253,228.46142599999985,9.102539000000434,148.20507799999996,-151.02563499999997,89.23095699999976,114.48730499999965,115.0,133.7177729999994,155.6411130000006,179.87158199999976,301.79492200000004,142.43603499999972,447.82031300000017,270.12841800000024
254,220.6411130000006,-5.38452099999995,145.38476599999922,-161.66674799999964,82.94873000000007,110.76904300000024,113.84619099999964,131.53857400000015,153.9741210000002,179.3588869999994,293.84619099999964,138.9741210000002,444.6152340000008,264.23095699999976
255,219.48730499999965,-16.025634999999966,146.41015599999992,-166.79492200000004,81.9228520000006,108.84619099999964,116.6665039999998,135.38476599999922,155.89746099999957,183.7177729999994,291.0258789999998,140.12841800000024,448.20507799999996,263.0771479999994
256,224.48730499999965,-19.8718259999996,151.79492200000004,-163.20507799999996,88.20507799999996,109.87158199999976,123.0771479999994,143.7177729999994,162.43603499999972,193.0771479999994,294.6152340000008,145.2563479999999,458.20507799999996,267.05126999999993
257,229.3588869999994,-19.358886999999868,157.56396500000028,-154.61547900000005,97.30761700000039,112.43603499999972,129.3588869999994,151.53857400000015,170.38476599999922,203.20507799999996,300.2563479999999,151.0258789999998,468.20507799999996,271.53857400000015
258,227.56396500000028,-20.641113000000132,158.7177729999994,-148.58984399999963,102.17968800000017,113.84619099999964,131.9228520000006,154.10253900000043,174.61523400000078,207.56396500000028,301.53857400000015,153.46142599999985,470.51269500000035,270.76904300000024
259,218.20507799999996,-27.435790999999426,154.23095699999976,-149.61547900000005,99.23095699999976,113.3334960000002,130.38476599999922,151.41015599999992,173.0771479999994,203.20507799999996,296.15380900000036,151.41015599999992,463.0771479999994,263.46142599999985
260,207.17968800000017,-36.92309599999999,147.94873000000007,-155.64111300000013,92.43603499999972,112.05126999999993,127.56396500000028,147.43603499999972,168.7177729999994,194.7436520000001,288.46142599999985,147.82031300000017,452.3076170000004,254.23095699999976
261,201.9228520000006,-43.974365000000034,145.12841800000024,-160.1281740000004,89.48730499999965,112.30761700000039,127.05126999999993,146.2822270000006,166.53857400000015,190.2563479999999,284.6152340000008,146.0258789999998,447.4360349999997,249.7436520000001
262,203.7177729999994,-46.66674799999964,147.82031300000017,-158.58984399999963,94.23095699999976,114.48730499999965,129.7436520000001,149.61523400000078,169.48730499999965,194.10253900000043,287.3076170000004,147.43603499999972,452.17968800000017,251.53857400000015
263,207.05126999999993,-48.71801800000003,152.05126999999993,-152.56420900000057,102.43603499999972,116.6665039999998,132.6923829999996,154.61523400000078,174.7436520000001,203.20507799999996,291.6665039999998,150.2563479999999,461.53857400000015,255.51269500000035
264,204.61523400000078,-55.76928699999962,152.56396500000028,-148.076904,106.0258789999998,116.9228520000006,131.6665039999998,156.9228520000006,177.05126999999993,209.10253900000043,291.0258789999998,151.53857400000015,466.53857400000015,254.61523400000078
265,194.10253900000043,-69.10253899999998,147.17968800000017,-150.0,100.12841800000024,114.48730499999965,124.87158199999976,154.48730499999965,173.3334960000002,205.76904300000024,283.3334960000002,149.48730499999965,462.94873000000007,245.76904300000024
266,180.2563479999999,-85.1281740000004,139.10253900000043,-157.6923829999996,88.46142599999985,110.89746099999957,115.38476599999922,149.10253900000043,165.2563479999999,194.87158199999976,273.0771479999994,145.51269500000035,453.7177729999994,232.3076170000004
267,170.0,-97.56420900000057,133.7177729999994,-165.5129390000002,79.48730499999965,108.58984400000008,109.74365200000011,144.3588869999994,158.9741210000002,184.23095699999976,267.05126999999993,142.17968800000017,445.3847659999992,221.53857400000015
268,167.82031300000017,-102.43579099999943,133.84619099999964,-166.923096,79.74365200000011,109.35888699999941,112.56396500000028,143.20507799999996,159.48730499999965,181.6665039999998,267.82031300000017,142.3076170000004,442.82031300000017,218.7177729999994
269,172.05126999999993,-100.38452099999995,138.58984400000008,-159.8718259999996,88.84619099999964,112.69238299999961,122.56396500000028,145.76904300000024,167.3076170000004,190.0,272.5639650000003,145.51269500000035,446.6665039999998,223.3334960000002
270,177.43603499999972,-96.41015600000037,143.58984400000008,-147.820557,99.74365200000011,116.15380900000036,133.3334960000002,149.61523400000078,178.0771479999994,205.6411130000006,275.3847659999992,149.10253900000043,454.10253900000043,230.0
271,177.56396500000028,-96.79492200000004,144.61523400000078,-137.0512700000004,105.25634799999989,117.30761700000039,137.43603499999972,152.56396500000028,185.6411130000006,220.2563479999999,272.6923829999996,150.12841800000024,459.48730499999965,232.17968800000017
272,170.38476599999922,-104.23071300000038,140.38476599999922,-132.0512700000004,103.0771479999994,116.15380900000036,132.56396500000028,153.46142599999985,186.2822270000006,226.6665039999998,265.51269500000035,147.82031300000017,459.3588869999994,226.6665039999998
273,158.9741210000002,-114.48706099999981,134.87158199999976,-131.79492200000004,97.56396500000028,114.35888699999941,123.0771479999994,153.46142599999985,182.17968800000017,223.7177729999994,259.10253900000043,144.61523400000078,454.87158199999976,216.41015599999992
274,150.0,-121.02563499999997,133.7177729999994,-130.89746100000002,94.23095699999976,113.84619099999964,116.9228520000006,154.87158199999976,178.84619099999964,217.17968800000017,258.46142599999985,143.58984400000008,450.3847659999992,208.0771479999994
275,147.6923829999996,-120.51293900000019,139.48730499999965,-125.25634799999989,95.12841800000024,114.61523400000078,118.9741210000002,158.3334960000002,180.76904300000024,214.23095699999976,264.10253900000043,146.15380900000036,449.3588869999994,206.41015599999992
276,150.51269500000035,-115.76928699999962,148.7177729999994,-115.64111300000013,98.20507799999996,115.64111300000059,127.94873000000007,162.3076170000004,187.82031300000017,218.20507799999996,271.2822270000006,150.76904300000024,451.15380900000036,210.6411130000006
277,154.10253900000043,-112.30761700000039,155.89746099999957,-105.76928699999962,101.6665039999998,115.76904300000024,138.3334960000002,164.61523400000078,195.51269500000035,226.2822270000006,274.3588869999994,154.7436520000001,452.5639650000003,215.6411130000006
278,155.51269500000035,-112.82055700000001,157.43603499999972,-98.46142599999985,106.15380900000036,115.12841800000024,145.6411130000006,165.38476599999922,199.61523400000078,233.84619099999964,271.2822270000006,156.53857400000015,451.79492200000004,216.9228520000006
279,153.7177729999994,-116.66674799999964,153.46142599999985,-93.58984399999963,111.79492200000004,114.48730499999965,147.82031300000017,166.2822270000006,198.9741210000002,237.6923829999996,263.84619099999964,155.38476599999922,448.9741210000002,213.20507799999996
280,148.46142599999985,-122.82055700000001,146.2822270000006,-90.89746100000002,115.12841800000024,113.9741210000002,144.87158199999976,167.82031300000017,194.61523400000078,236.53857400000015,255.0,151.41015599999992,444.7436520000001,205.6411130000006
281,138.9741210000002,-131.15380900000036,138.0771479999994,-90.38452099999995,111.41015599999992,113.7177729999994,138.84619099999964,168.7177729999994,188.46142599999985,230.6411130000006,246.0258789999998,145.76904300000024,438.3334960000002,195.6411130000006
282,126.41015599999992,-141.41015600000037,131.0258789999998,-91.28198199999997,100.64111300000059,113.20507799999996,133.46142599999985,168.84619099999964,183.20507799999996,222.82031300000017,236.6665039999998,140.6411130000006,429.23095699999976,185.12841800000024
283,114.74365200000011,-151.41015600000037,126.6665039999998,-91.41015600000037,89.61523400000078,112.43603499999972,132.43603499999972,170.0,181.79492200000004,218.0771479999994,227.17968800000017,137.6923829999996,419.3588869999994,176.41015599999992
284,107.56396500000028,-158.33325200000036,125.64111300000059,-87.82055700000001,86.15380900000036,111.9228520000006,136.9228520000006,173.84619099999964,185.2563479999999,219.7436520000001,218.20507799999996,137.17968800000017,410.12841800000024,170.12841800000024
285,104.87158199999976,-161.41015600000037,126.2822270000006,-80.1281740000004,92.05126999999993,111.6665039999998,143.3334960000002,179.10253900000043,190.51269500000035,225.76904300000024,210.0,138.0771479999994,400.76904300000024,164.87158199999976
286,103.58984400000008,-161.923096,126.53857400000015,-69.35888699999987,100.64111300000059,111.2822270000006,146.2822270000006,182.43603499999972,193.3334960000002,230.0,201.41015599999992,139.3588869999994,388.7177729999994,158.7177729999994
287,101.53857400000015,-160.64111300000013,125.51269500000035,-57.564209000000574,104.23095699999976,110.76904300000024,142.05126999999993,180.89746099999957,190.89746099999957,227.94873000000007,191.53857400000015,140.12841800000024,373.46142599999985,152.17968800000017
288,99.48730499999965,-156.79492200000004,125.0,-45.51293900000019,101.0258789999998,110.38476599999922,131.41015599999992,175.12841800000024,184.61523400000078,220.51269500000035,181.6665039999998,139.87158199999976,358.20507799999996,147.43603499999972
289,99.74365200000011,-149.23071300000038,127.30761700000039,-33.71801800000003,95.25634799999989,110.64111300000059,119.35888699999941,168.7177729999994,178.46142599999985,212.17968800000017,174.10253900000043,138.9741210000002,347.05126999999993,146.15380900000036
290,102.82031300000017,-139.10253899999998,132.43603499999972,-22.820557000000008,92.05126999999993,112.05126999999993,111.53857400000015,164.61523400000078,175.89746099999957,207.05126999999993,169.7436520000001,138.7177729999994,341.2822270000006,148.20507799999996
291,106.2822270000006,-129.61547900000005,137.56396500000028,-13.846190999999635,92.43603499999972,114.10253900000043,111.0258789999998,163.58984400000008,177.17968800000017,205.38476599999922,166.6665039999998,139.61523400000078,337.5639650000003,151.0258789999998
292,107.69238299999961,-123.46142599999985,139.61523400000078,-6.666747999999643,93.7177729999994,115.64111300000059,116.15380900000036,164.10253900000043,179.7436520000001,204.7436520000001,162.3076170000004,141.15380900000036,331.9228520000006,152.17968800000017
293,106.41015599999992,-121.41015600000037,137.94873000000007,-0.256347999999889,93.0771479999994,115.76904300000024,121.9228520000006,164.10253900000043,180.6411130000006,202.82031300000017,155.51269500000035,141.9228520000006,323.20507799999996,150.76904300000024
294,103.7177729999994,-122.43579099999943,134.23095699999976,6.410155999999915,90.12841800000024,114.74365200000011,123.46142599999985,162.6923829999996,178.84619099999964,199.48730499999965,148.0771479999994,141.41015599999992,312.4360349999997,147.56396500000028
295,100.76904300000024,-123.84619099999964,131.15380900000036,13.077147999999397,88.46142599999985,113.84619099999964,120.0,160.6411130000006,175.2563479999999,196.41015599999992,142.43603499999972,140.12841800000024,301.15380900000036,144.61523400000078
296,98.84619099999964,-122.43579099999943,130.51269500000035,19.358886999999413,91.79492200000004,114.10253900000043,115.51269500000035,159.48730499999965,172.6923829999996,196.2822270000006,140.6411130000006,139.23095699999976,291.53857400000015,143.46142599999985
297,99.10253900000043,-116.02563499999997,132.6923829999996,25.769043000000238,100.12841800000024,115.38476599999922,114.61523400000078,160.89746099999957,172.82031300000017,200.76904300000024,142.6923829999996,139.7436520000001,285.51269500000035,144.61523400000078
298,101.0258789999998,-106.53857400000015,136.41015599999992,31.922852000000603,107.69238299999961,115.89746099999957,118.7177729999994,164.10253900000043,174.87158199999976,207.56396500000028,145.89746099999957,140.76904300000024,282.94873000000007,146.53857400000015
299,103.0771479999994,-98.71801800000003,139.10253900000043,37.43603499999972,107.82031300000017,114.23095699999976,123.7177729999994,166.15380900000036,176.15380900000036,211.79492200000004,146.2822270000006,141.2822270000006,280.76904300000024,146.79492200000004
300,104.74365200000011,-95.38452099999995,139.7436520000001,42.05126999999993,100.25634799999989,110.76904300000024,125.25634799999989,164.61523400000078,175.51269500000035,210.38476599999922,141.9228520000006,141.15380900000036,276.0258789999998,144.61523400000078
301,107.43603499999972,-94.23071300000038,140.0,48.333496000000196,92.30761700000039,107.82031300000017,123.0771479999994,161.41015599999992,174.61523400000078,206.0258789999998,135.2563479999999,141.2822270000006,269.10253900000043,142.3076170000004
302,112.69238299999961,-90.89746100000002,142.82031300000017,59.48730499999965,93.0771479999994,108.20507799999996,121.0258789999998,160.51269500000035,175.6411130000006,204.3588869999994,130.6411130000006,142.56396500000028,262.6923829999996,143.0771479999994
303,119.10253900000043,-83.58984399999963,147.94873000000007,75.12841800000024,104.61523400000078,111.9228520000006,123.58984400000008,163.46142599999985,178.3334960000002,207.43603499999972,130.6411130000006,144.48730499999965,257.4360349999997,147.43603499999972
304,122.30761700000039,-74.8718259999996,151.53857400000015,90.76904300000024,118.9741210000002,116.2822270000006,130.2563479999999,167.3076170000004,180.0,211.41015599999992,132.94873000000007,145.12841800000024,251.2822270000006,151.41015599999992
305,118.9741210000002,-69.10253899999998,149.7436520000001,101.2822270000006,125.38476599999922,118.46142599999985,137.05126999999993,167.6923829999996,177.82031300000017,209.87158199999976,133.0771479999994,142.56396500000028,242.43603499999972,150.51269500000035
306,109.87158199999976,-68.97436500000003,142.82031300000017,104.23095699999976,118.46142599999985,117.69238299999961,138.84619099999964,163.0771479999994,171.53857400000015,200.89746099999957,127.30761700000039,136.79492200000004,231.15380900000036,143.20507799999996
307,100.12841800000024,-73.97436500000003,134.3588869999994,101.9228520000006,103.7177729999994,115.76904300000024,134.10253900000043,155.76904300000024,163.84619099999964,188.58984400000008,116.15380900000036,129.7436520000001,219.48730499999965,132.56396500000028
308,94.48730499999965,-80.25634799999989,128.3334960000002,99.61523400000078,91.9228520000006,114.48730499999965,125.38476599999922,150.51269500000035,158.20507799999996,179.10253900000043,104.10253900000043,125.12841800000024,209.48730499999965,123.7177729999994
309,94.61523400000078,-83.07690400000001,126.6665039999998,102.43603499999972,91.15380900000036,114.61523400000078,117.82031300000017,150.51269500000035,157.05126999999993,175.89746099999957,96.15380900000036,124.61523400000078,202.6923829999996,120.38476599999922
310,98.7177729999994,-78.58984399999963,128.9741210000002,112.69238299999961,101.0258789999998,115.51269500000035,115.64111300000059,155.51269500000035,159.87158199999976,178.3334960000002,95.25634799999989,127.56396500000028,199.3588869999994,122.56396500000028
311,103.46142599999985,-67.30761700000039,132.94873000000007,127.94873000000007,114.23095699999976,116.53857400000015,118.84619099999964,161.79492200000004,164.48730499999965,182.6923829999996,100.12841800000024,130.6411130000006,198.9741210000002,127.56396500000028
312,105.76904300000024,-54.74365200000011,135.76904300000024,141.9228520000006,122.05126999999993,116.6665039999998,123.84619099999964,165.12841800000024,167.43603499999972,185.2563479999999,106.0258789999998,131.0258789999998,198.7177729999994,130.38476599999922
313,104.35888699999941,-48.46142599999985,135.2563479999999,148.58984400000008,119.48730499999965,115.76904300000024,125.25634799999989,162.6923829999996,166.53857400000015,183.84619099999964,108.20507799999996,127.82031300000017,195.89746099999957,127.82031300000017
314,100.38476599999922,-51.41015600000037,131.2822270000006,146.9228520000006,108.9741210000002,114.74365200000011,121.41015599999992,155.6411130000006,162.43603499999972,179.48730499999965,105.0,123.3334960000002,189.23095699999976,120.25634799999989
315,96.2822270000006,-58.71801800000003,126.6665039999998,142.6923829999996,99.35888699999941,114.35888699999941,115.64111300000059,147.94873000000007,158.58984400000008,175.76904300000024,99.35888699999941,120.64111300000059,181.79492200000004,112.56396500000028
316,94.87158199999976,-61.92309599999999,125.12841800000024,143.9741210000002,99.61523400000078,115.25634799999989,113.0771479999994,144.48730499999965,158.46142599999985,176.6665039999998,96.41015599999992,121.79492200000004,177.6923829999996,110.12841800000024
317,97.30761700000039,-55.76928699999962,127.94873000000007,154.3588869999994,111.0258789999998,116.9228520000006,116.15380900000036,146.79492200000004,162.3076170000004,182.05126999999993,98.0771479999994,125.89746099999957,178.20507799999996,114.35888699999941
318,101.6665039999998,-42.82055700000001,132.3076170000004,169.10253900000043,125.38476599999922,118.58984400000008,122.56396500000028,151.2822270000006,166.2822270000006,187.43603499999972,102.43603499999972,130.0,180.51269500000035,121.9228520000006
319,104.35888699999941,-30.769286999999622,134.7436520000001,180.12841800000024,133.20507799999996,119.23095699999976,127.94873000000007,153.20507799999996,165.6411130000006,187.43603499999972,105.25634799999989,131.79492200000004,179.7436520000001,127.30761700000039
320,103.20507799999996,-25.769286999999622,133.46142599999985,182.43603499999972,130.89746099999957,118.3334960000002,128.84619099999964,150.2563479999999,159.3588869999994,180.2563479999999,104.61523400000078,130.51269500000035,174.87158199999976,127.05126999999993
321,98.7177729999994,-29.10253899999998,129.7436520000001,177.94873000000007,123.20507799999996,116.53857400000015,125.12841800000024,144.48730499999965,150.2563479999999,169.10253900000043,101.53857400000015,126.9228520000006,168.20507799999996,121.53857400000015
322,92.94873000000007,-36.92309599999999,125.64111300000059,171.9228520000006,116.0258789999998,115.0,119.48730499999965,139.61523400000078,142.43603499999972,159.10253900000043,98.9741210000002,123.46142599999985,162.6923829999996,113.9741210000002
323,87.69238299999961,-44.10253899999998,122.17968800000017,168.46142599999985,111.53857400000015,114.74365200000011,115.0,138.3334960000002,139.3588869999994,153.20507799999996,98.0771479999994,121.53857400000015,159.48730499999965,107.30761700000039
324,84.48730499999965,-46.41015600000037,119.87158199999976,168.0771479999994,109.23095699999976,115.38476599999922,113.7177729999994,140.12841800000024,141.53857400000015,152.17968800000017,98.84619099999964,121.15380900000036,157.6923829999996,103.20507799999996
325,83.3334960000002,-43.58984399999963,118.7177729999994,169.10253900000043,107.94873000000007,116.41015599999992,115.64111300000059,143.3334960000002,146.9228520000006,154.87158199999976,100.0,120.89746099999957,156.41015599999992,101.41015599999992
326,83.46142599999985,-38.07690400000001,118.20507799999996,170.2563479999999,108.46142599999985,117.05126999999993,120.12841800000024,146.15380900000036,152.05126999999993,158.9741210000002,101.53857400000015,119.74365200000011,154.48730499999965,101.0258789999998
327,84.23095699999976,-33.07690400000001,118.46142599999985,171.9228520000006,112.05126999999993,117.05126999999993,125.25634799999989,148.58984400000008,154.61523400000078,162.56396500000028,103.84619099999964,118.46142599999985,152.17968800000017,101.0258789999998
328,85.0,-29.10253899999998,119.61523400000078,175.6411130000006,118.0771479999994,116.6665039999998,128.7177729999994,150.12841800000024,154.48730499999965,163.7177729999994,107.30761700000039,118.0771479999994,150.51269500000035,101.0258789999998
329,84.87158199999976,-24.61547900000005,121.0258789999998,182.3076170000004,123.20507799999996,116.0258789999998,129.10253900000043,149.61523400000078,152.56396500000028,162.05126999999993,111.15380900000036,118.20507799999996,150.12841800000024,100.64111300000059
330,83.84619099999964,-18.974365000000034,120.89746099999957,190.0,123.9741210000002,115.76904300000024,126.15380900000036,146.15380900000036,149.7436520000001,158.84619099999964,113.58984400000008,117.43603499999972,150.2563479999999,99.74365200000011
331,82.56396500000028,-13.205077999999958,118.46142599999985,195.51269500000035,120.89746099999957,116.15380900000036,122.05126999999993,140.51269500000035,146.9228520000006,156.15380900000036,113.84619099999964,116.0258789999998,149.7436520000001,99.35888699999941
332,82.82031300000017,-9.358886999999868,115.89746099999957,197.17968800000017,118.9741210000002,117.05126999999993,120.12841800000024,135.89746099999957,146.15380900000036,156.0258789999998,113.58984400000008,115.25634799999989,149.10253900000043,100.12841800000024
333,85.64111300000059,-8.333252000000357,116.2822270000006,197.05126999999993,122.94873000000007,118.0771479999994,122.56396500000028,135.0,148.84619099999964,158.3334960000002,115.12841800000024,116.0258789999998,150.12841800000024,102.17968800000017
334,90.25634799999989,-8.076904000000013,120.64111300000059,198.58984400000008,132.94873000000007,118.7177729999994,128.3334960000002,137.94873000000007,153.9741210000002,161.2822270000006,119.10253900000043,117.69238299999961,153.0771479999994,104.61523400000078
335,94.10253900000043,-5.897461000000021,126.2822270000006,203.9741210000002,143.58984400000008,118.7177729999994,134.10253900000043,141.9228520000006,157.82031300000017,162.43603499999972,122.56396500000028,117.69238299999961,154.61523400000078,105.51269500000035
336,95.0,-0.512695000000349,128.58984400000008,212.05126999999993,148.20507799999996,118.20507799999996,135.6411130000006,143.20507799999996,156.2822270000006,160.2563479999999,121.0258789999998,114.48730499999965,150.89746099999957,103.3334960000002
337,92.69238299999961,6.922852000000603,124.87158199999976,219.48730499999965,144.23095699999976,117.69238299999961,131.2822270000006,139.87158199999976,149.10253900000043,154.61523400000078,112.69238299999961,108.84619099999964,140.76904300000024,98.46142599999985
338,89.74365200000011,14.743652000000111,117.82031300000017,223.7177729999994,135.6411130000006,116.9228520000006,123.0771479999994,133.3334960000002,140.2563479999999,147.3076170000004,100.89746099999957,102.82031300000017,127.94873000000007,93.20507799999996
339,89.61523400000078,21.666503999999804,113.84619099999964,225.12841800000024,129.7436520000001,116.41015599999992,116.0258789999998,127.69238299999961,135.89746099999957,141.6665039999998,93.0771479999994,99.61523400000078,118.84619099999964,91.2822270000006
340,93.9741210000002,27.17968800000017,117.43603499999972,225.6411130000006,131.15380900000036,116.41015599999992,113.58984400000008,126.6665039999998,138.3334960000002,140.89746099999957,94.35888699999941,101.0258789999998,117.43603499999972,94.74365200000011
341,100.38476599999922,30.384765999999217,127.17968800000017,226.53857400000015,137.3076170000004,116.6665039999998,115.89746099999957,129.87158199999976,144.3588869999994,143.9741210000002,103.46142599999985,106.0258789999998,121.9228520000006,101.53857400000015
342,104.23095699999976,30.384765999999217,136.0258789999998,227.05126999999993,141.53857400000015,116.9228520000006,119.23095699999976,133.46142599999985,148.20507799999996,146.53857400000015,113.7177729999994,110.89746099999957,126.41015599999992,106.79492200000004
343,102.30761700000039,27.69238299999961,137.43603499999972,226.53857400000015,139.7436520000001,116.6665039999998,120.25634799999989,133.58984400000008,145.76904300000024,145.0,118.7177729999994,111.9228520000006,125.89746099999957,106.15380900000036
344,96.2822270000006,24.230956999999762,130.76904300000024,225.89746099999957,134.23095699999976,116.0258789999998,118.46142599999985,130.51269500000035,138.84619099999964,139.7436520000001,117.17968800000017,108.84619099999964,120.12841800000024,100.12841800000024
345,90.51269500000035,22.69238299999961,121.41015599999992,226.41015599999992,131.2822270000006,115.51269500000035,116.6665039999998,128.46142599999985,132.43603499999972,134.61523400000078,112.94873000000007,105.12841800000024,113.0771479999994,93.84619099999964
346,88.0771479999994,23.461425999999847,115.64111300000059,227.94873000000007,133.20507799999996,115.64111300000059,116.79492200000004,130.2563479999999,130.38476599999922,132.17968800000017,110.12841800000024,104.10253900000043,108.3334960000002,91.9228520000006
347,88.58984400000008,24.871581999999762,115.76904300000024,228.0771479999994,136.15380900000036,115.89746099999957,118.3334960000002,133.9741210000002,131.79492200000004,132.05126999999993,109.61523400000078,106.15380900000036,106.53857400000015,94.35888699999941
348,88.7177729999994,25.128418000000238,119.35888699999941,224.7436520000001,135.12841800000024,115.89746099999957,119.10253900000043,135.76904300000024,133.3334960000002,131.79492200000004,109.35888699999941,109.10253900000043,105.51269500000035,97.56396500000028
349,87.30761700000039,24.102539000000434,123.3334960000002,220.0,130.38476599999922,115.89746099999957,119.23095699999976,133.84619099999964,133.3334960000002,131.6665039999998,108.46142599999985,111.0258789999998,103.7177729999994,98.7177729999994
350,86.79492200000004,24.358886999999413,126.53857400000015,218.46142599999985,126.79492200000004,116.41015599999992,120.64111300000059,131.0258789999998,133.7177729999994,134.23095699999976,108.9741210000002,112.56396500000028,102.43603499999972,98.7177729999994
351,90.64111300000059,28.333496000000196,129.87158199999976,222.94873000000007,129.23095699999976,117.17968800000017,124.48730499999965,131.41015599999992,137.6923829999996,140.38476599999922,113.46142599999985,114.74365200000011,105.0,100.38476599999922
352,98.9741210000002,35.12841800000024,133.46142599999985,231.9228520000006,136.9228520000006,117.94873000000007,129.3588869999994,135.6411130000006,144.87158199999976,147.17968800000017,121.2822270000006,116.6665039999998,112.05126999999993,104.74365200000011
353,106.79492200000004,40.64111300000059,135.51269500000035,239.61523400000078,143.9741210000002,118.0771479999994,132.17968800000017,140.51269500000035,150.0,149.87158199999976,127.69238299999961,116.6665039999998,119.48730499999965,109.61523400000078
354,108.0771479999994,40.64111300000059,134.48730499999965,241.0258789999998,144.87158199999976,117.82031300000017,131.2822270000006,141.6665039999998,148.3334960000002,146.53857400000015,128.46142599999985,114.35888699999941,121.6665039999998,111.0258789999998
355,101.15380900000036,34.61523400000078,131.0258789999998,235.51269500000035,138.7177729999994,117.56396500000028,126.9228520000006,137.6923829999996,140.2563479999999,139.61523400000078,122.56396500000028,110.89746099999957,116.2822270000006,107.30761700000039
356,90.25634799999989,26.794922000000042,126.9228520000006,227.56396500000028,130.51269500000035,117.69238299999961,121.41015599999992,131.2822270000006,131.15380900000036,133.84619099999964,114.35888699999941,108.0771479999994,106.79492200000004,100.38476599999922
357,82.56396500000028,22.94873000000007,124.48730499999965,221.6665039999998,125.76904300000024,117.94873000000007,117.56396500000028,126.2822270000006,127.30761700000039,132.6923829999996,110.25634799999989,107.05126999999993,99.61523400000078,94.48730499999965
358,82.94873000000007,26.025878999999804,124.87158199999976,220.6411130000006,127.43603499999972,118.3334960000002,117.69238299999961,125.12841800000024,130.89746099999957,136.79492200000004,114.10253900000043,108.3334960000002,99.35888699999941,93.58984400000008
359,90.89746099999957,34.23095699999976,128.0771479999994,223.9741210000002,132.94873000000007,118.46142599999985,121.53857400000015,128.0771479999994,139.3588869999994,144.10253900000043,124.10253900000043,110.64111300000059,105.64111300000059,98.46142599999985
360,100.38476599999922,41.410155999999915,131.79492200000004,229.23095699999976,137.94873000000007,118.3334960000002,126.2822270000006,132.82031300000017,147.3076170000004,150.2563479999999,133.7177729999994,112.82031300000017,113.84619099999964,105.64111300000059
361,104.10253900000043,42.43603499999972,133.46142599999985,233.20507799999996,138.9741210000002,118.20507799999996,128.84619099999964,136.0258789999998,150.38476599999922,151.9228520000006,136.9228520000006,113.7177729999994,117.82031300000017,109.74365200000011
362,98.58984400000008,36.153809000000365,131.79492200000004,233.3334960000002,136.0258789999998,118.3334960000002,127.05126999999993,135.89746099999957,147.17968800000017,147.82031300000017,132.82031300000017,112.69238299999961,114.10253900000043,107.30761700000039
363,86.15380900000036,27.17968800000017,127.43603499999972,228.7177729999994,131.79492200000004,118.58984400000008,121.41015599999992,132.94873000000007,140.12841800000024,140.6411130000006,125.0,109.74365200000011,105.0,99.35888699999941
364,74.23095699999976,21.410155999999915,122.56396500000028,221.53857400000015,128.84619099999964,118.84619099999964,115.64111300000059,129.87158199999976,133.84619099999964,134.10253900000043,118.9741210000002,106.79492200000004,96.2822270000006,90.76904300000024
365,69.61523400000078,21.922852000000603,119.74365200000011,215.6411130000006,128.0771479999994,118.7177729999994,113.7177729999994,129.10253900000043,132.3076170000004,131.53857400000015,118.58984400000008,105.89746099999957,93.58984400000008,86.79492200000004
366,74.48730499999965,27.69238299999961,120.64111300000059,214.87158199999976,128.58984400000008,118.3334960000002,117.56396500000028,130.89746099999957,136.6665039999998,134.10253900000043,123.3334960000002,107.94873000000007,98.3334960000002,89.87158199999976
367,85.38476599999922,35.12841800000024,125.0,220.12841800000024,130.2563479999999,117.69238299999961,125.12841800000024,134.3588869999994,144.48730499999965,141.2822270000006,130.6411130000006,111.9228520000006,107.82031300000017,98.3334960000002
368,96.0258789999998,40.76904300000024,131.0258789999998,229.10253900000043,132.82031300000017,116.9228520000006,132.3076170000004,138.0771479999994,151.2822270000006,150.0,137.05126999999993,115.76904300000024,117.05126999999993,107.69238299999961
369,101.15380900000036,43.0771479999994,135.51269500000035,236.53857400000015,135.2563479999999,116.6665039999998,135.12841800000024,140.89746099999957,153.20507799999996,155.76904300000024,139.48730499999965,117.17968800000017,121.79492200000004,113.3334960000002
370,98.7177729999994,42.17968800000017,135.89746099999957,237.17968800000017,134.48730499999965,116.9228520000006,131.79492200000004,140.38476599999922,148.84619099999964,154.7436520000001,136.6665039999998,115.0,120.89746099999957,111.9228520000006
371,91.15380900000036,39.102539000000434,131.15380900000036,228.7177729999994,128.3334960000002,117.30761700000039,123.84619099999964,134.87158199999976,139.87158199999976,146.0258789999998,129.23095699999976,109.74365200000011,115.38476599999922,103.46142599999985
372,82.82031300000017,35.25634799999989,123.3334960000002,214.7436520000001,119.23095699999976,117.30761700000039,115.64111300000059,125.76904300000024,130.6411130000006,133.84619099999964,120.0,103.20507799999996,108.20507799999996,92.05126999999993
373,78.20507799999996,32.43603499999972,115.89746099999957,203.3334960000002,112.82031300000017,116.79492200000004,111.6665039999998,117.56396500000028,125.38476599999922,124.23095699999976,113.46142599999985,98.46142599999985,103.3334960000002,83.46142599999985
374,79.10253900000043,31.922852000000603,112.17968800000017,200.76904300000024,113.3334960000002,116.2822270000006,113.7177729999994,114.61523400000078,125.89746099999957,121.53857400000015,112.69238299999961,97.56396500000028,104.10253900000043,81.53857400000015
375,84.23095699999976,33.974121000000196,113.58984400000008,206.41015599999992,120.12841800000024,115.89746099999957,118.9741210000002,117.82031300000017,130.51269500000035,125.51269500000035,117.82031300000017,100.25634799999989,110.89746099999957,85.25634799999989
376,89.48730499999965,37.17968800000017,117.82031300000017,213.7177729999994,127.56396500000028,115.89746099999957,123.0771479999994,123.7177729999994,135.0,132.3076170000004,125.64111300000059,103.46142599999985,120.12841800000024,90.51269500000035
377,91.79492200000004,40.25634799999989,121.53857400000015,216.0258789999998,130.38476599999922,116.41015599999992,123.3334960000002,127.43603499999972,136.41015599999992,137.6923829999996,132.43603499999972,104.61523400000078,127.17968800000017,93.3334960000002
378,90.51269500000035,42.17968800000017,121.9228520000006,210.89746099999957,127.05126999999993,116.79492200000004,120.12841800000024,126.2822270000006,134.7436520000001,138.9741210000002,135.12841800000024,102.69238299999961,128.9741210000002,92.56396500000028
379,87.30761700000039,42.30761700000039,118.46142599999985,201.53857400000015,120.0,117.05126999999993,115.51269500000035,120.38476599999922,131.79492200000004,136.0258789999998,133.3334960000002,98.3334960000002,126.2822270000006,88.84619099999964
380,84.35888699999941,40.51269500000035,112.05126999999993,193.3334960000002,113.46142599999985,117.17968800000017,111.9228520000006,113.46142599999985,129.3588869999994,131.53857400000015,128.84619099999964,93.3334960000002,122.43603499999972,84.23095699999976
381,83.3334960000002,37.82031300000017,105.76904300000024,189.7436520000001,110.89746099999957,117.30761700000039,110.89746099999957,109.48730499999965,128.9741210000002,129.23095699999976,124.61523400000078,89.74365200000011,121.41015599999992,80.64111300000059
382,84.61523400000078,36.666503999999804,103.58984400000008,191.6665039999998,113.46142599999985,117.94873000000007,112.43603499999972,111.15380900000036,130.76904300000024,132.17968800000017,123.46142599999985,89.87158199999976,125.0,80.0
383,86.9228520000006,38.7177729999994,106.79492200000004,196.6665039999998,119.23095699999976,119.23095699999976,115.51269500000035,118.20507799999996,133.9741210000002,138.84619099999964,126.0258789999998,93.9741210000002,131.79492200000004,82.30761700000039
