,EEG.AF3,EEG.F7,EEG.F3,EEG.FC5,EEG.T7,EEG.P7,EEG.O1,EEG.O2,EEG.P8,EEG.T8,EEG.FC6,EEG.F4,EEG.F8,EEG.AF4
0,177.43603499999972,154.7436520000001,137.43603499999972,121.2822270000006,119.23095699999976,116.2822270000006,109.61523400000078,105.76904300000024,108.20507799999996,130.2563479999999,164.48730499999965,121.15380900000036,236.9228520000006,114.23095699999976
1,178.9741210000002,157.05126999999993,140.51269500000035,126.41015599999992,121.53857400000015,116.9228520000006,116.6665039999998,112.69238299999961,112.56396500000028,133.7177729999994,168.84619099999964,123.9741210000002,240.38476599999922,113.7177729999994
2,180.51269500000035,156.79492200000004,146.0258789999998,130.51269500000035,121.0258789999998,118.0771479999994,123.3334960000002,121.2822270000006,119.35888699999941,135.12841800000024,174.3588869999994,128.84619099999964,247.56396500000028,113.84619099999964
3,182.17968800000017,155.12841800000024,150.2563479999999,132.94873000000007,118.84619099999964,118.7177729999994,127.43603499999972,128.46142599999985,126.0258789999998,134.87158199999976,178.7177729999994,133.3334960000002,254.10253900000043,115.0
4,182.94873000000007,152.82031300000017,150.0,133.58984400000008,116.2822270000006,118.46142599999985,128.20507799999996,131.41015599999992,129.48730499999965,132.94873000000007,179.61523400000078,134.87158199999976,255.51269500000035,116.41015599999992
5,181.6665039999998,150.38476599999922,145.51269500000035,133.0771479999994,114.23095699999976,117.56396500000028,126.53857400000015,130.38476599999922,128.7177729999994,130.12841800000024,177.82031300000017,133.20507799999996,250.76904300000024,117.30761700000039
6,178.7177729999994,148.84619099999964,140.2563479999999,132.56396500000028,114.35888699999941,117.05126999999993,123.58984400000008,128.58984400000008,126.0258789999998,128.9741210000002,176.2822270000006,130.38476599999922,243.3334960000002,117.17968800000017
7,176.9228520000006,149.7436520000001,138.20507799999996,134.23095699999976,118.20507799999996,117.17968800000017,120.89746099999957,129.48730499999965,125.38476599999922,132.05126999999993,177.82031300000017,128.84619099999964,239.10253900000043,116.0258789999998
8,177.82031300000017,153.3334960000002,140.0,138.0771479999994,123.0771479999994,117.43603499999972,119.48730499999965,132.56396500000028,128.3334960000002,138.9741210000002,181.41015599999992,129.48730499999965,240.6411130000006,114.61523400000078
9,179.87158199999976,156.41015599999992,142.6923829999996,140.51269500000035,122.05126999999993,117.17968800000017,118.58984400000008,133.84619099999964,131.6665039999998,144.48730499999965,182.82031300000017,130.89746099999957,244.61523400000078,113.58984400000008
10,178.9741210000002,155.0,142.94873000000007,137.6923829999996,111.15380900000036,116.2822270000006,117.56396500000028,130.2563479999999,131.6665039999998,143.3334960000002,178.7177729999994,131.41015599999992,245.2563479999999,112.69238299999961
11,173.84619099999964,148.84619099999964,140.38476599999922,130.2563479999999,94.48730499999965,115.0,115.76904300000024,123.58984400000008,127.43603499999972,136.15380900000036,170.6411130000006,130.2563479999999,240.12841800000024,111.9228520000006
12,167.6923829999996,142.6923829999996,138.0771479999994,124.35888699999941,83.3334960000002,114.48730499999965,114.23095699999976,119.48730499999965,123.20507799999996,129.23095699999976,164.87158199999976,128.9741210000002,233.20507799999996,111.2822270000006
13,165.76904300000024,142.17968800000017,139.23095699999976,125.76904300000024,85.89746099999957,114.87158199999976,114.10253900000043,121.41015599999992,122.69238299999961,128.46142599999985,166.53857400000015,129.23095699999976,230.38476599999922,111.2822270000006
14,169.87158199999976,148.58984400000008,143.46142599999985,133.46142599999985,100.12841800000024,115.76904300000024,115.76904300000024,127.30761700000039,126.2822270000006,133.9741210000002,174.87158199999976,131.41015599999992,235.0,112.43603499999972
15,177.43603499999972,157.3076170000004,148.20507799999996,141.53857400000015,115.12841800000024,116.41015599999992,118.0771479999994,132.17968800000017,130.6411130000006,140.12841800000024,183.84619099999964,133.7177729999994,244.10253900000043,114.10253900000043
16,183.58984400000008,161.53857400000015,150.89746099999957,144.10253900000043,121.0258789999998,116.2822270000006,118.7177729999994,131.79492200000004,132.17968800000017,140.51269500000035,186.9228520000006,134.87158199999976,251.53857400000015,115.64111300000059
17,185.38476599999922,158.9741210000002,151.0258789999998,140.89746099999957,116.15380900000036,115.76904300000024,117.05126999999993,126.79492200000004,129.61523400000078,133.46142599999985,182.56396500000028,134.48730499999965,252.6923829999996,116.41015599999992
18,183.3334960000002,152.94873000000007,150.89746099999957,136.41015599999992,107.17968800000017,115.89746099999957,114.87158199999976,121.15380900000036,125.51269500000035,124.61523400000078,175.0,133.9741210000002,248.84619099999964,116.2822270000006
19,180.76904300000024,150.12841800000024,153.46142599999985,135.89746099999957,102.56396500000028,117.43603499999972,115.38476599999922,119.61523400000078,123.3334960000002,121.0258789999998,170.38476599999922,134.48730499999965,245.12841800000024,115.25634799999989
20,180.0,153.84619099999964,158.46142599999985,140.76904300000024,105.76904300000024,119.23095699999976,120.51269500000035,123.0771479999994,124.35888699999941,125.64111300000059,171.41015599999992,136.0258789999998,245.38476599999922,114.23095699999976
21,180.38476599999922,161.15380900000036,162.56396500000028,147.82031300000017,112.30761700000039,119.61523400000078,127.69238299999961,127.43603499999972,125.76904300000024,133.0771479999994,175.51269500000035,136.9228520000006,247.43603499999972,114.23095699999976
22,178.84619099999964,164.61523400000078,161.2822270000006,151.41015599999992,115.0,117.30761700000039,132.05126999999993,127.56396500000028,122.56396500000028,134.10253900000043,176.6665039999998,135.76904300000024,245.6411130000006,115.64111300000059
23,173.46142599999985,159.48730499999965,153.7177729999994,147.56396500000028,110.12841800000024,113.0771479999994,130.2563479999999,121.79492200000004,112.30761700000039,123.58984400000008,171.0258789999998,132.3076170000004,237.05126999999993,117.17968800000017
24,166.2822270000006,147.6923829999996,143.7177729999994,137.94873000000007,101.6665039999998,108.9741210000002,123.20507799999996,113.46142599999985,99.10253900000043,106.6665039999998,161.41015599999992,128.0771479999994,226.0258789999998,117.69238299999961
25,161.53857400000015,136.6665039999998,137.3076170000004,128.7177729999994,97.30761700000039,106.9228520000006,115.12841800000024,108.20507799999996,90.51269500000035,94.61523400000078,155.0,125.76904300000024,220.76904300000024,117.30761700000039
26,162.56396500000028,132.56396500000028,136.9228520000006,126.15380900000036,100.64111300000059,107.94873000000007,110.51269500000035,109.10253900000043,91.53857400000015,95.38476599999922,157.05126999999993,127.05126999999993,226.0258789999998,117.05126999999993
27,167.05126999999993,134.87158199999976,140.38476599999922,130.89746099999957,107.17968800000017,110.89746099999957,110.64111300000059,113.58984400000008,100.51269500000035,106.79492200000004,165.12841800000024,131.2822270000006,237.17968800000017,117.05126999999993
28,169.48730499999965,137.43603499999972,142.56396500000028,137.17968800000017,108.7177729999994,113.58984400000008,112.94873000000007,116.53857400000015,109.74365200000011,118.58984400000008,171.53857400000015,135.0,244.23095699999976,116.79492200000004
29,165.76904300000024,135.51269500000035,140.89746099999957,138.46142599999985,102.30761700000039,114.35888699999941,113.7177729999994,115.0,112.94873000000007,122.30761700000039,170.89746099999957,135.12841800000024,240.2563479999999,115.64111300000059
30,159.3588869999994,130.89746099999957,137.43603499999972,133.58984400000008,94.61523400000078,113.46142599999985,112.30761700000039,110.51269500000035,109.87158199999976,118.3334960000002,165.12841800000024,132.17968800000017,228.84619099999964,114.23095699999976
31,157.43603499999972,130.6411130000006,137.05126999999993,128.58984400000008,95.76904300000024,113.3334960000002,111.41015599999992,107.69238299999961,106.0258789999998,114.23095699999976,161.6665039999998,129.7436520000001,220.51269500000035,113.9741210000002
32,164.48730499999965,139.10253900000043,141.9228520000006,129.7436520000001,108.9741210000002,115.25634799999989,113.7177729999994,109.35888699999941,106.9228520000006,116.6665039999998,165.76904300000024,130.89746099999957,222.82031300000017,115.51269500000035
33,176.6665039999998,153.3334960000002,149.48730499999965,138.3334960000002,127.17968800000017,118.0771479999994,118.58984400000008,114.74365200000011,113.58984400000008,124.61523400000078,175.2563479999999,134.3588869999994,233.46142599999985,118.0771479999994
34,185.51269500000035,164.7436520000001,154.3588869999994,148.84619099999964,137.94873000000007,118.7177729999994,122.43603499999972,120.12841800000024,121.2822270000006,132.17968800000017,182.3076170000004,136.41015599999992,242.17968800000017,119.61523400000078
35,185.0,166.0258789999998,153.0771479999994,153.84619099999964,132.94873000000007,115.76904300000024,121.41015599999992,121.9228520000006,124.48730499999965,133.3334960000002,179.87158199999976,134.23095699999976,239.3588869999994,118.9741210000002
36,175.51269500000035,156.0258789999998,145.76904300000024,148.9741210000002,113.9741210000002,110.64111300000059,115.25634799999989,119.23095699999976,120.38476599999922,126.9228520000006,167.94873000000007,128.7177729999994,223.84619099999964,116.6665039999998
37,163.46142599999985,140.12841800000024,135.76904300000024,135.2563479999999,91.41015599999992,106.6665039999998,107.56396500000028,114.10253900000043,110.89746099999957,116.0258789999998,152.3076170000004,123.3334960000002,203.58984400000008,113.46142599999985
38,156.0258789999998,126.9228520000006,127.69238299999961,119.48730499999965,77.82031300000017,106.41015599999992,102.82031300000017,109.48730499999965,101.0258789999998,105.38476599999922,140.6411130000006,120.64111300000059,189.10253900000043,110.76904300000024
39,155.76904300000024,122.82031300000017,125.12841800000024,109.87158199999976,79.48730499999965,109.61523400000078,103.0771479999994,108.0771479999994,96.2822270000006,98.46142599999985,137.56396500000028,121.2822270000006,185.6411130000006,109.87158199999976
40,159.61523400000078,129.10253900000043,128.46142599999985,110.89746099999957,93.46142599999985,113.58984400000008,107.17968800000017,110.0,99.10253900000043,96.6665039999998,141.79492200000004,123.3334960000002,190.2563479999999,111.0258789999998
41,163.0771479999994,140.6411130000006,133.9741210000002,120.12841800000024,110.25634799999989,116.0258789999998,112.30761700000039,113.84619099999964,107.17968800000017,98.20507799999996,147.6923829999996,124.35888699999941,195.0,113.0771479999994
42,164.10253900000043,150.0,137.82031300000017,131.15380900000036,119.87158199999976,116.53857400000015,116.0258789999998,117.05126999999993,115.76904300000024,101.2822270000006,149.7436520000001,124.23095699999976,194.10253900000043,114.23095699999976
43,163.46142599999985,152.6923829999996,138.3334960000002,137.6923829999996,118.20507799999996,116.15380900000036,117.43603499999972,118.58984400000008,120.25634799999989,104.87158199999976,146.6665039999998,123.9741210000002,188.0771479999994,114.10253900000043
44,163.84619099999964,149.61523400000078,136.9228520000006,138.0771479999994,107.69238299999961,116.0258789999998,117.56396500000028,118.58984400000008,119.87158199999976,109.23095699999976,142.43603499999972,125.25634799999989,182.17968800000017,113.84619099999964
45,166.41015599999992,145.12841800000024,135.38476599999922,134.7436520000001,95.38476599999922,116.41015599999992,117.69238299999961,118.58984400000008,117.17968800000017,114.35888699999941,141.6665039999998,128.0771479999994,181.2822270000006,114.23095699999976
46,169.87158199999976,142.6923829999996,135.38476599999922,131.53857400000015,87.69238299999961,116.79492200000004,117.69238299999961,119.23095699999976,115.51269500000035,118.3334960000002,145.38476599999922,131.0258789999998,186.2822270000006,114.87158199999976
47,172.05126999999993,143.58984400000008,136.79492200000004,130.6411130000006,86.79492200000004,116.79492200000004,117.05126999999993,120.51269500000035,116.53857400000015,119.35888699999941,150.6411130000006,132.56396500000028,193.7177729999994,115.0
48,171.9228520000006,146.41015599999992,138.46142599999985,131.79492200000004,90.76904300000024,116.2822270000006,115.51269500000035,120.76904300000024,119.10253900000043,116.6665039999998,153.9741210000002,132.3076170000004,198.46142599999985,114.87158199999976
49,170.38476599999922,148.7177729999994,138.84619099999964,133.20507799999996,95.89746099999957,115.89746099999957,112.82031300000017,119.23095699999976,120.64111300000059,112.56396500000028,153.9741210000002,131.15380900000036,198.3334960000002,114.74365200000011
50,169.23095699999976,149.23095699999976,138.3334960000002,132.94873000000007,99.23095699999976,116.0258789999998,109.48730499999965,116.53857400000015,119.48730499999965,109.23095699999976,152.05126999999993,130.12841800000024,194.23095699999976,114.87158199999976
51,169.61523400000078,148.3334960000002,137.94873000000007,131.41015599999992,100.38476599999922,116.6665039999998,106.53857400000015,114.48730499999965,116.15380900000036,107.94873000000007,149.23095699999976,130.2563479999999,189.87158199999976,115.38476599999922
52,172.05126999999993,148.0771479999994,139.3588869999994,130.6411130000006,99.74365200000011,116.9228520000006,105.25634799999989,114.48730499999965,112.69238299999961,108.7177729999994,147.05126999999993,131.41015599999992,188.58984400000008,115.51269500000035
53,175.76904300000024,150.12841800000024,142.6923829999996,132.43603499999972,98.7177729999994,116.15380900000036,106.0258789999998,116.2822270000006,111.0258789999998,110.89746099999957,146.0258789999998,132.6923829999996,191.15380900000036,114.74365200000011
54,180.0,153.7177729999994,146.79492200000004,136.15380900000036,97.43603499999972,114.87158199999976,108.46142599999985,117.82031300000017,111.41015599999992,113.9741210000002,146.6665039999998,133.58984400000008,195.89746099999957,112.94873000000007
55,183.7177729999994,155.76904300000024,150.12841800000024,139.23095699999976,96.2822270000006,114.35888699999941,110.76904300000024,116.6665039999998,112.05126999999993,116.9228520000006,148.58984400000008,134.10253900000043,200.38476599999922,111.79492200000004
56,185.38476599999922,154.48730499999965,151.41015599999992,139.7436520000001,95.38476599999922,115.38476599999922,111.2822270000006,112.30761700000039,110.51269500000035,117.82031300000017,150.38476599999922,134.3588869999994,202.3076170000004,112.17968800000017
57,184.3588869999994,150.89746099999957,150.38476599999922,138.20507799999996,94.48730499999965,117.17968800000017,109.23095699999976,105.89746099999957,105.89746099999957,116.0258789999998,151.2822270000006,133.84619099999964,201.53857400000015,113.7177729999994
58,181.6665039999998,148.7177729999994,147.6923829999996,137.05126999999993,94.35888699999941,118.3334960000002,105.76904300000024,100.25634799999989,99.87158199999976,112.43603499999972,150.76904300000024,132.56396500000028,199.10253900000043,115.0
59,179.10253900000043,151.53857400000015,145.12841800000024,138.0771479999994,96.6665039999998,118.46142599999985,103.58984400000008,98.0771479999994,96.79492200000004,109.74365200000011,149.7436520000001,131.41015599999992,196.53857400000015,115.38476599999922
60,178.58984400000008,160.12841800000024,144.3588869999994,142.3076170000004,102.69238299999961,118.0771479999994,105.12841800000024,100.89746099999957,100.12841800000024,110.89746099999957,148.9741210000002,131.79492200000004,195.89746099999957,115.0
61,180.51269500000035,171.2822270000006,145.38476599999922,147.82031300000017,111.0258789999998,117.69238299999961,110.25634799999989,107.82031300000017,108.9741210000002,115.51269500000035,148.7177729999994,133.0771479999994,197.17968800000017,114.61523400000078
62,182.94873000000007,179.10253900000043,146.6665039999998,151.53857400000015,116.6665039999998,117.56396500000028,116.2822270000006,115.25634799999989,118.0771479999994,119.48730499999965,148.46142599999985,133.7177729999994,198.3334960000002,114.35888699999941
63,182.6923829999996,179.10253900000043,146.41015599999992,151.53857400000015,114.74365200000011,117.05126999999993,120.0,118.7177729999994,121.41015599999992,119.23095699999976,147.56396500000028,132.43603499999972,197.3076170000004,114.23095699999976
64,178.7177729999994,171.6665039999998,144.3588869999994,148.20507799999996,106.0258789999998,116.53857400000015,119.87158199999976,116.53857400000015,116.9228520000006,114.23095699999976,145.6411130000006,129.87158199999976,194.48730499999965,114.48730499999965
65,173.7177729999994,162.3076170000004,141.41015599999992,144.61523400000078,97.30761700000039,116.41015599999992,117.43603499999972,111.0258789999998,108.3334960000002,107.69238299999961,143.46142599999985,128.0771479999994,192.56396500000028,115.12841800000024
66,171.2822270000006,157.94873000000007,139.61523400000078,143.84619099999964,96.15380900000036,116.79492200000004,115.38476599999922,106.79492200000004,102.69238299999961,104.48730499999965,142.94873000000007,128.3334960000002,194.7436520000001,115.89746099999957
67,172.82031300000017,161.2822270000006,140.12841800000024,146.79492200000004,104.23095699999976,117.56396500000028,115.12841800000024,106.9228520000006,104.23095699999976,107.05126999999993,144.7436520000001,130.2563479999999,200.89746099999957,116.0258789999998
68,176.0258789999998,168.9741210000002,142.56396500000028,151.0258789999998,115.89746099999957,117.94873000000007,115.51269500000035,110.64111300000059,110.51269500000035,113.58984400000008,147.82031300000017,131.9228520000006,207.05126999999993,115.51269500000035
69,177.43603499999972,174.87158199999976,144.61523400000078,152.82031300000017,122.82031300000017,117.82031300000017,114.74365200000011,115.25634799999989,115.89746099999957,119.23095699999976,148.9741210000002,131.9228520000006,208.3334960000002,114.61523400000078
70,176.53857400000015,175.6411130000006,144.7436520000001,151.2822270000006,121.6665039999998,117.30761700000039,112.94873000000007,118.0771479999994,116.6665039999998,121.6665039999998,146.53857400000015,130.12841800000024,203.3334960000002,113.84619099999964
71,176.6665039999998,174.10253900000043,143.9741210000002,149.10253900000043,116.2822270000006,116.6665039999998,113.20507799999996,118.46142599999985,115.25634799999989,122.30761700000039,143.20507799999996,128.7177729999994,196.2822270000006,113.20507799999996
72,181.15380900000036,175.38476599999922,144.61523400000078,150.2563479999999,112.56396500000028,116.53857400000015,118.3334960000002,117.94873000000007,115.89746099999957,125.0,143.58984400000008,129.23095699999976,193.20507799999996,113.3334960000002
73,189.23095699999976,180.76904300000024,147.6923829999996,155.0,112.69238299999961,116.9228520000006,126.41015599999992,117.82031300000017,120.76904300000024,130.12841800000024,149.3588869999994,132.05126999999993,196.2822270000006,114.10253900000043
74,196.6665039999998,186.6665039999998,151.41015599999992,160.51269500000035,114.23095699999976,117.43603499999972,132.56396500000028,118.3334960000002,127.05126999999993,134.48730499999965,157.17968800000017,135.12841800000024,203.0771479999994,115.12841800000024
75,198.3334960000002,188.3334960000002,152.43603499999972,163.58984400000008,113.46142599999985,117.82031300000017,132.17968800000017,118.58984400000008,129.7436520000001,134.10253900000043,161.2822270000006,136.15380900000036,208.20507799999996,115.38476599999922
76,192.94873000000007,183.84619099999964,149.23095699999976,162.6923829999996,108.9741210000002,117.94873000000007,125.38476599999922,118.0771479999994,126.9228520000006,128.84619099999964,157.94873000000007,134.3588869999994,207.43603499999972,114.74365200000011
77,183.7177729999994,176.0258789999998,144.10253900000043,158.7177729999994,103.3334960000002,117.82031300000017,115.89746099999957,116.6665039999998,120.64111300000059,122.30761700000039,148.58984400000008,131.15380900000036,200.51269500000035,113.84619099999964
78,176.53857400000015,170.0,140.12841800000024,155.0,100.76904300000024,117.17968800000017,108.3334960000002,115.12841800000024,115.51269500000035,118.84619099999964,138.20507799999996,128.9741210000002,191.6665039999998,113.58984400000008
79,175.51269500000035,169.61523400000078,139.61523400000078,154.61523400000078,103.58984400000008,116.53857400000015,105.76904300000024,113.7177729999994,114.23095699999976,119.74365200000011,133.0771479999994,128.58984400000008,185.89746099999957,114.10253900000043
80,179.3588869999994,174.87158199999976,141.79492200000004,157.94873000000007,110.0,116.2822270000006,107.82031300000017,113.20507799999996,115.89746099999957,122.94873000000007,135.2563479999999,129.7436520000001,185.51269500000035,114.74365200000011
81,182.56396500000028,181.15380900000036,144.10253900000043,162.05126999999993,115.64111300000059,116.6665039999998,112.17968800000017,113.7177729999994,116.6665039999998,124.10253900000043,141.53857400000015,131.2822270000006,187.6923829999996,115.12841800000024
82,180.38476599999922,182.94873000000007,144.23095699999976,162.82031300000017,117.30761700000039,117.17968800000017,116.2822270000006,114.61523400000078,114.10253900000043,121.0258789999998,146.2822270000006,132.82031300000017,188.58984400000008,115.12841800000024
83,172.43603499999972,178.7177729999994,142.43603499999972,159.3588869999994,115.89746099999957,117.82031300000017,118.84619099999964,115.76904300000024,109.35888699999941,115.64111300000059,146.2822270000006,133.46142599999985,186.6665039999998,114.61523400000078
84,163.58984400000008,171.6665039999998,140.38476599999922,154.61523400000078,114.87158199999976,118.0771479999994,119.87158199999976,117.05126999999993,106.2822270000006,112.30761700000039,142.3076170000004,132.94873000000007,184.10253900000043,114.10253900000043
85,158.7177729999994,166.9228520000006,139.61523400000078,151.41015599999992,115.25634799999989,118.0771479999994,119.61523400000078,117.82031300000017,107.56396500000028,113.20507799999996,137.56396500000028,130.6411130000006,183.0771479999994,114.23095699999976
86,158.0771479999994,165.6411130000006,138.58984400000008,148.9741210000002,114.35888699999941,117.69238299999961,117.69238299999961,116.0258789999998,110.38476599999922,114.61523400000078,133.20507799999996,126.79492200000004,182.17968800000017,115.0
87,157.43603499999972,164.87158199999976,135.6411130000006,144.48730499999965,108.46142599999985,117.17968800000017,113.0771479999994,110.51269500000035,109.35888699999941,110.89746099999957,128.0771479999994,122.05126999999993,178.3334960000002,115.89746099999957
88,153.58984400000008,161.9228520000006,130.51269500000035,137.3076170000004,98.3334960000002,116.6665039999998,106.9228520000006,102.69238299999961,101.53857400000015,100.64111300000059,121.2822270000006,118.46142599999985,171.0258789999998,116.15380900000036
89,148.3334960000002,158.7177729999994,126.9228520000006,131.0258789999998,91.15380900000036,116.41015599999992,103.58984400000008,96.6665039999998,91.2822270000006,89.74365200000011,115.12841800000024,118.0771479999994,164.3588869999994,115.51269500000035
90,146.9228520000006,159.3588869999994,128.84619099999964,130.76904300000024,93.58984400000008,116.6665039999998,106.6665039999998,96.9228520000006,86.79492200000004,86.41015599999992,113.84619099999964,121.9228520000006,163.58984400000008,114.61523400000078
91,152.6923829999996,165.89746099999957,136.9228520000006,138.20507799999996,105.64111300000059,116.9228520000006,115.12841800000024,103.9741210000002,92.17968800000017,93.7177729999994,119.35888699999941,128.58984400000008,169.87158199999976,114.35888699999941
92,163.0771479999994,174.7436520000001,146.6665039999998,149.7436520000001,119.35888699999941,116.41015599999992,123.46142599999985,113.84619099999964,103.3334960000002,106.53857400000015,128.58984400000008,134.23095699999976,178.46142599999985,114.74365200000011
93,171.41015599999992,180.0,151.9228520000006,158.20507799999996,125.38476599999922,115.25634799999989,126.79492200000004,120.38476599999922,112.17968800000017,115.89746099999957,135.76904300000024,136.2822270000006,182.43603499999972,115.51269500000035
94,173.46142599999985,178.46142599999985,150.6411130000006,159.48730499999965,120.64111300000059,114.35888699999941,124.35888699999941,120.25634799999989,113.7177729999994,116.2822270000006,137.05126999999993,135.0,179.10253900000043,115.64111300000059
95,169.61523400000078,172.17968800000017,145.2563479999999,154.10253900000043,109.87158199999976,114.74365200000011,119.61523400000078,115.0,109.23095699999976,109.35888699999941,133.7177729999994,133.20507799999996,171.9228520000006,114.35888699999941
96,164.23095699999976,165.38476599999922,140.12841800000024,147.05126999999993,99.87158199999976,116.41015599999992,115.38476599999922,108.58984400000008,103.46142599999985,101.53857400000015,129.87158199999976,132.6923829999996,167.05126999999993,112.43603499999972
97,160.89746099999957,160.76904300000024,137.56396500000028,142.43603499999972,94.48730499999965,117.43603499999972,111.9228520000006,103.58984400000008,99.74365200000011,97.43603499999972,128.20507799999996,132.17968800000017,166.79492200000004,111.15380900000036
98,160.2563479999999,158.9741210000002,136.79492200000004,141.9228520000006,93.84619099999964,116.79492200000004,107.69238299999961,100.25634799999989,97.17968800000017,98.0771479999994,127.94873000000007,130.0,169.61523400000078,111.79492200000004
99,160.89746099999957,160.0,136.79492200000004,144.7436520000001,96.79492200000004,114.48730499999965,102.43603499999972,97.82031300000017,94.48730499999965,101.6665039999998,127.56396500000028,126.15380900000036,172.3076170000004,114.10253900000043
100,162.3076170000004,164.87158199999976,138.0771479999994,149.3588869999994,103.58984400000008,111.6665039999998,98.9741210000002,96.9228520000006,92.82031300000017,106.53857400000015,127.43603499999972,123.46142599999985,173.84619099999964,116.6665039999998
101,164.7436520000001,174.10253900000043,141.6665039999998,155.12841800000024,114.35888699999941,110.0,100.76904300000024,98.9741210000002,95.38476599999922,112.05126999999993,129.3588869999994,124.48730499999965,175.38476599999922,117.82031300000017
102,168.46142599999985,185.51269500000035,146.6665039999998,161.53857400000015,126.41015599999992,110.25634799999989,107.94873000000007,104.35888699999941,103.20507799999996,118.0771479999994,134.3588869999994,129.23095699999976,178.58984400000008,117.43603499999972
103,171.9228520000006,192.82031300000017,150.12841800000024,166.6665039999998,133.58984400000008,112.69238299999961,116.6665039999998,110.64111300000059,113.3334960000002,123.20507799999996,139.10253900000043,134.3588869999994,182.05126999999993,116.41015599999992
104,171.6665039999998,190.38476599999922,149.3588869999994,167.6923829999996,130.51269500000035,115.38476599999922,121.15380900000036,113.84619099999964,119.61523400000078,124.48730499999965,138.84619099999964,135.76904300000024,182.05126999999993,115.76904300000024
105,165.89746099999957,177.3076170000004,143.9741210000002,162.56396500000028,117.56396500000028,116.2822270000006,118.84619099999964,111.53857400000015,117.94873000000007,119.48730499999965,131.6665039999998,131.6665039999998,175.89746099999957,115.64111300000059
106,156.0258789999998,159.3588869999994,136.41015599999992,153.0771479999994,101.9228520000006,114.74365200000011,111.79492200000004,104.74365200000011,108.9741210000002,108.46142599999985,120.64111300000059,124.23095699999976,165.76904300000024,115.64111300000059
107,146.79492200000004,145.76904300000024,130.6411130000006,144.10253900000043,94.35888699999941,112.94873000000007,105.76904300000024,98.0771479999994,98.0771479999994,96.6665039999998,112.17968800000017,117.94873000000007,157.82031300000017,115.25634799999989
108,142.6923829999996,143.9741210000002,129.7436520000001,140.6411130000006,101.0258789999998,113.58984400000008,105.89746099999957,96.6665039999998,92.30761700000039,91.41015599999992,111.15380900000036,116.2822270000006,156.41015599999992,114.23095699999976
109,144.48730499999965,153.7177729999994,133.0771479999994,143.84619099999964,118.58984400000008,116.41015599999992,112.94873000000007,102.43603499999972,94.74365200000011,96.0258789999998,116.6665039999998,119.23095699999976,161.15380900000036,112.69238299999961
110,148.58984400000008,167.3076170000004,137.43603499999972,150.0,134.61523400000078,118.20507799999996,122.05126999999993,112.17968800000017,101.9228520000006,105.38476599999922,123.46142599999985,123.3334960000002,165.76904300000024,111.79492200000004
111,150.0,175.38476599999922,139.23095699999976,154.10253900000043,136.79492200000004,116.79492200000004,127.43603499999972,119.10253900000043,107.56396500000028,110.12841800000024,125.76904300000024,125.12841800000024,164.23095699999976,112.05126999999993
112,147.3076170000004,173.9741210000002,137.56396500000028,154.10253900000043,123.3334960000002,113.0771479999994,126.41015599999992,119.10253900000043,108.0771479999994,105.51269500000035,122.82031300000017,123.46142599999985,156.15380900000036,113.20507799999996
113,143.46142599999985,166.2822270000006,135.0,151.6665039999998,104.48730499999965,109.48730499999965,121.79492200000004,113.20507799999996,105.25634799999989,94.61523400000078,119.23095699999976,119.87158199999976,147.17968800000017,114.35888699999941
114,142.17968800000017,157.56396500000028,133.58984400000008,149.3588869999994,93.3334960000002,107.94873000000007,117.69238299999961,106.6665039999998,102.43603499999972,85.76904300000024,119.35888699999941,116.9228520000006,142.6923829999996,114.61523400000078
115,143.3334960000002,150.2563479999999,132.82031300000017,147.82031300000017,95.12841800000024,108.9741210000002,115.64111300000059,103.3334960000002,101.0258789999998,84.74365200000011,122.94873000000007,115.64111300000059,142.94873000000007,114.23095699999976
116,143.7177729999994,144.87158199999976,131.15380900000036,145.76904300000024,105.38476599999922,111.15380900000036,114.48730499999965,103.9741210000002,100.12841800000024,91.53857400000015,126.2822270000006,115.89746099999957,144.3588869999994,113.9741210000002
117,142.05126999999993,142.43603499999972,129.3588869999994,142.94873000000007,114.74365200000011,112.94873000000007,113.3334960000002,107.05126999999993,99.48730499999965,101.41015599999992,127.56396500000028,117.05126999999993,144.10253900000043,114.10253900000043
118,140.2563479999999,145.2563479999999,130.0,141.15380900000036,117.30761700000039,113.0771479999994,112.94873000000007,110.64111300000059,100.76904300000024,110.0,129.10253900000043,119.87158199999976,143.20507799999996,114.61523400000078
119,142.05126999999993,154.48730499999965,134.23095699999976,142.6923829999996,113.9741210000002,112.05126999999993,114.61523400000078,114.10253900000043,106.0258789999998,115.12841800000024,135.38476599999922,124.87158199999976,145.12841800000024,114.74365200000011
120,148.9741210000002,167.3076170000004,140.6411130000006,148.20507799999996,110.64111300000059,111.53857400000015,118.7177729999994,116.53857400000015,114.35888699999941,117.56396500000028,148.46142599999985,131.6665039999998,152.6923829999996,114.35888699999941
121,158.20507799999996,178.84619099999964,145.6411130000006,155.2563479999999,111.9228520000006,111.6665039999998,122.30761700000039,117.05126999999993,121.6665039999998,118.46142599999985,164.61523400000078,137.3076170000004,164.10253900000043,113.58984400000008
122,164.3588869999994,183.84619099999964,145.89746099999957,159.48730499999965,116.79492200000004,111.9228520000006,121.9228520000006,114.61523400000078,123.0771479999994,117.94873000000007,176.41015599999992,138.3334960000002,174.10253900000043,112.69238299999961
123,163.3334960000002,180.89746099999957,141.15380900000036,157.43603499999972,119.87158199999976,110.64111300000059,116.0258789999998,109.23095699999976,116.41015599999992,115.0,177.94873000000007,133.46142599999985,176.2822270000006,112.56396500000028
124,156.0258789999998,172.05126999999993,134.10253900000043,150.0,116.15380900000036,107.94873000000007,106.9228520000006,102.56396500000028,104.74365200000011,109.61523400000078,169.87158199999976,125.0,168.46142599999985,113.7177729999994
125,147.82031300000017,162.3076170000004,128.46142599999985,142.43603499999972,106.53857400000015,105.51269500000035,98.84619099999964,96.9228520000006,94.10253900000043,103.9741210000002,158.9741210000002,117.56396500000028,154.10253900000043,115.64111300000059
126,144.10253900000043,156.53857400000015,127.56396500000028,141.0258789999998,97.56396500000028,105.89746099999957,95.51269500000035,94.48730499999965,90.12841800000024,101.0258789999998,152.82031300000017,115.64111300000059,141.79492200000004,116.9228520000006
127,146.9228520000006,157.3076170000004,132.17968800000017,148.46142599999985,96.41015599999992,109.87158199999976,98.84619099999964,96.41015599999992,95.12841800000024,103.58984400000008,155.89746099999957,120.0,139.61523400000078,116.6665039999998
128,154.61523400000078,164.7436520000001,140.51269500000035,161.2822270000006,105.38476599999922,115.76904300000024,107.69238299999961,102.94873000000007,106.9228520000006,111.6665039999998,166.6665039999998,128.0771479999994,149.61523400000078,115.0
129,163.20507799999996,176.6665039999998,148.46142599999985,172.3076170000004,120.12841800000024,120.25634799999989,118.20507799999996,112.56396500000028,120.76904300000024,122.05126999999993,180.12841800000024,135.51269500000035,166.2822270000006,112.94873000000007
130,169.23095699999976,188.7177729999994,152.3076170000004,175.76904300000024,133.20507799999996,121.41015599999992,126.2822270000006,122.69238299999961,132.3076170000004,130.6411130000006,189.7436520000001,138.9741210000002,180.76904300000024,111.6665039999998
131,171.15380900000036,196.15380900000036,150.89746099999957,170.76904300000024,139.10253900000043,120.12841800000024,129.7436520000001,130.51269500000035,138.46142599999985,135.12841800000024,192.05126999999993,137.94873000000007,186.41015599999992,111.9228520000006
132,168.9741210000002,195.51269500000035,145.6411130000006,160.6411130000006,136.15380900000036,118.3334960000002,129.23095699999976,133.9741210000002,138.0771479999994,135.0,187.17968800000017,134.10253900000043,182.17968800000017,113.0771479999994
133,163.0771479999994,185.89746099999957,138.7177729999994,149.61523400000078,125.51269500000035,116.9228520000006,125.89746099999957,131.79492200000004,131.2822270000006,130.0,177.3076170000004,129.10253900000043,171.79492200000004,114.35888699999941
134,154.48730499999965,170.51269500000035,132.3076170000004,140.2563479999999,111.15380900000036,116.2822270000006,120.89746099999957,124.87158199999976,120.12841800000024,120.51269500000035,166.15380900000036,123.9741210000002,160.51269500000035,114.61523400000078
135,145.38476599999922,156.2822270000006,127.94873000000007,133.58984400000008,98.7177729999994,116.41015599999992,115.38476599999922,116.2822270000006,108.58984400000008,109.74365200000011,157.82031300000017,119.48730499999965,152.94873000000007,114.23095699999976
136,140.38476599999922,150.2563479999999,126.79492200000004,130.76904300000024,94.10253900000043,117.43603499999972,111.2822270000006,110.76904300000024,101.6665039999998,103.20507799999996,155.76904300000024,116.9228520000006,151.79492200000004,114.23095699999976
137,142.43603499999972,154.61523400000078,128.58984400000008,133.0771479999994,99.48730499999965,118.20507799999996,110.89746099999957,111.53857400000015,102.30761700000039,104.74365200000011,159.87158199999976,117.30761700000039,156.15380900000036,115.38476599999922
138,150.6411130000006,165.0,130.76904300000024,138.7177729999994,111.79492200000004,117.82031300000017,114.87158199999976,117.17968800000017,108.9741210000002,112.30761700000039,166.2822270000006,120.0,161.9228520000006,117.17968800000017
139,159.3588869999994,173.58984400000008,131.2822270000006,143.46142599999985,124.10253900000043,116.79492200000004,120.64111300000059,123.20507799999996,116.9228520000006,120.51269500000035,170.2563479999999,122.94873000000007,164.7436520000001,117.94873000000007
140,164.10253900000043,176.15380900000036,130.0,144.23095699999976,130.51269500000035,116.53857400000015,125.76904300000024,125.64111300000059,121.79492200000004,124.61523400000078,170.38476599999922,124.87158199999976,163.9741210000002,116.9228520000006
141,164.10253900000043,173.20507799999996,129.10253900000043,141.6665039999998,128.9741210000002,116.79492200000004,128.58984400000008,124.10253900000043,122.43603499999972,125.0,169.23095699999976,126.15380900000036,162.17968800000017,114.87158199999976
142,161.53857400000015,168.0771479999994,130.0,139.10253900000043,121.53857400000015,116.9228520000006,128.7177729999994,120.76904300000024,120.38476599999922,125.0,169.87158199999976,127.69238299999961,163.0771479999994,113.3334960000002
143,159.3588869999994,163.0771479999994,132.17968800000017,138.7177729999994,113.3334960000002,116.6665039999998,125.89746099999957,117.82031300000017,118.0771479999994,127.05126999999993,172.82031300000017,129.3588869999994,167.05126999999993,112.94873000000007
144,158.84619099999964,159.10253900000043,133.84619099999964,140.6411130000006,108.46142599999985,116.41015599999992,120.0,116.2822270000006,116.9228520000006,129.48730499999965,175.38476599999922,130.51269500000035,171.79492200000004,113.46142599999985
145,158.9741210000002,156.53857400000015,133.46142599999985,142.17968800000017,108.20507799999996,116.53857400000015,111.9228520000006,115.38476599999922,116.41015599999992,129.48730499999965,174.87158199999976,130.0,173.58984400000008,114.35888699999941
146,157.94873000000007,155.89746099999957,131.6665039999998,141.15380900000036,111.41015599999992,116.9228520000006,104.87158199999976,114.74365200000011,115.64111300000059,125.89746099999957,171.0258789999998,127.82031300000017,171.0258789999998,114.48730499999965
147,155.12841800000024,157.6923829999996,129.61523400000078,137.6923829999996,115.64111300000059,117.05126999999993,101.9228520000006,114.10253900000043,114.61523400000078,121.0258789999998,165.89746099999957,124.87158199999976,165.76904300000024,113.46142599999985
148,151.2822270000006,160.89746099999957,128.3334960000002,135.2563479999999,119.61523400000078,117.05126999999993,103.9741210000002,113.84619099999964,114.10253900000043,118.58984400000008,162.05126999999993,122.82031300000017,161.0258789999998,111.9228520000006
149,148.46142599999985,163.7177729999994,128.84619099999964,137.3076170000004,123.3334960000002,117.43603499999972,109.10253900000043,114.48730499999965,114.87158199999976,120.25634799999989,160.12841800000024,123.0771479999994,159.10253900000043,111.2822270000006
150,147.94873000000007,165.12841800000024,130.89746099999957,144.3588869999994,127.56396500000028,118.0771479999994,114.48730499999965,115.64111300000059,116.9228520000006,125.38476599999922,159.48730499999965,125.0,160.2563479999999,112.30761700000039
151,149.23095699999976,164.7436520000001,133.0771479999994,151.9228520000006,130.51269500000035,118.46142599999985,117.94873000000007,117.05126999999993,118.7177729999994,130.2563479999999,158.3334960000002,126.53857400000015,162.43603499999972,114.48730499999965
152,150.38476599999922,163.0771479999994,133.20507799999996,154.87158199999976,129.3588869999994,118.20507799999996,118.84619099999964,117.69238299999961,117.30761700000039,130.51269500000035,155.2563479999999,125.38476599999922,161.6665039999998,116.53857400000015
153,149.10253900000043,160.76904300000024,129.87158199999976,150.76904300000024,123.3334960000002,117.43603499999972,117.43603499999972,116.53857400000015,111.41015599999992,123.9741210000002,150.2563479999999,121.41015599999992,155.6411130000006,117.30761700000039
154,145.38476599999922,158.3334960000002,124.48730499999965,142.43603499999972,115.51269500000035,116.6665039999998,115.25634799999989,113.9741210000002,103.20507799999996,113.3334960000002,145.2563479999999,117.05126999999993,146.2822270000006,116.41015599999992
155,141.79492200000004,156.6665039999998,120.12841800000024,136.0258789999998,110.64111300000059,116.0258789999998,113.7177729999994,111.6665039999998,97.43603499999972,104.87158199999976,142.56396500000028,115.51269500000035,138.58984400000008,114.35888699999941
156,141.15380900000036,156.41015599999992,119.74365200000011,136.0258789999998,110.76904300000024,115.64111300000059,114.10253900000043,111.15380900000036,98.20507799999996,102.94873000000007,143.46142599999985,118.0771479999994,137.3076170000004,112.56396500000028
157,144.23095699999976,157.94873000000007,123.7177729999994,141.9228520000006,114.10253900000043,115.64111300000059,116.0258789999998,112.43603499999972,105.12841800000024,107.17968800000017,146.6665039999998,122.94873000000007,142.6923829999996,112.82031300000017
158,148.46142599999985,161.0258789999998,129.7436520000001,149.3588869999994,117.56396500000028,115.89746099999957,118.0771479999994,114.74365200000011,113.58984400000008,114.35888699999941,149.48730499999965,126.79492200000004,150.38476599999922,115.25634799999989
159,150.38476599999922,164.61523400000078,133.84619099999964,153.7177729999994,119.23095699999976,116.15380900000036,119.48730499999965,117.30761700000039,118.3334960000002,120.64111300000059,149.3588869999994,126.6665039999998,154.23095699999976,118.20507799999996
160,148.0771479999994,166.6665039999998,133.20507799999996,153.20507799999996,118.58984400000008,116.2822270000006,120.25634799999989,118.9741210000002,117.82031300000017,123.9741210000002,144.48730499999965,122.82031300000017,150.51269500000035,119.35888699999941
161,141.9228520000006,164.61523400000078,128.3334960000002,148.20507799999996,116.6665039999998,116.0258789999998,120.38476599999922,119.23095699999976,113.9741210000002,123.9741210000002,135.2563479999999,117.94873000000007,140.0,117.43603499999972
162,134.87158199999976,157.17968800000017,121.6665039999998,140.2563479999999,115.0,115.64111300000059,119.48730499999965,118.20507799999996,110.12841800000024,121.0258789999998,123.7177729999994,114.74365200000011,127.17968800000017,113.58984400000008
163,129.10253900000043,146.79492200000004,116.41015599999992,131.53857400000015,115.0,115.51269500000035,116.9228520000006,116.15380900000036,108.0771479999994,116.0258789999998,113.20507799999996,113.9741210000002,117.69238299999961,110.38476599999922
164,126.0258789999998,138.7177729999994,113.9741210000002,124.87158199999976,116.15380900000036,115.51269500000035,113.20507799999996,113.84619099999964,107.43603499999972,111.2822270000006,107.43603499999972,114.35888699999941,114.61523400000078,109.61523400000078
165,126.0258789999998,137.82031300000017,113.84619099999964,123.20507799999996,117.56396500000028,115.64111300000059,110.38476599999922,112.30761700000039,107.69238299999961,108.7177729999994,107.82031300000017,115.0,117.69238299999961,111.6665039999998
166,128.58984400000008,145.12841800000024,116.15380900000036,128.20507799999996,119.10253900000043,115.76904300000024,110.38476599999922,112.82031300000017,108.58984400000008,110.25634799999989,113.58984400000008,116.0258789999998,125.0,114.87158199999976
167,133.46142599999985,156.79492200000004,120.89746099999957,138.3334960000002,120.76904300000024,116.41015599999992,113.3334960000002,116.2822270000006,111.2822270000006,116.0258789999998,122.56396500000028,118.46142599999985,133.9741210000002,117.30761700000039
168,139.87158199999976,166.53857400000015,127.56396500000028,149.3588869999994,122.69238299999961,117.43603499999972,117.69238299999961,121.2822270000006,115.51269500000035,123.46142599999985,131.41015599999992,122.56396500000028,141.79492200000004,117.43603499999972
169,145.38476599999922,168.9741210000002,133.58984400000008,155.2563479999999,123.3334960000002,118.46142599999985,121.15380900000036,124.10253900000043,118.46142599999985,127.69238299999961,136.41015599999992,126.41015599999992,145.38476599999922,115.38476599999922
170,146.6665039999998,162.94873000000007,135.51269500000035,152.82031300000017,120.76904300000024,118.7177729999994,121.15380900000036,121.53857400000015,117.05126999999993,125.0,134.7436520000001,127.69238299999961,142.43603499999972,113.0771479999994
171,142.3076170000004,152.6923829999996,131.79492200000004,143.84619099999964,115.38476599999922,118.0771479999994,117.82031300000017,113.7177729999994,110.64111300000059,115.64111300000059,126.79492200000004,125.38476599999922,133.46142599999985,112.17968800000017
172,134.3588869999994,144.10253900000043,124.74365200000011,134.3588869999994,109.74365200000011,116.79492200000004,113.9741210000002,105.12841800000024,102.17968800000017,104.48730499999965,117.43603499999972,121.79492200000004,122.43603499999972,112.94873000000007
173,128.0771479999994,141.41015599999992,119.48730499999965,130.0,108.0771479999994,115.51269500000035,113.0771479999994,100.76904300000024,96.6665039999998,97.69238299999961,112.30761700000039,120.25634799999989,114.48730499999965,114.48730499999965
174,127.17968800000017,143.9741210000002,118.9741210000002,131.6665039999998,111.6665039999998,114.61523400000078,116.0258789999998,102.82031300000017,96.79492200000004,97.69238299999961,114.48730499999965,122.30761700000039,113.0771479999994,115.51269500000035
175,131.41015599999992,147.43603499999972,122.56396500000028,135.38476599999922,117.43603499999972,114.35888699999941,120.51269500000035,108.58984400000008,100.64111300000059,101.15380900000036,121.2822270000006,125.89746099999957,117.30761700000039,115.38476599999922
176,135.89746099999957,147.3076170000004,126.0258789999998,136.2822270000006,120.12841800000024,114.87158199999976,122.17968800000017,112.69238299999961,103.9741210000002,103.46142599999985,126.79492200000004,127.56396500000028,122.69238299999961,114.48730499999965
177,135.76904300000024,141.53857400000015,125.64111300000059,131.6665039999998,116.53857400000015,115.64111300000059,119.35888699999941,111.15380900000036,103.46142599999985,102.94873000000007,126.9228520000006,125.12841800000024,124.61523400000078,113.46142599999985
178,129.23095699999976,132.05126999999993,121.0258789999998,123.20507799999996,107.56396500000028,116.2822270000006,113.46142599999985,104.74365200000011,99.61523400000078,101.9228520000006,121.41015599999992,119.61523400000078,121.79492200000004,112.56396500000028
179,119.35888699999941,123.58984400000008,115.12841800000024,115.38476599999922,98.0771479999994,116.79492200000004,108.20507799999996,97.69238299999961,96.15380900000036,102.94873000000007,113.9741210000002,114.48730499999965,116.79492200000004,111.9228520000006
180,111.6665039999998,121.2822270000006,111.53857400000015,112.05126999999993,93.9741210000002,117.30761700000039,106.0258789999998,94.48730499999965,96.15380900000036,106.53857400000015,108.84619099999964,112.30761700000039,113.46142599999985,111.79492200000004
181,109.48730499999965,126.79492200000004,112.05126999999993,113.84619099999964,97.94873000000007,117.82031300000017,108.0771479999994,96.79492200000004,99.48730499999965,110.38476599999922,108.58984400000008,113.7177729999994,114.10253900000043,112.30761700000039
182,112.17968800000017,136.9228520000006,114.61523400000078,117.56396500000028,108.0771479999994,118.3334960000002,113.20507799999996,102.43603499999972,102.56396500000028,112.05126999999993,112.05126999999993,116.9228520000006,116.53857400000015,113.46142599999985
183,115.38476599999922,145.0,116.53857400000015,120.12841800000024,118.46142599999985,118.7177729999994,119.23095699999976,107.30761700000039,103.0771479999994,110.12841800000024,116.0258789999998,119.23095699999976,117.56396500000028,115.25634799999989
184,116.15380900000036,146.15380900000036,116.53857400000015,120.51269500000035,124.35888699999941,119.10253900000043,123.3334960000002,108.20507799999996,101.2822270000006,106.2822270000006,118.20507799999996,118.9741210000002,116.41015599999992,116.9228520000006
185,114.61523400000078,140.89746099999957,115.12841800000024,120.0,124.61523400000078,119.10253900000043,122.94873000000007,105.51269500000035,99.48730499999965,103.3334960000002,118.84619099999964,116.6665039999998,115.51269500000035,117.56396500000028
186,113.3334960000002,134.3588869999994,114.35888699999941,119.35888699999941,121.79492200000004,118.7177729999994,118.20507799999996,102.05126999999993,99.35888699999941,103.3334960000002,119.61523400000078,114.35888699999941,117.17968800000017,116.9228520000006
187,113.84619099999964,131.6665039999998,115.12841800000024,117.43603499999972,119.10253900000043,118.46142599999985,111.53857400000015,100.25634799999989,100.51269500000035,105.51269500000035,121.9228520000006,113.20507799999996,120.12841800000024,115.64111300000059
188,115.25634799999989,133.84619099999964,116.79492200000004,112.82031300000017,118.46142599999985,118.84619099999964,106.53857400000015,100.0,101.9228520000006,107.94873000000007,125.0,113.3334960000002,121.79492200000004,114.35888699999941
189,115.64111300000059,137.56396500000028,117.43603499999972,106.15380900000036,119.48730499999965,119.10253900000043,105.0,100.25634799999989,103.58984400000008,110.38476599999922,127.30761700000039,113.9741210000002,120.64111300000059,113.20507799999996
190,113.3334960000002,139.23095699999976,115.38476599999922,100.38476599999922,120.64111300000059,118.0771479999994,106.2822270000006,100.89746099999957,106.41015599999992,113.3334960000002,127.82031300000017,115.0,118.20507799999996,112.17968800000017
191,108.46142599999985,137.17968800000017,110.89746099999957,97.94873000000007,120.38476599999922,115.76904300000024,107.43603499999972,102.56396500000028,110.38476599999922,116.6665039999998,127.43603499999972,115.76904300000024,116.79492200000004,111.9228520000006
192,103.0771479999994,133.58984400000008,105.89746099999957,98.7177729999994,117.82031300000017,113.7177729999994,106.6665039999998,105.38476599999922,113.9741210000002,118.46142599999985,127.56396500000028,115.64111300000059,116.15380900000036,112.94873000000007
193,99.35888699999941,131.0258789999998,103.0771479999994,99.87158199999976,114.48730499999965,112.43603499999972,104.61523400000078,108.9741210000002,116.6665039999998,117.94873000000007,128.46142599999985,114.61523400000078,114.48730499999965,114.48730499999965
194,98.0771479999994,130.6411130000006,103.84619099999964,98.58984400000008,113.46142599999985,111.6665039999998,104.61523400000078,113.3334960000002,118.84619099999964,116.41015599999992,129.7436520000001,113.9741210000002,110.76904300000024,115.38476599999922
195,99.23095699999976,131.0258789999998,107.17968800000017,94.48730499999965,116.41015599999992,110.76904300000024,109.23095699999976,118.46142599999985,121.53857400000015,116.41015599999992,131.15380900000036,115.0,106.2822270000006,114.87158199999976
196,101.41015599999992,129.3588869999994,110.76904300000024,89.23095699999976,121.0258789999998,110.0,116.79492200000004,122.94873000000007,123.84619099999964,118.58984400000008,132.94873000000007,117.43603499999972,103.7177729999994,113.58984400000008
197,102.69238299999961,123.9741210000002,111.53857400000015,84.87158199999976,122.69238299999961,109.87158199999976,121.9228520000006,124.23095699999976,122.94873000000007,120.25634799999989,135.2563479999999,118.9741210000002,104.35888699999941,112.56396500000028
198,102.43603499999972,117.43603499999972,109.23095699999976,83.20507799999996,119.61523400000078,110.0,119.87158199999976,120.64111300000059,117.43603499999972,118.0771479999994,137.82031300000017,117.82031300000017,107.43603499999972,112.82031300000017
199,101.53857400000015,113.9741210000002,106.2822270000006,84.48730499999965,113.84619099999964,110.12841800000024,111.2822270000006,113.84619099999964,109.48730499999965,111.53857400000015,141.2822270000006,115.51269500000035,111.2822270000006,114.87158199999976
200,101.79492200000004,115.76904300000024,105.76904300000024,87.17968800000017,109.61523400000078,109.87158199999976,102.05126999999993,107.05126999999993,102.56396500000028,103.58984400000008,146.0258789999998,114.23095699999976,113.58984400000008,118.0771479999994
201,103.3334960000002,119.35888699999941,108.58984400000008,88.20507799999996,109.10253900000043,109.35888699999941,98.0771479999994,102.82031300000017,98.46142599999985,97.82031300000017,150.6411130000006,115.25634799999989,112.69238299999961,120.25634799999989
202,104.10253900000043,119.35888699999941,112.43603499999972,85.64111300000059,110.51269500000035,109.23095699999976,100.64111300000059,100.89746099999957,96.0258789999998,94.87158199999976,151.79492200000004,116.53857400000015,108.20507799999996,119.87158199999976
203,102.94873000000007,115.51269500000035,114.48730499999965,80.51269500000035,110.89746099999957,109.61523400000078,106.41015599999992,99.48730499999965,93.0771479999994,93.9741210000002,147.56396500000028,116.41015599999992,102.56396500000028,117.30761700000039
204,101.53857400000015,113.0771479999994,114.35888699999941,76.79492200000004,110.0,111.0258789999998,111.2822270000006,97.94873000000007,89.87158199999976,95.25634799999989,140.51269500000035,115.0,99.87158199999976,114.87158199999976
205,102.56396500000028,117.43603499999972,113.9741210000002,77.30761700000039,109.48730499999965,113.84619099999964,113.3334960000002,97.30761700000039,88.46142599999985,99.23095699999976,135.12841800000024,114.10253900000043,101.53857400000015,114.23095699999976
206,105.76904300000024,126.53857400000015,114.35888699999941,81.6665039999998,110.12841800000024,116.9228520000006,113.20507799999996,98.3334960000002,90.89746099999957,105.0,133.84619099999964,114.35888699999941,104.87158199999976,115.12841800000024
207,108.3334960000002,132.05126999999993,114.61523400000078,86.15380900000036,110.64111300000059,118.7177729999994,111.2822270000006,100.51269500000035,96.0258789999998,109.61523400000078,134.87158199999976,114.61523400000078,105.25634799999989,115.76904300000024
208,107.43603499999972,127.30761700000039,113.0771479999994,86.9228520000006,108.84619099999964,117.94873000000007,107.82031300000017,102.05126999999993,100.64111300000059,110.25634799999989,134.61523400000078,113.3334960000002,100.89746099999957,115.25634799999989
209,102.82031300000017,113.9741210000002,108.84619099999964,82.69238299999961,103.7177729999994,114.87158199999976,102.43603499999972,102.05126999999993,102.30761700000039,106.41015599999992,131.53857400000015,110.51269500000035,94.35888699999941,113.9741210000002
210,96.53857400000015,100.89746099999957,103.58984400000008,74.74365200000011,96.9228520000006,111.41015599999992,96.41015599999992,100.12841800000024,100.76904300000024,100.25634799999989,126.2822270000006,107.30761700000039,89.61523400000078,113.20507799999996
211,91.79492200000004,97.30761700000039,99.61523400000078,66.53857400000015,92.69238299999961,109.87158199999976,92.17968800000017,97.82031300000017,98.58984400000008,95.51269500000035,121.41015599999992,104.87158199999976,88.46142599999985,113.84619099999964
212,91.53857400000015,106.0258789999998,99.74365200000011,62.43603499999972,95.51269500000035,111.41015599999992,92.05126999999993,96.79492200000004,98.9741210000002,95.0,119.74365200000011,104.87158199999976,90.89746099999957,115.51269500000035
213,96.6665039999998,122.05126999999993,104.10253900000043,64.61523400000078,106.53857400000015,115.25634799999989,97.05126999999993,98.7177729999994,103.20507799999996,99.61523400000078,123.58984400000008,108.20507799999996,95.51269500000035,116.79492200000004
214,105.64111300000059,135.6411130000006,110.12841800000024,71.79492200000004,120.64111300000059,118.84619099999964,105.25634799999989,102.82031300000017,108.84619099999964,107.43603499999972,132.43603499999972,113.3334960000002,101.0258789999998,116.2822270000006
215,113.58984400000008,138.7177729999994,113.9741210000002,79.10253900000043,128.84619099999964,119.61523400000078,112.30761700000039,106.53857400000015,111.41015599999992,114.23095699999976,142.6923829999996,116.79492200000004,106.0258789999998,114.23095699999976
216,115.76904300000024,130.38476599999922,113.7177729999994,81.6665039999998,125.0,116.79492200000004,114.87158199999976,107.30761700000039,108.7177729999994,116.41015599999992,148.84619099999964,115.76904300000024,109.35888699999941,112.69238299999961
217,110.89746099999957,117.94873000000007,110.89746099999957,78.84619099999964,112.69238299999961,112.05126999999993,112.56396500000028,104.87158199999976,102.94873000000007,114.10253900000043,147.6923829999996,111.53857400000015,111.41015599999992,113.84619099999964
218,103.46142599999985,110.89746099999957,108.3334960000002,74.61523400000078,102.56396500000028,108.46142599999985,109.10253900000043,103.0771479999994,99.87158199999976,111.0258789999998,141.41015599999992,108.3334960000002,112.94873000000007,117.30761700000039
219,99.61523400000078,113.7177729999994,108.58984400000008,74.23095699999976,102.69238299999961,108.3334960000002,108.7177729999994,105.51269500000035,103.3334960000002,111.2822270000006,136.53857400000015,108.58984400000008,115.51269500000035,120.25634799999989
220,102.82031300000017,123.0771479999994,111.79492200000004,78.7177729999994,112.43603499999972,111.0258789999998,112.43603499999972,112.82031300000017,112.30761700000039,115.89746099999957,137.43603499999972,111.6665039999998,118.7177729999994,120.12841800000024
221,110.76904300000024,131.2822270000006,115.64111300000059,84.87158199999976,123.46142599999985,113.7177729999994,117.17968800000017,121.15380900000036,121.53857400000015,122.30761700000039,142.94873000000007,114.74365200000011,121.0258789999998,117.05126999999993
222,117.17968800000017,132.17968800000017,116.9228520000006,87.94873000000007,128.20507799999996,113.84619099999964,118.9741210000002,124.87158199999976,125.38476599999922,126.41015599999992,148.0771479999994,115.38476599999922,120.25634799999989,113.20507799999996
223,117.17968800000017,125.0,113.58984400000008,85.51269500000035,124.10253900000043,110.89746099999957,116.6665039999998,121.41015599999992,121.9228520000006,125.25634799999989,148.0771479999994,113.46142599999985,115.12841800000024,111.15380900000036
224,109.87158199999976,114.23095699999976,106.6665039999998,78.58984400000008,115.0,107.05126999999993,112.05126999999993,112.94873000000007,113.20507799999996,118.9741210000002,142.17968800000017,110.38476599999922,106.53857400000015,111.41015599999992
225,99.48730499999965,106.41015599999992,100.25634799999989,71.79492200000004,107.17968800000017,105.51269500000035,108.58984400000008,104.61523400000078,103.7177729999994,110.38476599999922,133.0771479999994,108.46142599999985,96.2822270000006,112.82031300000017
226,92.17968800000017,106.6665039999998,98.20507799999996,70.38476599999922,105.38476599999922,107.30761700000039,108.20507799999996,100.64111300000059,98.0771479999994,103.0771479999994,124.87158199999976,108.46142599999985,87.56396500000028,113.84619099999964
227,91.41015599999992,114.23095699999976,101.0258789999998,75.64111300000059,109.48730499999965,110.51269500000035,109.87158199999976,100.89746099999957,97.30761700000039,99.23095699999976,120.25634799999989,109.87158199999976,82.94873000000007,113.46142599999985
228,95.38476599999922,123.0771479999994,105.0,84.10253900000043,115.64111300000059,112.69238299999961,110.76904300000024,101.53857400000015,98.9741210000002,98.0771479999994,118.7177729999994,110.76904300000024,82.94873000000007,111.6665039999998
229,99.87158199999976,126.6665039999998,106.79492200000004,89.10253900000043,119.35888699999941,112.94873000000007,108.46142599999985,99.10253900000043,99.74365200000011,97.56396500000028,118.20507799999996,110.25634799999989,85.76904300000024,109.74365200000011
230,102.05126999999993,124.23095699999976,105.89746099999957,88.3334960000002,120.76904300000024,112.94873000000007,103.3334960000002,94.23095699999976,98.3334960000002,97.43603499999972,118.0771479999994,109.35888699999941,89.35888699999941,109.10253900000043
231,102.94873000000007,121.6665039999998,105.25634799999989,85.25634799999989,123.7177729999994,113.9741210000002,99.10253900000043,91.2822270000006,97.17968800000017,100.38476599999922,120.25634799999989,110.25634799999989,93.84619099999964,110.64111300000059
232,104.74365200000011,123.58984400000008,108.0771479999994,85.51269500000035,130.38476599999922,115.76904300000024,98.9741210000002,93.9741210000002,98.84619099999964,107.82031300000017,126.6665039999998,113.46142599999985,99.48730499999965,113.7177729999994
233,106.53857400000015,127.69238299999961,113.0771479999994,89.87158199999976,136.6665039999998,116.2822270000006,102.17968800000017,100.64111300000059,102.82031300000017,116.53857400000015,134.61523400000078,116.79492200000004,104.35888699999941,117.17968800000017
234,105.38476599999922,127.30761700000039,115.89746099999957,93.0771479999994,135.38476599999922,113.58984400000008,104.87158199999976,105.38476599999922,104.87158199999976,119.35888699999941,137.82031300000017,116.53857400000015,105.38476599999922,119.48730499999965
235,100.0,119.23095699999976,112.56396500000028,89.87158199999976,123.20507799999996,108.46142599999985,103.84619099999964,103.84619099999964,101.0258789999998,111.9228520000006,132.17968800000017,111.53857400000015,101.0258789999998,119.74365200000011
236,93.3334960000002,108.3334960000002,104.61523400000078,80.76904300000024,106.6665039999998,103.9741210000002,100.38476599999922,96.79492200000004,92.05126999999993,97.05126999999993,121.0258789999998,105.51269500000035,93.9741210000002,118.20507799999996
237,91.0258789999998,103.58984400000008,97.69238299999961,72.05126999999993,96.0258789999998,103.84619099999964,98.84619099999964,89.61523400000078,83.46142599999985,83.7177729999994,112.69238299999961,103.20507799999996,89.87158199999976,115.64111300000059
238,96.79492200000004,109.23095699999976,97.43603499999972,70.38476599999922,97.56396500000028,108.0771479999994,101.9228520000006,87.94873000000007,80.89746099999957,79.35888699999941,113.58984400000008,106.6665039999998,93.20507799999996,113.58984400000008
239,108.3334960000002,120.89746099999957,104.10253900000043,75.89746099999957,107.69238299999961,113.7177729999994,108.3334960000002,92.69238299999961,86.2822270000006,85.0,122.30761700000039,112.56396500000028,103.7177729999994,112.69238299999961
240,119.74365200000011,129.87158199999976,112.56396500000028,83.0771479999994,118.20507799999996,117.30761700000039,113.58984400000008,100.12841800000024,95.89746099999957,95.25634799999989,132.05126999999993,116.79492200000004,116.79492200000004,112.43603499999972
241,126.0258789999998,130.12841800000024,117.05126999999993,85.89746099999957,122.94873000000007,117.69238299999961,114.35888699999941,105.89746099999957,104.10253900000043,103.84619099999964,137.17968800000017,117.56396500000028,127.30761700000039,112.56396500000028
242,125.64111300000059,122.94873000000007,114.87158199999976,82.94873000000007,121.41015599999992,116.0258789999998,110.64111300000059,107.17968800000017,106.53857400000015,106.9228520000006,136.53857400000015,116.79492200000004,132.05126999999993,112.69238299999961
243,120.51269500000035,114.35888699999941,107.82031300000017,77.05126999999993,116.53857400000015,114.35888699999941,105.0,104.61523400000078,103.20507799999996,104.10253900000043,132.6923829999996,115.76904300000024,130.76904300000024,112.43603499999972
244,114.10253900000043,110.51269500000035,100.25634799999989,71.41015599999992,111.6665039999998,113.84619099999964,99.87158199999976,100.76904300000024,97.94873000000007,98.7177729999994,128.3334960000002,115.12841800000024,126.41015599999992,112.30761700000039
245,110.51269500000035,112.94873000000007,97.05126999999993,68.20507799999996,108.46142599999985,114.74365200000011,97.30761700000039,98.84619099999964,95.89746099999957,95.64111300000059,125.64111300000059,114.23095699999976,122.94873000000007,112.56396500000028
246,112.30761700000039,118.0771479999994,100.12841800000024,68.20507799999996,107.82031300000017,116.0258789999998,98.20507799999996,100.12841800000024,100.38476599999922,98.84619099999964,126.2822270000006,113.58984400000008,124.74365200000011,113.9741210000002
247,120.12841800000024,121.9228520000006,108.46142599999985,71.9228520000006,110.12841800000024,116.53857400000015,102.69238299999961,104.10253900000043,110.64111300000059,109.10253900000043,131.15380900000036,114.35888699999941,133.84619099999964,115.51269500000035
248,131.79492200000004,124.35888699999941,118.84619099999964,78.84619099999964,115.12841800000024,115.51269500000035,108.7177729999994,108.9741210000002,122.30761700000039,122.05126999999993,139.10253900000043,117.82031300000017,147.82031300000017,116.0258789999998
249,143.3334960000002,127.94873000000007,127.82031300000017,87.69238299999961,121.9228520000006,114.23095699999976,113.46142599999985,112.69238299999961,130.2563479999999,131.2822270000006,146.53857400000015,123.46142599999985,160.38476599999922,115.38476599999922
250,150.89746099999957,134.23095699999976,132.43603499999972,96.15380900000036,128.7177729999994,113.9741210000002,114.35888699999941,113.84619099999964,131.15380900000036,132.17968800000017,149.61523400000078,128.9741210000002,165.76904300000024,114.74365200000011
251,152.82031300000017,140.0,131.79492200000004,100.89746099999957,132.82031300000017,115.25634799999989,111.2822270000006,111.53857400000015,125.64111300000059,125.12841800000024,146.41015599999992,131.2822270000006,161.79492200000004,115.0
252,150.6411130000006,140.51269500000035,127.43603499999972,99.87158199999976,131.9228520000006,116.79492200000004,106.41015599999992,106.53857400000015,117.43603499999972,115.25634799999989,139.3588869999994,128.9741210000002,152.17968800000017,115.64111300000059
253,147.82031300000017,134.23095699999976,122.56396500000028,93.9741210000002,125.12841800000024,117.69238299999961,101.6665039999998,100.64111300000059,111.15380900000036,107.82031300000017,132.94873000000007,123.7177729999994,142.56396500000028,115.76904300000024
254,146.2822270000006,124.35888699999941,119.61523400000078,86.53857400000015,114.48730499999965,117.69238299999961,98.3334960000002,95.51269500000035,107.94873000000007,103.7177729999994,130.12841800000024,119.10253900000043,136.15380900000036,115.12841800000024
255,145.38476599999922,116.0258789999998,118.58984400000008,80.76904300000024,103.7177729999994,116.6665039999998,95.64111300000059,91.53857400000015,105.25634799999989,100.12841800000024,129.48730499999965,117.17968800000017,131.79492200000004,114.48730499999965
256,143.20507799999996,112.05126999999993,117.94873000000007,78.46142599999985,97.43603499999972,115.12841800000024,93.20507799999996,87.43603499999972,99.87158199999976,94.61523400000078,126.9228520000006,117.43603499999972,127.05126999999993,114.61523400000078
257,139.7436520000001,112.05126999999993,117.05126999999993,79.48730499999965,97.43603499999972,113.9741210000002,92.43603499999972,83.7177729999994,91.79492200000004,88.7177729999994,120.12841800000024,118.0771479999994,121.53857400000015,115.12841800000024
258,137.17968800000017,113.58984400000008,116.9228520000006,82.30761700000039,102.94873000000007,114.23095699999976,95.64111300000059,82.69238299999961,85.0,86.53857400000015,111.0258789999998,118.0771479999994,117.56396500000028,115.38476599999922
259,136.53857400000015,114.48730499999965,117.82031300000017,85.12841800000024,110.51269500000035,115.76904300000024,102.94873000000007,85.76904300000024,82.82031300000017,89.61523400000078,103.3334960000002,117.43603499999972,116.79492200000004,115.12841800000024
260,136.15380900000036,112.69238299999961,118.46142599999985,85.38476599999922,116.15380900000036,117.43603499999972,111.6665039999998,91.2822270000006,84.48730499999965,94.48730499999965,98.9741210000002,116.79492200000004,116.79492200000004,114.48730499999965
261,132.05126999999993,107.43603499999972,116.79492200000004,81.9228520000006,116.15380900000036,117.82031300000017,116.79492200000004,95.12841800000024,86.0258789999998,95.0,96.2822270000006,115.38476599999922,112.82031300000017,113.58984400000008
262,121.79492200000004,98.7177729999994,111.2822270000006,74.74365200000011,109.74365200000011,117.05126999999993,115.0,94.10253900000043,83.58984400000008,87.69238299999961,92.05126999999993,112.69238299999961,102.30761700000039,113.20507799999996
263,107.82031300000017,88.58984400000008,102.94873000000007,65.64111300000059,100.0,116.15380900000036,107.69238299999961,88.84619099999964,77.05126999999993,75.12841800000024,84.87158199999976,108.58984400000008,87.82031300000017,113.46142599999985
264,95.76904300000024,80.64111300000059,95.51269500000035,58.333496000000196,92.56396500000028,115.76904300000024,99.87158199999976,84.23095699999976,70.12841800000024,65.12841800000024,77.94873000000007,104.48730499999965,76.0258789999998,114.10253900000043
265,91.53857400000015,78.46142599999985,92.94873000000007,56.666503999999804,92.82031300000017,115.89746099999957,96.9228520000006,85.12841800000024,68.20507799999996,64.61523400000078,75.76904300000024,102.82031300000017,73.3334960000002,114.35888699999941
266,96.53857400000015,82.82031300000017,96.6665039999998,62.30761700000039,100.89746099999957,116.0258789999998,101.2822270000006,92.82031300000017,73.84619099999964,73.9741210000002,80.64111300000059,104.61523400000078,81.41015599999992,113.7177729999994
267,106.9228520000006,90.89746099999957,103.7177729999994,71.2822270000006,111.6665039999998,116.15380900000036,110.0,103.84619099999964,84.35888699999941,86.9228520000006,88.7177729999994,109.35888699999941,95.0,112.94873000000007
268,116.53857400000015,98.3334960000002,109.61523400000078,77.69238299999961,118.46142599999985,116.9228520000006,117.56396500000028,113.20507799999996,94.35888699999941,95.89746099999957,93.7177729999994,114.48730499999965,106.0258789999998,112.82031300000017
269,122.05126999999993,101.6665039999998,111.6665039999998,77.82031300000017,118.84619099999964,117.94873000000007,120.0,118.0771479999994,99.74365200000011,97.56396500000028,92.17968800000017,117.82031300000017,109.23095699999976,113.7177729999994
270,124.35888699999941,102.05126999999993,111.15380900000036,73.58984400000008,115.89746099999957,118.20507799999996,117.94873000000007,118.9741210000002,101.41015599999992,95.51269500000035,87.17968800000017,118.7177729999994,106.15380900000036,114.74365200000011
271,126.53857400000015,103.46142599999985,111.2822270000006,70.51269500000035,114.74365200000011,116.6665039999998,113.9741210000002,118.3334960000002,102.82031300000017,95.51269500000035,84.23095699999976,118.58984400000008,102.30761700000039,115.0
272,129.61523400000078,108.7177729999994,112.94873000000007,72.30761700000039,116.53857400000015,113.58984400000008,109.87158199999976,117.94873000000007,105.76904300000024,99.35888699999941,85.89746099999957,118.0771479999994,101.6665039999998,113.9741210000002
273,131.79492200000004,116.2822270000006,113.84619099999964,77.94873000000007,118.7177729999994,110.25634799999989,105.12841800000024,117.05126999999993,108.7177729999994,103.58984400000008,88.7177729999994,116.41015599999992,103.0771479999994,112.43603499999972
274,130.2563479999999,122.05126999999993,111.0258789999998,83.0771479999994,116.9228520000006,108.20507799999996,99.35888699999941,114.35888699999941,108.7177729999994,103.84619099999964,87.69238299999961,112.56396500000028,103.46142599999985,111.15380900000036
275,125.0,123.0771479999994,104.35888699999941,84.48730499999965,110.76904300000024,108.3334960000002,93.58984400000008,108.9741210000002,104.74365200000011,98.9741210000002,81.79492200000004,106.9228520000006,100.38476599999922,111.0258789999998
276,118.7177729999994,120.76904300000024,97.69238299999961,82.82031300000017,103.9741210000002,111.15380900000036,90.12841800000024,103.0771479999994,99.35888699999941,92.17968800000017,75.25634799999989,102.30761700000039,95.51269500000035,111.9228520000006
277,114.87158199999976,118.58984400000008,95.38476599999922,81.79492200000004,102.17968800000017,115.38476599999922,90.38476599999922,99.23095699999976,96.2822270000006,87.94873000000007,73.84619099999964,101.41015599999992,92.30761700000039,112.82031300000017
278,115.0,119.10253900000043,98.7177729999994,84.48730499999965,107.43603499999972,118.7177729999994,93.20507799999996,99.35888699999941,97.30761700000039,89.23095699999976,79.61523400000078,105.0,93.3334960000002,112.82031300000017
279,117.69238299999961,121.41015599999992,105.12841800000024,90.38476599999922,116.9228520000006,118.9741210000002,96.53857400000015,102.43603499999972,100.76904300000024,95.38476599999922,89.10253900000043,111.0258789999998,97.94873000000007,112.17968800000017
280,120.64111300000059,123.0771479999994,110.25634799999989,95.38476599999922,124.10253900000043,116.0258789999998,98.7177729999994,105.76904300000024,104.10253900000043,102.56396500000028,96.79492200000004,116.0258789999998,103.7177729999994,111.53857400000015
281,121.6665039999998,122.43603499999972,111.2822270000006,95.25634799999989,124.10253900000043,112.43603499999972,99.87158199999976,107.17968800000017,105.64111300000059,106.53857400000015,98.58984400000008,117.30761700000039,106.79492200000004,111.6665039999998
282,120.25634799999989,118.9741210000002,107.69238299999961,88.58984400000008,117.43603499999972,110.12841800000024,100.25634799999989,106.15380900000036,105.25634799999989,104.48730499999965,94.23095699999976,114.35888699999941,105.0,112.43603499999972
283,116.9228520000006,114.10253900000043,101.79492200000004,77.94873000000007,109.10253900000043,110.0,100.38476599999922,103.0771479999994,102.56396500000028,96.6665039999998,85.76904300000024,108.7177729999994,98.3334960000002,113.46142599999985
284,113.0771479999994,109.61523400000078,96.9228520000006,68.84619099999964,105.0,111.53857400000015,100.38476599999922,99.35888699999941,98.0771479999994,87.17968800000017,76.53857400000015,103.20507799999996,89.74365200000011,114.87158199999976
285,110.89746099999957,107.43603499999972,95.12841800000024,66.79492200000004,107.17968800000017,113.3334960000002,100.89746099999957,96.53857400000015,93.46142599999985,82.05126999999993,69.35888699999941,100.12841800000024,83.0771479999994,116.6665039999998
286,111.9228520000006,108.7177729999994,96.79492200000004,73.20507799999996,113.46142599999985,114.87158199999976,103.20507799999996,96.0258789999998,91.15380900000036,84.23095699999976,65.76904300000024,99.48730499999965,80.51269500000035,117.94873000000007
287,115.64111300000059,112.56396500000028,99.61523400000078,83.7177729999994,120.12841800000024,115.64111300000059,107.82031300000017,97.43603499999972,92.05126999999993,91.0258789999998,66.0258789999998,100.25634799999989,81.41015599999992,118.20507799999996
288,119.74365200000011,116.6665039999998,101.53857400000015,91.2822270000006,124.23095699999976,115.76904300000024,113.58984400000008,100.0,95.64111300000059,96.79492200000004,68.46142599999985,101.53857400000015,83.20507799999996,117.05126999999993
289,121.79492200000004,117.94873000000007,101.2822270000006,90.89746099999957,124.10253900000043,115.51269500000035,118.58984400000008,102.17968800000017,99.48730499999965,97.69238299999961,70.89746099999957,103.0771479999994,83.46142599999985,115.25634799999989
290,119.74365200000011,114.35888699999941,98.7177729999994,83.46142599999985,119.61523400000078,115.38476599999922,120.12841800000024,102.30761700000039,101.0258789999998,94.10253900000043,70.89746099999957,103.9741210000002,81.15380900000036,113.7177729999994
291,113.46142599999985,106.2822270000006,93.84619099999964,74.23095699999976,111.9228520000006,115.38476599999922,116.79492200000004,100.51269500000035,99.10253900000043,89.10253900000043,66.9228520000006,102.69238299999961,76.41015599999992,112.69238299999961
292,104.48730499999965,97.05126999999993,87.69238299999961,68.46142599999985,104.10253900000043,115.64111300000059,109.35888699999941,97.94873000000007,94.87158199999976,86.0258789999998,59.61523400000078,98.9741210000002,70.25634799999989,112.05126999999993
293,96.2822270000006,90.51269500000035,82.30761700000039,67.30761700000039,100.0,115.64111300000059,101.9228520000006,96.53857400000015,91.6665039999998,86.2822270000006,51.153809000000365,94.48730499999965,63.846190999999635,111.2822270000006
294,92.05126999999993,88.84619099999964,79.35888699999941,68.3334960000002,101.2822270000006,115.0,98.84619099999964,97.43603499999972,92.43603499999972,90.12841800000024,45.12841800000024,91.79492200000004,59.102539000000434,110.0
295,93.9741210000002,92.17968800000017,80.38476599999922,69.23095699999976,107.17968800000017,114.61523400000078,102.05126999999993,101.41015599999992,98.20507799999996,96.41015599999992,44.61523400000078,92.17968800000017,57.82031300000017,108.7177729999994
296,101.53857400000015,98.9741210000002,85.51269500000035,70.38476599999922,114.74365200000011,115.38476599999922,109.87158199999976,108.3334960000002,107.69238299999961,103.7177729999994,50.51269500000035,95.51269500000035,62.05126999999993,108.84619099999964
297,112.30761700000039,107.94873000000007,93.20507799999996,74.61523400000078,120.76904300000024,117.05126999999993,117.94873000000007,117.56396500000028,118.0771479999994,111.15380900000036,60.897460999999566,100.76904300000024,71.9228520000006,111.0258789999998
298,122.05126999999993,117.30761700000039,100.38476599999922,83.0771479999994,122.69238299999961,118.46142599999985,122.56396500000028,126.53857400000015,125.51269500000035,117.43603499999972,71.9228520000006,105.76904300000024,84.35888699999941,114.10253900000043
299,127.05126999999993,124.74365200000011,104.48730499999965,92.69238299999961,119.23095699999976,118.7177729999994,121.6665039999998,132.3076170000004,127.82031300000017,120.76904300000024,79.48730499999965,108.7177729999994,94.10253900000043,116.41015599999992
300,125.76904300000024,128.0771479999994,104.23095699999976,99.10253900000043,112.82031300000017,118.0771479999994,116.0258789999998,132.6923829999996,125.51269500000035,119.10253900000043,81.15380900000036,108.58984400000008,96.79492200000004,117.05126999999993
301,120.51269500000035,126.9228520000006,101.41015599999992,99.74365200000011,107.69238299999961,117.17968800000017,108.3334960000002,128.0771479999994,121.0258789999998,112.69238299999961,77.82031300000017,106.6665039999998,93.3334960000002,116.6665039999998
302,115.51269500000035,123.0771479999994,99.23095699999976,96.0258789999998,107.17968800000017,116.53857400000015,101.41015599999992,121.6665039999998,116.6665039999998,105.0,73.0771479999994,105.64111300000059,88.20507799999996,116.53857400000015
303,114.23095699999976,119.87158199999976,98.9741210000002,91.9228520000006,111.15380900000036,116.53857400000015,97.43603499999972,116.6665039999998,113.20507799999996,99.87158199999976,70.0,106.15380900000036,85.89746099999957,116.79492200000004
304,117.17968800000017,119.48730499999965,100.25634799999989,90.89746099999957,116.6665039999998,116.79492200000004,96.41015599999992,114.61523400000078,110.64111300000059,98.84619099999964,69.23095699999976,107.05126999999993,87.05126999999993,116.79492200000004
305,122.05126999999993,122.30761700000039,101.53857400000015,93.7177729999994,121.2822270000006,116.79492200000004,97.05126999999993,114.87158199999976,109.10253900000043,100.76904300000024,69.74365200000011,106.53857400000015,89.23095699999976,115.89746099999957
306,126.6665039999998,126.6665039999998,101.6665039999998,98.7177729999994,123.7177729999994,116.2822270000006,98.46142599999985,115.89746099999957,109.23095699999976,103.0771479999994,70.51269500000035,105.12841800000024,90.38476599999922,113.9741210000002
307,129.87158199999976,131.0258789999998,101.0258789999998,103.20507799999996,123.84619099999964,115.12841800000024,100.0,116.53857400000015,111.2822270000006,104.10253900000043,71.79492200000004,104.74365200000011,90.64111300000059,112.30761700000039
308,132.3076170000004,134.61523400000078,101.2822270000006,104.87158199999976,121.15380900000036,114.10253900000043,101.6665039999998,116.6665039999998,113.84619099999964,104.10253900000043,73.9741210000002,106.6665039999998,92.43603499999972,112.17968800000017
309,134.48730499999965,136.9228520000006,103.0771479999994,103.58984400000008,115.38476599999922,113.84619099999964,103.0771479999994,115.76904300000024,115.38476599999922,104.23095699999976,76.41015599999992,109.61523400000078,96.6665039999998,113.7177729999994
310,136.2822270000006,136.9228520000006,105.25634799999989,100.89746099999957,107.30761700000039,114.74365200000011,103.84619099999964,113.3334960000002,114.10253900000043,104.87158199999976,77.17968800000017,111.2822270000006,101.53857400000015,115.64111300000059
311,136.2822270000006,133.0771479999994,105.64111300000059,97.43603499999972,99.87158199999976,116.2822270000006,103.20507799999996,108.7177729999994,109.87158199999976,105.12841800000024,74.61523400000078,110.38476599999922,103.0771479999994,115.89746099999957
312,133.84619099999964,124.61523400000078,103.20507799999996,93.3334960000002,96.53857400000015,117.17968800000017,101.2822270000006,102.94873000000007,103.84619099999964,103.9741210000002,69.10253900000043,107.94873000000007,98.84619099999964,113.9741210000002
313,130.2563479999999,113.0771479999994,99.35888699999941,88.7177729999994,98.7177729999994,117.43603499999972,99.23095699999976,98.58984400000008,97.94873000000007,101.9228520000006,63.974121000000196,106.41015599999992,89.87158199999976,111.79492200000004
314,127.94873000000007,103.20507799999996,97.43603499999972,84.87158199999976,105.76904300000024,117.17968800000017,99.74365200000011,98.7177729999994,94.48730499999965,100.51269500000035,62.94873000000007,107.05126999999993,81.6665039999998,111.53857400000015
315,128.3334960000002,99.23095699999976,98.9741210000002,83.84619099999964,114.10253900000043,116.9228520000006,104.23095699999976,103.9741210000002,94.87158199999976,100.64111300000059,67.30761700000039,109.48730499999965,79.87158199999976,113.58984400000008
316,130.38476599999922,101.53857400000015,102.69238299999961,85.38476599999922,118.46142599999985,116.41015599999992,111.6665039999998,111.2822270000006,98.20507799999996,101.2822270000006,72.69238299999961,111.41015599999992,85.12841800000024,116.41015599999992
317,130.6411130000006,104.87158199999976,105.25634799999989,86.6665039999998,114.74365200000011,115.25634799999989,117.43603499999972,115.25634799999989,101.2822270000006,99.87158199999976,72.94873000000007,109.87158199999976,92.17968800000017,117.94873000000007
318,126.6665039999998,103.9741210000002,104.23095699999976,85.0,103.9741210000002,113.9741210000002,118.0771479999994,113.0771479999994,101.2822270000006,95.25634799999989,65.51269500000035,104.61523400000078,94.61523400000078,117.56396500000028
319,119.74365200000011,98.9741210000002,100.38476599999922,81.0258789999998,93.58984400000008,113.20507799999996,113.7177729999994,106.79492200000004,98.46142599999985,89.23095699999976,54.74365200000011,98.46142599999985,90.51269500000035,116.0258789999998
320,114.74365200000011,96.15380900000036,97.30761700000039,78.9741210000002,91.53857400000015,113.46142599999985,108.46142599999985,102.30761700000039,96.41015599999992,86.0258789999998,48.974121000000196,96.79492200000004,83.84619099999964,114.35888699999941
321,115.51269500000035,100.64111300000059,97.94873000000007,81.9228520000006,100.64111300000059,114.23095699999976,107.17968800000017,104.23095699999976,97.69238299999961,89.23095699999976,53.46142599999985,102.17968800000017,80.76904300000024,113.20507799999996
322,120.89746099999957,110.38476599999922,102.05126999999993,88.20507799999996,115.25634799999989,115.38476599999922,110.89746099999957,112.05126999999993,102.17968800000017,97.69238299999961,65.25634799999989,111.79492200000004,82.94873000000007,113.0771479999994
323,124.48730499999965,116.53857400000015,105.76904300000024,93.20507799999996,124.87158199999976,116.2822270000006,116.0258789999998,120.64111300000059,106.41015599999992,106.0258789999998,75.38476599999922,118.84619099999964,86.53857400000015,114.23095699999976
324,120.89746099999957,112.05126999999993,105.51269500000035,93.7177729999994,122.30761700000039,116.53857400000015,117.56396500000028,123.84619099999964,107.30761700000039,108.7177729999994,76.41015599999992,117.69238299999961,86.53857400000015,116.0258789999998
325,110.64111300000059,99.61523400000078,100.64111300000059,90.38476599999922,108.46142599999985,115.51269500000035,114.23095699999976,120.12841800000024,104.23095699999976,105.0,68.58984400000008,108.9741210000002,81.9228520000006,116.9228520000006
326,100.89746099999957,89.48730499999965,94.61523400000078,87.43603499999972,93.46142599999985,113.84619099999964,109.10253900000043,113.58984400000008,99.87158199999976,99.23095699999976,59.23095699999976,99.48730499999965,77.05126999999993,116.2822270000006
327,99.74365200000011,91.6665039999998,92.17968800000017,88.7177729999994,88.9741210000002,112.94873000000007,107.05126999999993,110.38476599999922,98.3334960000002,97.69238299999961,56.53857400000015,96.2822270000006,78.0771479999994,114.74365200000011
328,108.7177729999994,106.2822270000006,95.51269500000035,94.87158199999976,99.35888699999941,113.3334960000002,110.25634799999989,113.58984400000008,102.05126999999993,103.0771479999994,63.46142599999985,101.0258789999998,87.43603499999972,113.0771479999994
329,122.43603499999972,123.46142599999985,102.05126999999993,102.82031300000017,117.43603499999972,114.48730499999965,115.76904300000024,120.51269500000035,109.87158199999976,112.17968800000017,75.89746099999957,110.12841800000024,101.53857400000015,111.79492200000004
330,132.17968800000017,131.2822270000006,106.79492200000004,107.43603499999972,131.15380900000036,115.38476599999922,118.9741210000002,125.89746099999957,117.69238299999961,119.48730499999965,86.0258789999998,117.82031300000017,112.69238299999961,111.2822270000006
331,132.56396500000028,126.2822270000006,107.17968800000017,106.41015599999992,133.7177729999994,116.0258789999998,117.69238299999961,126.2822270000006,121.53857400000015,121.15380900000036,89.10253900000043,120.64111300000059,115.64111300000059,111.41015599999992
332,125.25634799999989,114.61523400000078,104.48730499999965,101.79492200000004,127.30761700000039,117.05126999999993,113.7177729999994,123.20507799999996,120.51269500000035,118.0771479999994,86.41015599999992,118.20507799999996,110.64111300000059,112.05126999999993
333,116.6665039999998,106.0258789999998,102.30761700000039,98.0771479999994,119.10253900000043,117.69238299999961,110.25634799999989,120.12841800000024,117.43603499999972,114.48730499999965,82.30761700000039,113.84619099999964,103.58984400000008,112.30761700000039
334,112.17968800000017,105.89746099999957,102.94873000000007,98.20507799999996,114.10253900000043,116.6665039999998,109.35888699999941,119.74365200000011,115.64111300000059,113.58984400000008,80.64111300000059,111.15380900000036,100.12841800000024,112.05126999999993
335,113.46142599999985,111.79492200000004,105.89746099999957,101.53857400000015,111.41015599999992,113.9741210000002,110.38476599999922,121.41015599999992,116.41015599999992,115.89746099999957,81.41015599999992,111.9228520000006,101.9228520000006,112.05126999999993
336,118.0771479999994,116.41015599999992,108.58984400000008,104.87158199999976,108.3334960000002,111.0258789999998,111.2822270000006,122.69238299999961,118.3334960000002,118.9741210000002,82.30761700000039,114.87158199999976,106.15380900000036,112.94873000000007
337,121.9228520000006,114.48730499999965,108.3334960000002,105.51269500000035,103.58984400000008,109.23095699999976,110.89746099999957,122.05126999999993,119.23095699999976,119.61523400000078,81.6665039999998,117.43603499999972,108.58984400000008,114.35888699999941
338,121.9228520000006,106.41015599999992,105.0,102.82031300000017,99.74365200000011,108.58984400000008,109.48730499999965,119.74365200000011,118.0771479999994,117.17968800000017,79.23095699999976,117.94873000000007,106.9228520000006,115.64111300000059
339,118.0771479999994,96.41015599999992,100.38476599999922,98.46142599999985,100.0,108.58984400000008,108.84619099999964,117.17968800000017,115.51269500000035,113.7177729999994,76.41015599999992,117.05126999999993,101.9228520000006,116.15380900000036
340,113.20507799999996,89.87158199999976,97.30761700000039,95.38476599999922,105.89746099999957,109.10253900000043,110.64111300000059,116.0258789999998,113.46142599999985,112.69238299999961,75.76904300000024,116.0258789999998,96.79492200000004,116.41015599999992
341,111.15380900000036,89.10253900000043,97.69238299999961,95.89746099999957,115.51269500000035,109.61523400000078,115.51269500000035,117.17968800000017,113.58984400000008,115.64111300000059,79.10253900000043,115.76904300000024,95.25634799999989,116.53857400000015
342,112.17968800000017,92.30761700000039,100.38476599999922,99.74365200000011,124.10253900000043,109.23095699999976,121.9228520000006,119.61523400000078,115.38476599999922,119.48730499999965,85.38476599999922,116.41015599999992,98.58984400000008,116.15380900000036
343,114.35888699999941,95.0,102.94873000000007,104.10253900000043,126.2822270000006,108.20507799999996,127.43603499999972,121.2822270000006,116.9228520000006,119.48730499999965,90.64111300000059,116.9228520000006,104.48730499999965,115.0
344,115.0,93.46142599999985,103.7177729999994,106.15380900000036,120.25634799999989,107.82031300000017,130.12841800000024,120.76904300000024,117.17968800000017,113.46142599999985,91.2822270000006,116.2822270000006,109.10253900000043,113.58984400000008
345,112.82031300000017,87.94873000000007,102.30761700000039,104.61523400000078,110.12841800000024,108.58984400000008,128.9741210000002,118.84619099999964,116.15380900000036,104.87158199999976,86.6665039999998,113.7177729999994,110.51269500000035,112.82031300000017
346,108.3334960000002,80.64111300000059,99.87158199999976,100.51269500000035,102.30761700000039,109.48730499999965,124.48730499999965,116.41015599999992,114.61523400000078,99.74365200000011,79.10253900000043,108.9741210000002,108.7177729999994,112.69238299999961
347,102.94873000000007,74.74365200000011,97.56396500000028,96.15380900000036,99.61523400000078,108.7177729999994,118.46142599999985,114.10253900000043,112.82031300000017,102.17968800000017,72.30761700000039,103.3334960000002,105.25634799999989,113.20507799999996
348,99.23095699999976,72.56396500000028,96.0258789999998,93.46142599999985,100.76904300000024,106.2822270000006,113.84619099999964,111.9228520000006,111.15380900000036,111.15380900000036,69.61523400000078,98.84619099999964,101.79492200000004,113.3334960000002
349,99.35888699999941,75.12841800000024,96.0258789999998,93.58984400000008,103.58984400000008,104.61523400000078,113.20507799999996,111.0258789999998,110.89746099999957,122.56396500000028,73.0771479999994,98.46142599999985,101.15380900000036,113.0771479999994
350,103.9741210000002,81.79492200000004,97.82031300000017,97.17968800000017,108.3334960000002,105.51269500000035,117.30761700000039,113.20507799999996,114.35888699999941,131.79492200000004,82.43603499999972,102.69238299999961,105.89746099999957,112.43603499999972
351,111.0258789999998,89.48730499999965,101.2822270000006,103.9741210000002,115.89746099999957,108.58984400000008,123.84619099999964,119.10253900000043,121.79492200000004,136.53857400000015,94.10253900000043,109.74365200000011,116.15380900000036,112.43603499999972
352,116.79492200000004,94.74365200000011,104.61523400000078,111.15380900000036,124.35888699999941,112.17968800000017,128.46142599999985,127.30761700000039,131.15380900000036,136.79492200000004,102.94873000000007,115.89746099999957,127.69238299999961,113.84619099999964
353,117.56396500000028,94.35888699999941,106.15380900000036,114.87158199999976,127.82031300000017,113.84619099999964,127.43603499999972,134.10253900000043,137.94873000000007,133.58984400000008,104.87158199999976,117.94873000000007,134.23095699999976,115.89746099999957
354,113.0771479999994,88.3334960000002,105.0,112.30761700000039,122.17968800000017,112.43603499999972,120.89746099999957,135.89746099999957,138.3334960000002,128.7177729999994,100.38476599999922,115.25634799999989,132.82031300000017,116.79492200000004
355,107.17968800000017,80.51269500000035,102.82031300000017,104.74365200000011,109.61523400000078,109.35888699999941,112.94873000000007,132.56396500000028,133.0771479999994,124.87158199999976,94.35888699999941,110.25634799999989,126.9228520000006,115.38476599999922
356,105.64111300000059,76.6665039999998,103.3334960000002,98.46142599999985,98.7177729999994,107.17968800000017,108.58984400000008,128.0771479999994,127.30761700000039,124.74365200000011,93.58984400000008,107.82031300000017,124.35888699999941,112.69238299999961
357,112.30761700000039,80.64111300000059,109.10253900000043,99.61523400000078,97.56396500000028,107.43603499999972,110.38476599999922,127.69238299999961,127.30761700000039,130.12841800000024,101.41015599999992,112.05126999999993,130.76904300000024,110.76904300000024
358,125.0,90.89746099999957,118.84619099999964,108.7177729999994,107.05126999999993,109.10253900000043,116.0258789999998,133.3334960000002,134.10253900000043,140.0,114.48730499999965,121.6665039999998,143.84619099999964,110.89746099999957
359,136.15380900000036,101.0258789999998,127.43603499999972,120.25634799999989,119.35888699999941,110.12841800000024,121.53857400000015,140.89746099999957,142.3076170000004,149.3588869999994,124.48730499999965,130.38476599999922,155.2563479999999,112.05126999999993
360,138.46142599999985,104.10253900000043,129.61523400000078,125.89746099999957,124.10253900000043,109.48730499999965,123.3334960000002,143.0771479999994,143.58984400000008,151.6665039999998,123.84619099999964,131.6665039999998,156.41015599999992,112.82031300000017
361,129.87158199999976,97.56396500000028,123.84619099999964,121.15380900000036,116.15380900000036,108.0771479999994,120.51269500000035,135.76904300000024,133.46142599999985,142.43603499999972,111.15380900000036,124.74365200000011,145.51269500000035,112.56396500000028
362,115.0,84.74365200000011,113.3334960000002,107.94873000000007,100.0,107.43603499999972,115.12841800000024,120.64111300000059,114.74365200000011,123.20507799999996,92.82031300000017,113.58984400000008,127.94873000000007,111.6665039999998
363,101.79492200000004,71.9228520000006,103.3334960000002,93.9741210000002,87.05126999999993,108.0771479999994,111.0258789999998,105.0,96.2822270000006,101.41015599999992,78.46142599999985,104.48730499999965,112.56396500000028,110.89746099999957
364,96.9228520000006,65.76904300000024,98.9741210000002,87.69238299999961,86.6665039999998,109.23095699999976,111.0258789999998,96.53857400000015,86.2822270000006,87.05126999999993,73.84619099999964,101.2822270000006,106.15380900000036,110.89746099999957
365,100.76904300000024,67.82031300000017,101.15380900000036,92.30761700000039,99.61523400000078,109.87158199999976,114.87158199999976,98.20507799999996,87.43603499999972,86.0258789999998,78.0771479999994,103.7177729999994,109.10253900000043,111.79492200000004
366,107.43603499999972,73.20507799999996,106.41015599999992,102.69238299999961,116.0258789999998,109.48730499999965,119.61523400000078,106.41015599999992,95.51269500000035,96.2822270000006,83.84619099999964,108.20507799999996,116.0258789999998,112.69238299999961
367,110.25634799999989,76.0258789999998,109.48730499999965,110.0,123.58984400000008,108.58984400000008,121.79492200000004,114.35888699999941,103.58984400000008,109.10253900000043,85.0,110.25634799999989,119.87158199999976,113.20507799999996
368,107.17968800000017,73.84619099999964,107.56396500000028,109.48730499999965,117.69238299999961,108.20507799999996,120.12841800000024,116.9228520000006,107.17968800000017,116.53857400000015,80.76904300000024,108.58984400000008,117.82031300000017,113.3334960000002
369,101.79492200000004,70.51269500000035,102.56396500000028,103.9741210000002,104.87158199999976,108.84619099999964,116.2822270000006,114.35888699999941,106.6665039999998,116.41015599999992,75.51269500000035,105.38476599999922,112.05126999999993,113.84619099999964
370,99.48730499999965,71.9228520000006,99.61523400000078,100.38476599999922,96.0258789999998,109.74365200000011,112.94873000000007,110.38476599999922,106.2822270000006,113.20507799999996,73.84619099999964,104.48730499999965,107.69238299999961,114.48730499999965
371,102.94873000000007,80.38476599999922,101.53857400000015,101.79492200000004,96.79492200000004,109.87158199999976,112.30761700000039,109.23095699999976,108.9741210000002,112.69238299999961,77.17968800000017,107.56396500000028,108.0771479999994,114.61523400000078
372,110.76904300000024,92.82031300000017,107.17968800000017,106.41015599999992,103.58984400000008,108.84619099999964,113.84619099999964,111.79492200000004,114.48730499999965,117.30761700000039,82.82031300000017,113.0771479999994,112.69238299999961,113.9741210000002
373,118.58984400000008,102.43603499999972,112.05126999999993,110.51269500000035,108.3334960000002,107.69238299999961,115.76904300000024,115.89746099999957,119.74365200000011,124.48730499999965,87.30761700000039,117.43603499999972,117.69238299999961,113.20507799999996
374,122.56396500000028,104.74365200000011,112.69238299999961,112.30761700000039,107.30761700000039,107.43603499999972,116.41015599999992,118.46142599999985,121.9228520000006,129.7436520000001,88.58984400000008,117.82031300000017,118.9741210000002,113.0771479999994
375,122.17968800000017,100.64111300000059,109.10253900000043,113.20507799999996,104.23095699999976,108.58984400000008,116.2822270000006,119.23095699999976,121.0258789999998,130.12841800000024,86.9228520000006,114.61523400000078,115.38476599999922,113.58984400000008
376,118.3334960000002,95.25634799999989,104.48730499999965,114.87158199999976,104.87158199999976,110.38476599999922,116.79492200000004,119.48730499999965,118.7177729999994,126.15380900000036,83.9741210000002,110.64111300000059,108.84619099999964,113.9741210000002
377,112.30761700000039,91.53857400000015,101.2822270000006,116.0258789999998,111.0258789999998,111.6665039999998,118.3334960000002,120.38476599999922,116.41015599999992,120.51269500000035,80.76904300000024,108.3334960000002,102.05126999999993,113.58984400000008
378,104.74365200000011,88.7177729999994,99.10253900000043,112.43603499999972,117.30761700000039,111.6665039999998,119.61523400000078,120.51269500000035,113.58984400000008,116.0258789999998,76.9228520000006,107.43603499999972,96.2822270000006,112.56396500000028
379,97.30761700000039,84.48730499999965,97.17968800000017,102.82031300000017,118.0771479999994,110.12841800000024,118.9741210000002,118.20507799999996,109.87158199999976,114.23095699999976,71.9228520000006,106.0258789999998,92.05126999999993,111.41015599999992
380,93.3334960000002,79.61523400000078,95.38476599999922,90.89746099999957,112.56396500000028,108.20507799999996,116.6665039999998,114.48730499999965,106.79492200000004,115.25634799999989,68.20507799999996,103.3334960000002,90.76904300000024,111.2822270000006
381,95.0,76.9228520000006,94.87158199999976,83.3334960000002,105.0,107.17968800000017,114.10253900000043,113.0771479999994,107.05126999999993,117.56396500000028,68.58984400000008,100.89746099999957,92.43603499999972,112.30761700000039
382,100.25634799999989,77.30761700000039,96.0258789999998,83.46142599999985,98.84619099999964,107.30761700000039,112.94873000000007,116.2822270000006,110.51269500000035,117.94873000000007,72.30761700000039,99.87158199999976,93.7177729999994,113.84619099999964
383,103.84619099999964,78.46142599999985,97.30761700000039,89.35888699999941,95.12841800000024,106.9228520000006,112.94873000000007,122.30761700000039,114.61523400000078,114.48730499999965,74.48730499999965,100.38476599999922,90.51269500000035,114.48730499999965
