,EEG.AF3,EEG.F7,EEG.F3,EEG.FC5,EEG.T7,EEG.P7,EEG.O1,EEG.O2,EEG.P8,EEG.T8,EEG.FC6,EEG.F4,EEG.F8,EEG.AF4
0,149.61523400000078,168.3334960000002,118.0771479999994,162.43603499999972,121.79492200000004,118.3334960000002,117.82031300000017,120.64111300000059,130.12841800000024,91.9228520000006,60.25634799999989,124.35888699999941,137.17968800000017,111.79492200000004
1,141.53857400000015,155.2563479999999,110.38476599999922,143.7177729999994,110.12841800000024,118.0771479999994,113.0771479999994,115.76904300000024,119.61523400000078,84.35888699999941,52.56396500000028,118.0771479999994,129.87158199999976,111.9228520000006
2,139.3588869999994,146.53857400000015,108.0771479999994,136.6665039999998,110.0,117.82031300000017,114.23095699999976,115.38476599999922,115.25634799999989,81.2822270000006,47.94873000000007,115.89746099999957,128.84619099999964,111.9228520000006
3,143.9741210000002,145.2563479999999,111.6665039999998,146.2822270000006,120.25634799999989,117.94873000000007,120.12841800000024,118.84619099999964,118.58984400000008,84.61523400000078,48.20507799999996,118.84619099999964,134.3588869999994,111.53857400000015
4,150.6411130000006,148.7177729999994,117.17968800000017,164.3588869999994,132.6923829999996,118.20507799999996,125.89746099999957,121.9228520000006,124.61523400000078,91.0258789999998,52.30761700000039,124.23095699999976,141.6665039999998,111.15380900000036
5,153.3334960000002,152.43603499999972,119.61523400000078,176.9228520000006,137.56396500000028,118.46142599999985,127.17968800000017,121.6665039999998,127.17968800000017,94.23095699999976,58.20507799999996,127.82031300000017,144.61523400000078,111.2822270000006
6,151.0258789999998,153.58984400000008,118.0771479999994,176.41015599999992,131.6665039999998,118.46142599999985,123.0771479999994,118.3334960000002,124.10253900000043,91.2822270000006,63.333496000000196,127.69238299999961,141.0258789999998,111.79492200000004
7,148.46142599999985,152.17968800000017,115.51269500000035,167.17968800000017,120.0,118.0771479999994,117.05126999999993,115.25634799999989,118.3334960000002,84.10253900000043,66.15380900000036,125.12841800000024,133.84619099999964,112.17968800000017
8,150.6411130000006,149.87158199999976,115.51269500000035,158.46142599999985,110.25634799999989,117.56396500000028,113.20507799999996,114.48730499999965,114.35888699999941,77.17968800000017,65.76904300000024,123.20507799999996,127.94873000000007,111.79492200000004
9,157.3076170000004,148.20507799999996,117.56396500000028,155.6411130000006,107.30761700000039,117.30761700000039,113.0771479999994,114.87158199999976,113.58984400000008,73.3334960000002,61.53857400000015,123.58984400000008,125.12841800000024,111.0258789999998
10,162.56396500000028,147.3076170000004,118.0771479999994,157.17968800000017,110.12841800000024,117.43603499999972,115.25634799999989,114.61523400000078,113.0771479999994,71.41015599999992,52.94873000000007,125.0,124.10253900000043,110.64111300000059
11,160.89746099999957,146.41015599999992,114.61523400000078,158.3334960000002,115.0,117.56396500000028,117.05126999999993,112.56396500000028,109.74365200000011,69.10253900000043,41.79492200000004,124.35888699999941,122.30761700000039,111.15380900000036
12,152.56396500000028,145.51269500000035,107.82031300000017,156.9228520000006,118.58984400000008,117.43603499999972,116.6665039999998,110.38476599999922,103.9741210000002,65.64111300000059,31.282227000000603,120.51269500000035,119.35888699999941,112.05126999999993
13,142.56396500000028,144.7436520000001,101.6665039999998,154.10253900000043,118.7177729999994,117.43603499999972,114.48730499999965,110.25634799999989,99.87158199999976,62.69238299999961,25.0,115.51269500000035,116.41015599999992,112.82031300000017
14,135.89746099999957,142.94873000000007,98.84619099999964,150.89746099999957,113.7177729999994,117.56396500000028,111.15380900000036,112.56396500000028,100.0,61.153809000000365,23.974121000000196,112.43603499999972,114.61523400000078,112.94873000000007
15,132.6923829999996,138.3334960000002,98.58984400000008,146.41015599999992,103.3334960000002,117.17968800000017,107.05126999999993,114.23095699999976,102.17968800000017,58.974121000000196,25.769043000000238,111.79492200000004,112.94873000000007,112.30761700000039
16,130.76904300000024,130.2563479999999,98.46142599999985,139.48730499999965,90.76904300000024,115.76904300000024,102.05126999999993,112.05126999999993,101.6665039999998,53.46142599999985,27.82031300000017,111.41015599999992,109.61523400000078,111.6665039999998
17,129.10253900000043,122.69238299999961,97.82031300000017,132.56396500000028,82.82031300000017,113.58984400000008,98.20507799999996,106.41015599999992,97.30761700000039,46.153809000000365,31.153809000000365,110.38476599999922,105.51269500000035,111.53857400000015
18,130.89746099999957,122.94873000000007,98.9741210000002,131.6665039999998,86.79492200000004,111.9228520000006,98.7177729999994,102.94873000000007,93.9741210000002,44.61523400000078,38.7177729999994,110.76904300000024,105.64111300000059,111.9228520000006
19,139.87158199999976,135.51269500000035,105.25634799999989,141.53857400000015,104.10253900000043,112.17968800000017,105.76904300000024,107.69238299999961,99.10253900000043,56.79492200000004,51.9228520000006,115.25634799999989,114.87158199999976,112.43603499999972
20,155.0,156.79492200000004,116.41015599999992,160.6411130000006,127.69238299999961,114.35888699999941,118.20507799999996,121.53857400000015,115.0,83.0771479999994,67.30761700000039,123.3334960000002,132.56396500000028,112.17968800000017
21,169.10253900000043,175.12841800000024,127.30761700000039,180.0,144.7436520000001,116.2822270000006,130.51269500000035,136.9228520000006,134.23095699999976,113.20507799999996,77.69238299999961,131.0258789999998,150.0,111.41015599999992
22,172.3076170000004,178.58984400000008,130.76904300000024,188.46142599999985,144.7436520000001,116.2822270000006,136.41015599999992,143.46142599999985,143.9741210000002,130.51269500000035,76.53857400000015,132.94873000000007,154.61523400000078,110.76904300000024
23,159.3588869999994,163.7177729999994,123.3334960000002,180.12841800000024,127.30761700000039,113.9741210000002,132.6923829999996,135.12841800000024,136.41015599999992,122.94873000000007,62.82031300000017,126.79492200000004,140.89746099999957,110.38476599999922
24,136.0258789999998,139.3588869999994,108.3334960000002,159.61523400000078,103.0771479999994,110.89746099999957,122.05126999999993,116.53857400000015,115.64111300000059,93.7177729999994,43.589844000000085,115.89746099999957,115.76904300000024,109.87158199999976
25,115.89746099999957,120.64111300000059,95.0,140.12841800000024,86.53857400000015,109.48730499999965,111.2822270000006,99.10253900000043,95.12841800000024,60.0,29.74365200000011,106.9228520000006,94.48730499999965,109.35888699999941
26,111.53857400000015,117.94873000000007,91.41015599999992,134.61523400000078,86.9228520000006,110.64111300000059,106.41015599999992,93.58984400000008,87.69238299999961,42.43603499999972,28.333496000000196,105.12841800000024,89.87158199999976,109.10253900000043
27,124.10253900000043,129.87158199999976,98.7177729999994,145.89746099999957,103.0771479999994,113.46142599999985,108.84619099999964,101.2822270000006,95.89746099999957,49.87158199999976,37.43603499999972,110.25634799999989,103.7177729999994,109.48730499999965
28,144.23095699999976,146.15380900000036,110.64111300000059,165.51269500000035,125.25634799999989,116.0258789999998,115.76904300000024,115.0,111.6665039999998,73.7177729999994,49.23095699999976,117.82031300000017,126.6665039999998,110.38476599999922
29,160.0,156.41015599999992,119.74365200000011,180.6411130000006,141.53857400000015,116.6665039999998,122.05126999999993,125.51269500000035,124.87158199999976,95.76904300000024,57.17968800000017,123.7177729999994,145.51269500000035,111.0258789999998
30,164.87158199999976,156.79492200000004,122.43603499999972,183.20507799999996,144.61523400000078,115.76904300000024,124.35888699999941,128.0771479999994,129.10253900000043,101.2822270000006,59.74365200000011,126.53857400000015,150.89746099999957,111.41015599999992
31,159.61523400000078,150.89746099999957,119.87158199999976,174.10253900000043,135.76904300000024,115.0,122.05126999999993,123.9741210000002,124.48730499999965,88.9741210000002,58.333496000000196,126.6665039999998,142.3076170000004,111.79492200000004
32,150.0,144.48730499999965,115.0,160.12841800000024,122.56396500000028,115.25634799999989,116.53857400000015,117.56396500000028,115.64111300000059,69.61523400000078,54.23095699999976,124.48730499999965,126.2822270000006,111.9228520000006
33,141.9228520000006,141.79492200000004,110.38476599999922,148.9741210000002,113.84619099999964,116.53857400000015,110.89746099999957,112.69238299999961,108.46142599999985,57.05126999999993,47.69238299999961,120.76904300000024,112.69238299999961,112.05126999999993
34,139.61523400000078,143.46142599999985,108.0771479999994,145.51269500000035,113.7177729999994,117.94873000000007,107.94873000000007,111.0258789999998,106.6665039999998,58.333496000000196,40.12841800000024,117.05126999999993,109.61523400000078,112.17968800000017
35,144.23095699999976,147.56396500000028,110.25634799999989,150.76904300000024,120.51269500000035,118.7177729999994,108.84619099999964,112.56396500000028,110.64111300000059,70.38476599999922,34.61523400000078,115.89746099999957,118.46142599999985,112.56396500000028
36,154.23095699999976,152.6923829999996,116.53857400000015,161.2822270000006,129.61523400000078,118.58984400000008,112.94873000000007,115.76904300000024,117.56396500000028,85.12841800000024,34.102539000000434,118.58984400000008,134.3588869999994,112.82031300000017
37,165.38476599999922,157.94873000000007,123.84619099999964,171.53857400000015,136.15380900000036,117.94873000000007,117.82031300000017,119.10253900000043,123.58984400000008,95.76904300000024,38.46142599999985,123.7177729999994,148.7177729999994,112.43603499999972
38,173.0771479999994,162.82031300000017,127.94873000000007,176.79492200000004,137.94873000000007,117.56396500000028,120.89746099999957,121.41015599999992,125.76904300000024,99.74365200000011,44.102539000000434,127.82031300000017,154.61523400000078,111.6665039999998
39,174.61523400000078,165.51269500000035,127.30761700000039,175.38476599999922,134.48730499999965,117.69238299999961,121.0258789999998,121.2822270000006,123.58984400000008,97.82031300000017,47.69238299999961,128.3334960000002,150.76904300000024,110.64111300000059
40,171.0258789999998,164.87158199999976,123.9741210000002,170.38476599999922,128.3334960000002,117.82031300000017,119.35888699999941,118.84619099999964,118.7177729999994,92.05126999999993,49.48730499999965,126.53857400000015,141.79492200000004,109.48730499999965
41,166.6665039999998,161.6665039999998,121.6665039999998,166.41015599999992,123.58984400000008,117.94873000000007,118.7177729999994,115.89746099999957,114.74365200000011,85.12841800000024,52.56396500000028,125.51269500000035,133.9741210000002,108.3334960000002
42,165.51269500000035,157.6923829999996,122.30761700000039,166.2822270000006,124.23095699999976,117.94873000000007,120.38476599999922,114.48730499999965,114.35888699999941,80.64111300000059,57.82031300000017,127.69238299999961,131.53857400000015,107.82031300000017
43,167.05126999999993,153.84619099999964,124.48730499999965,168.20507799999996,130.12841800000024,118.0771479999994,122.56396500000028,115.25634799999989,116.6665039999998,81.2822270000006,61.53857400000015,130.38476599999922,133.3334960000002,108.9741210000002
44,167.17968800000017,149.61523400000078,124.74365200000011,168.7177729999994,136.6665039999998,117.69238299999961,122.30761700000039,116.41015599999992,117.94873000000007,86.2822270000006,58.0771479999994,129.61523400000078,135.51269500000035,111.79492200000004
45,163.0771479999994,144.7436520000001,121.2822270000006,165.89746099999957,138.58984400000008,116.79492200000004,118.3334960000002,116.15380900000036,116.0258789999998,92.56396500000028,47.43603499999972,124.23095699999976,135.12841800000024,114.74365200000011
46,156.79492200000004,142.17968800000017,116.53857400000015,161.9228520000006,134.7436520000001,116.15380900000036,113.46142599999985,115.12841800000024,113.20507799999996,96.41015599999992,37.30761700000039,118.58984400000008,133.20507799999996,115.89746099999957
47,154.10253900000043,146.2822270000006,115.89746099999957,161.9228520000006,130.0,116.41015599999992,113.0771479999994,116.15380900000036,114.74365200000011,97.43603499999972,38.7177729999994,118.7177729999994,134.23095699999976,114.87158199999976
48,158.84619099999964,158.0771479999994,122.05126999999993,168.3334960000002,129.61523400000078,117.69238299999961,119.35888699999941,121.41015599999992,123.7177729999994,98.46142599999985,56.2822270000006,127.05126999999993,141.53857400000015,112.56396500000028
49,168.0771479999994,173.20507799999996,132.17968800000017,178.84619099999964,134.87158199999976,119.23095699999976,129.23095699999976,129.48730499999965,137.05126999999993,102.69238299999961,82.43603499999972,138.84619099999964,153.46142599999985,110.64111300000059
50,174.87158199999976,183.20507799999996,139.48730499999965,187.56396500000028,141.53857400000015,120.0,136.0258789999998,136.9228520000006,147.94873000000007,110.51269500000035,101.9228520000006,146.53857400000015,163.84619099999964,110.0
51,173.58984400000008,181.9228520000006,138.7177729999994,189.48730499999965,144.61523400000078,119.87158199999976,135.76904300000024,139.7436520000001,150.51269500000035,118.84619099999964,103.9741210000002,145.6411130000006,167.82031300000017,110.76904300000024
52,164.3588869999994,170.51269500000035,130.76904300000024,183.0771479999994,142.56396500000028,119.10253900000043,129.3588869999994,137.17968800000017,145.0,123.46142599999985,90.51269500000035,138.20507799999996,165.12841800000024,111.6665039999998
53,152.94873000000007,156.2822270000006,121.53857400000015,172.3076170000004,136.53857400000015,118.0771479999994,121.53857400000015,131.6665039999998,136.41015599999992,121.15380900000036,73.20507799999996,129.87158199999976,159.87158199999976,111.79492200000004
54,144.7436520000001,146.15380900000036,115.89746099999957,162.94873000000007,128.84619099999964,116.9228520000006,116.6665039999998,126.15380900000036,129.3588869999994,112.30761700000039,62.94873000000007,124.61523400000078,155.6411130000006,110.89746099999957
55,141.15380900000036,142.82031300000017,114.10253900000043,158.9741210000002,122.05126999999993,115.76904300000024,115.64111300000059,122.30761700000039,124.74365200000011,100.38476599999922,60.897460999999566,122.56396500000028,152.3076170000004,110.25634799999989
56,140.38476599999922,144.48730499999965,112.94873000000007,160.51269500000035,118.84619099999964,115.25634799999989,116.0258789999998,119.48730499999965,120.89746099999957,90.38476599999922,61.410155999999915,121.41015599999992,147.3076170000004,110.76904300000024
57,140.51269500000035,148.7177729999994,110.76904300000024,165.0,120.64111300000059,116.0258789999998,116.15380900000036,117.17968800000017,117.43603499999972,86.0258789999998,59.23095699999976,119.87158199999976,140.12841800000024,112.43603499999972
58,141.41015599999992,152.82031300000017,108.84619099999964,169.10253900000043,125.25634799999989,117.17968800000017,116.2822270000006,116.15380900000036,115.76904300000024,86.79492200000004,55.76904300000024,118.9741210000002,133.46142599999985,113.58984400000008
59,143.20507799999996,154.10253900000043,109.23095699999976,169.87158199999976,127.56396500000028,117.17968800000017,117.17968800000017,117.05126999999993,116.2822270000006,88.20507799999996,56.153809000000365,119.74365200000011,130.51269500000035,113.0771479999994
60,145.12841800000024,151.0258789999998,111.6665039999998,166.15380900000036,123.58984400000008,114.87158199999976,118.46142599999985,118.84619099999964,117.17968800000017,86.9228520000006,62.05126999999993,121.79492200000004,132.3076170000004,111.41015599999992
61,145.51269500000035,145.0,114.10253900000043,160.0,115.51269500000035,110.76904300000024,118.46142599999985,119.10253900000043,116.15380900000036,83.3334960000002,69.48730499999965,122.94873000000007,136.9228520000006,110.12841800000024
62,144.7436520000001,140.6411130000006,114.87158199999976,155.6411130000006,109.74365200000011,107.69238299999961,117.43603499999972,117.30761700000039,113.58984400000008,82.43603499999972,73.20507799999996,121.79492200000004,142.17968800000017,110.25634799999989
63,145.2563479999999,141.6665039999998,114.74365200000011,157.43603499999972,112.43603499999972,107.94873000000007,116.79492200000004,115.64111300000059,112.30761700000039,88.20507799999996,72.17968800000017,120.12841800000024,147.43603499999972,111.79492200000004
64,149.10253900000043,149.10253900000043,115.76904300000024,166.79492200000004,123.0771479999994,111.6665039999998,118.46142599999985,116.9228520000006,115.38476599999922,99.48730499999965,70.38476599999922,121.0258789999998,153.0771479999994,113.3334960000002
65,155.38476599999922,159.23095699999976,118.84619099999964,180.0,135.6411130000006,116.53857400000015,122.56396500000028,122.17968800000017,122.69238299999961,110.76904300000024,72.56396500000028,126.2822270000006,158.58984400000008,113.7177729999994
66,159.87158199999976,166.79492200000004,122.82031300000017,189.7436520000001,142.82031300000017,119.35888699999941,126.53857400000015,129.23095699999976,131.15380900000036,117.17968800000017,79.74365200000011,133.3334960000002,162.17968800000017,112.43603499999972
67,158.58984400000008,167.3076170000004,124.61523400000078,190.76904300000024,140.89746099999957,118.58984400000008,127.69238299999961,133.58984400000008,136.2822270000006,117.05126999999993,87.56396500000028,137.6923829999996,160.89746099999957,110.25634799999989
68,151.0258789999998,160.6411130000006,122.43603499999972,183.20507799999996,132.43603499999972,115.25634799999989,124.61523400000078,132.43603499999972,135.76904300000024,112.17968800000017,90.76904300000024,136.15380900000036,154.3588869999994,108.7177729999994
69,140.38476599999922,149.7436520000001,116.6665039999998,172.3076170000004,122.82031300000017,112.43603499999972,118.9741210000002,126.9228520000006,130.0,105.25634799999989,86.79492200000004,129.61523400000078,144.7436520000001,109.35888699999941
70,131.41015599999992,139.3588869999994,109.74365200000011,164.23095699999976,116.2822270000006,112.30761700000039,114.35888699999941,120.38476599999922,121.79492200000004,98.20507799999996,76.79492200000004,121.79492200000004,136.0258789999998,111.6665039999998
71,126.53857400000015,132.56396500000028,103.7177729999994,160.89746099999957,113.0771479999994,114.23095699999976,113.0771479999994,115.64111300000059,113.7177729999994,92.82031300000017,64.61523400000078,116.0258789999998,131.53857400000015,114.10253900000043
72,124.61523400000078,129.48730499999965,99.87158199999976,160.0,109.74365200000011,116.53857400000015,114.74365200000011,113.84619099999964,107.43603499999972,89.74365200000011,54.102539000000434,113.7177729999994,131.2822270000006,115.0
73,123.58984400000008,128.84619099999964,98.84619099999964,158.3334960000002,104.48730499999965,117.30761700000039,116.53857400000015,113.9741210000002,103.7177729999994,88.9741210000002,48.846190999999635,113.7177729999994,132.3076170000004,113.9741210000002
74,123.46142599999985,130.0,100.64111300000059,155.89746099999957,100.12841800000024,116.6665039999998,116.2822270000006,114.23095699999976,103.46142599999985,89.35888699999941,50.38476599999922,114.10253900000043,131.79492200000004,111.6665039999998
75,125.25634799999989,133.0771479999994,104.87158199999976,155.89746099999957,102.05126999999993,115.76904300000024,114.23095699999976,114.74365200000011,106.79492200000004,89.48730499999965,57.30761700000039,114.61523400000078,129.23095699999976,109.23095699999976
76,128.7177729999994,138.46142599999985,109.35888699999941,160.89746099999957,112.82031300000017,115.64111300000059,112.94873000000007,116.2822270000006,112.43603499999972,88.84619099999964,65.51269500000035,115.64111300000059,127.30761700000039,108.46142599999985
77,132.17968800000017,144.61523400000078,111.79492200000004,169.61523400000078,127.69238299999961,116.0258789999998,115.0,118.7177729999994,117.56396500000028,87.69238299999961,70.89746099999957,117.05126999999993,128.0771479999994,109.74365200000011
78,133.58984400000008,148.0771479999994,110.64111300000059,177.3076170000004,138.0771479999994,115.76904300000024,120.38476599999922,120.38476599999922,119.61523400000078,87.17968800000017,72.30761700000039,117.82031300000017,131.41015599999992,112.43603499999972
79,133.20507799999996,147.6923829999996,107.05126999999993,180.2563479999999,138.7177729999994,114.74365200000011,126.41015599999992,119.74365200000011,117.82031300000017,89.23095699999976,71.6665039999998,117.05126999999993,134.87158199999976,114.61523400000078
80,133.3334960000002,145.51269500000035,104.74365200000011,179.23095699999976,132.43603499999972,113.7177729999994,130.12841800000024,118.0771479999994,114.61523400000078,95.0,72.17968800000017,115.89746099999957,136.6665039999998,115.0
81,136.41015599999992,145.38476599999922,106.41015599999992,177.94873000000007,126.41015599999992,114.23095699999976,130.76904300000024,117.94873000000007,113.7177729999994,102.94873000000007,76.0258789999998,115.76904300000024,136.41015599999992,113.58984400000008
82,141.6665039999998,148.3334960000002,111.41015599999992,179.3588869999994,124.87158199999976,116.0258789999998,129.10253900000043,121.2822270000006,116.41015599999992,109.10253900000043,81.2822270000006,116.9228520000006,135.2563479999999,111.2822270000006
83,145.12841800000024,151.2822270000006,115.12841800000024,181.53857400000015,125.76904300000024,117.56396500000028,126.0258789999998,126.0258789999998,120.38476599999922,110.0,83.46142599999985,118.58984400000008,133.9741210000002,109.23095699999976
84,142.6923829999996,150.12841800000024,113.46142599999985,180.76904300000024,123.9741210000002,117.82031300000017,121.41015599999992,128.3334960000002,121.9228520000006,105.64111300000059,78.7177729999994,119.10253900000043,132.6923829999996,108.46142599999985
85,134.61523400000078,144.7436520000001,106.15380900000036,174.3588869999994,117.82031300000017,117.17968800000017,116.0258789999998,125.38476599999922,119.23095699999976,99.74365200000011,68.46142599999985,117.56396500000028,130.89746099999957,109.35888699999941
86,127.17968800000017,138.58984400000008,97.94873000000007,165.12841800000024,112.05126999999993,116.41015599999992,112.17968800000017,118.84619099999964,114.61523400000078,97.17968800000017,60.12841800000024,114.74365200000011,129.23095699999976,111.53857400000015
87,126.6665039999998,136.2822270000006,95.0,159.87158199999976,113.58984400000008,116.41015599999992,112.56396500000028,113.3334960000002,111.6665039999998,99.61523400000078,60.897460999999566,113.20507799999996,129.10253900000043,113.58984400000008
88,134.23095699999976,139.23095699999976,99.61523400000078,163.84619099999964,123.7177729999994,117.05126999999993,117.82031300000017,112.30761700000039,112.43603499999972,104.74365200000011,71.6665039999998,114.48730499999965,131.53857400000015,114.23095699999976
89,144.3588869999994,144.23095699999976,108.84619099999964,175.2563479999999,135.51269500000035,117.56396500000028,125.38476599999922,115.51269500000035,115.38476599999922,107.94873000000007,85.0,117.56396500000028,134.48730499999965,113.20507799999996
90,149.3588869999994,145.76904300000024,116.0258789999998,185.38476599999922,138.46142599999985,117.30761700000039,131.0258789999998,119.61523400000078,117.43603499999972,106.2822270000006,91.2822270000006,119.48730499999965,134.7436520000001,111.41015599999992
91,146.0258789999998,141.53857400000015,115.89746099999957,186.79492200000004,128.46142599999985,116.53857400000015,131.79492200000004,121.15380900000036,117.17968800000017,100.51269500000035,86.15380900000036,118.3334960000002,130.76904300000024,109.61523400000078
92,137.05126999999993,133.7177729999994,108.46142599999985,179.10253900000043,111.6665039999998,116.15380900000036,127.30761700000039,119.74365200000011,115.38476599999922,94.48730499999965,74.10253900000043,114.48730499999965,124.48730499999965,108.0771479999994
93,128.58984400000008,127.30761700000039,99.35888699999941,168.84619099999964,99.87158199999976,116.79492200000004,120.89746099999957,116.9228520000006,113.7177729999994,91.2822270000006,63.846190999999635,111.0258789999998,119.87158199999976,107.56396500000028
94,125.0,125.89746099999957,94.87158199999976,163.0771479999994,101.6665039999998,118.20507799999996,116.15380900000036,114.74365200000011,112.82031300000017,92.17968800000017,62.56396500000028,110.25634799999989,119.87158199999976,108.3334960000002
95,127.30761700000039,129.87158199999976,97.43603499999972,165.38476599999922,115.89746099999957,119.10253900000043,115.12841800000024,114.74365200000011,112.94873000000007,96.2822270000006,70.25634799999989,112.56396500000028,124.61523400000078,109.87158199999976
96,132.3076170000004,135.6411130000006,104.35888699999941,173.20507799999996,132.05126999999993,118.7177729999994,116.53857400000015,116.0258789999998,113.3334960000002,101.79492200000004,81.15380900000036,115.89746099999957,131.0258789999998,111.6665039999998
97,135.6411130000006,137.94873000000007,110.12841800000024,180.76904300000024,138.3334960000002,117.05126999999993,117.82031300000017,116.9228520000006,113.3334960000002,106.6665039999998,87.94873000000007,117.69238299999961,134.61523400000078,112.82031300000017
98,134.61523400000078,134.48730499999965,110.76904300000024,183.0771479999994,131.15380900000036,115.38476599999922,117.43603499999972,116.79492200000004,113.0771479999994,109.23095699999976,86.53857400000015,116.9228520000006,133.9741210000002,112.94873000000007
99,130.76904300000024,128.20507799999996,107.17968800000017,181.15380900000036,118.0771479999994,114.61523400000078,116.79492200000004,117.69238299999961,114.48730499999965,110.0,79.48730499999965,114.87158199999976,131.41015599999992,112.43603499999972
100,128.0771479999994,126.0258789999998,104.10253900000043,179.87158199999976,111.79492200000004,115.12841800000024,118.3334960000002,121.6665039999998,119.48730499999965,111.9228520000006,73.84619099999964,113.58984400000008,131.2822270000006,111.2822270000006
101,129.61523400000078,131.15380900000036,105.76904300000024,182.82031300000017,118.46142599999985,116.0258789999998,122.43603499999972,128.3334960000002,127.56396500000028,116.9228520000006,75.38476599999922,114.74365200000011,136.6665039999998,110.25634799999989
102,134.61523400000078,140.0,111.41015599999992,187.17968800000017,132.17968800000017,116.79492200000004,127.05126999999993,134.61523400000078,134.7436520000001,123.3334960000002,83.7177729999994,117.30761700000039,145.51269500000035,110.25634799999989
103,138.9741210000002,145.2563479999999,116.41015599999992,186.79492200000004,140.6411130000006,116.6665039999998,128.3334960000002,136.2822270000006,136.2822270000006,125.76904300000024,91.79492200000004,118.9741210000002,151.9228520000006,111.53857400000015
104,138.84619099999964,141.79492200000004,116.0258789999998,178.58984400000008,136.41015599999992,115.89746099999957,124.35888699999941,131.9228520000006,130.38476599999922,120.76904300000024,93.0771479999994,118.20507799999996,150.38476599999922,113.20507799999996
105,134.3588869999994,131.6665039999998,110.38476599999922,166.9228520000006,123.7177729999994,114.74365200000011,117.17968800000017,123.84619099999964,120.64111300000059,110.51269500000035,86.9228520000006,115.51269500000035,141.6665039999998,114.10253900000043
106,129.61523400000078,122.05126999999993,104.48730499999965,160.38476599999922,113.46142599999985,113.84619099999964,111.6665039999998,117.05126999999993,113.0771479999994,102.17968800000017,79.87158199999976,113.7177729999994,132.6923829999996,113.84619099999964
107,128.46142599999985,119.10253900000043,103.58984400000008,164.61523400000078,112.69238299999961,113.84619099999964,111.15380900000036,114.74365200000011,112.17968800000017,102.43603499999972,78.0771479999994,114.74365200000011,130.12841800000024,112.94873000000007
108,130.51269500000035,123.20507799999996,108.20507799999996,176.2822270000006,118.3334960000002,114.48730499999965,114.74365200000011,116.6665039999998,115.89746099999957,110.64111300000059,81.79492200000004,117.17968800000017,134.48730499999965,111.9228520000006
109,132.6923829999996,129.3588869999994,114.61523400000078,186.15380900000036,121.9228520000006,114.74365200000011,117.94873000000007,118.9741210000002,119.23095699999976,118.9741210000002,85.76904300000024,117.82031300000017,139.61523400000078,111.0258789999998
110,132.56396500000028,133.0771479999994,118.20507799999996,187.43603499999972,119.35888699999941,114.61523400000078,117.82031300000017,119.35888699999941,118.7177729999994,121.15380900000036,86.2822270000006,115.89746099999957,139.87158199999976,111.15380900000036
111,131.53857400000015,133.58984400000008,118.0771479999994,182.3076170000004,114.35888699999941,114.87158199999976,115.76904300000024,118.20507799999996,116.2822270000006,117.69238299999961,85.38476599999922,113.7177729999994,136.41015599999992,112.30761700000039
112,132.3076170000004,134.3588869999994,116.0258789999998,178.7177729999994,113.3334960000002,115.76904300000024,114.74365200000011,118.58984400000008,116.79492200000004,115.12841800000024,87.94873000000007,114.48730499999965,134.7436520000001,113.7177729999994
113,136.0258789999998,137.6923829999996,114.74365200000011,181.6665039999998,118.9741210000002,116.6665039999998,116.41015599999992,122.05126999999993,122.05126999999993,118.46142599999985,95.89746099999957,119.35888699999941,139.3588869999994,113.84619099999964
114,140.89746099999957,143.20507799999996,115.76904300000024,189.7436520000001,128.7177729999994,116.41015599999992,119.23095699999976,127.43603499999972,129.48730499999965,126.53857400000015,105.25634799999989,125.76904300000024,149.61523400000078,112.56396500000028
115,143.9741210000002,147.94873000000007,118.7177729999994,196.41015599999992,136.9228520000006,114.61523400000078,121.2822270000006,131.79492200000004,134.48730499999965,134.10253900000043,110.12841800000024,130.12841800000024,160.38476599999922,111.15380900000036
116,143.7177729999994,148.0771479999994,121.2822270000006,196.41015599999992,138.9741210000002,112.30761700000039,121.9228520000006,132.94873000000007,133.84619099999964,135.51269500000035,107.30761700000039,130.0,164.7436520000001,110.89746099999957
117,140.0,141.15380900000036,120.51269500000035,188.7177729999994,133.20507799999996,110.51269500000035,121.2822270000006,129.61523400000078,128.0771479999994,129.10253900000043,97.82031300000017,125.38476599999922,158.3334960000002,111.41015599999992
118,134.61523400000078,128.46142599999985,115.64111300000059,178.0771479999994,122.43603499999972,109.74365200000011,119.48730499999965,123.46142599999985,120.25634799999989,117.43603499999972,86.6665039999998,118.84619099999964,142.3076170000004,112.30761700000039
119,130.6411130000006,115.89746099999957,108.84619099999964,171.53857400000015,112.17968800000017,110.64111300000059,116.6665039999998,117.82031300000017,114.87158199999976,106.9228520000006,79.61523400000078,114.48730499999965,125.0,112.69238299999961
120,130.12841800000024,110.0,104.23095699999976,173.20507799999996,106.6665039999998,112.94873000000007,113.3334960000002,115.89746099999957,114.23095699999976,102.94873000000007,80.12841800000024,114.87158199999976,116.0258789999998,112.43603499999972
121,131.9228520000006,112.17968800000017,103.46142599999985,179.61523400000078,105.38476599999922,115.38476599999922,110.12841800000024,117.69238299999961,116.9228520000006,105.25634799999989,86.53857400000015,118.46142599999985,118.58984400000008,111.41015599999992
122,132.94873000000007,118.7177729999994,105.12841800000024,182.6923829999996,104.61523400000078,116.15380900000036,107.56396500000028,120.25634799999989,118.7177729999994,109.74365200000011,93.7177729999994,120.51269500000035,127.82031300000017,109.87158199999976
123,131.2822270000006,124.48730499999965,106.6665039999998,177.82031300000017,102.17968800000017,114.61523400000078,106.0258789999998,120.64111300000059,116.9228520000006,112.69238299999961,97.17968800000017,118.0771479999994,135.0,108.84619099999964
124,128.46142599999985,128.0771479999994,107.05126999999993,168.58984400000008,99.61523400000078,112.56396500000028,106.79492200000004,118.58984400000008,112.94873000000007,114.74365200000011,96.79492200000004,113.3334960000002,136.0258789999998,108.46142599999985
125,128.0771479999994,130.6411130000006,107.43603499999972,163.58984400000008,101.2822270000006,111.9228520000006,111.15380900000036,116.6665039999998,111.15380900000036,119.23095699999976,96.15380900000036,111.53857400000015,133.58984400000008,108.84619099999964
126,132.56396500000028,134.10253900000043,109.74365200000011,168.7177729999994,109.74365200000011,113.3334960000002,118.58984400000008,118.0771479999994,115.38476599999922,127.30761700000039,99.23095699999976,116.0258789999998,133.58984400000008,109.23095699999976
127,140.2563479999999,138.3334960000002,114.48730499999965,181.9228520000006,122.43603499999972,114.87158199999976,126.6665039999998,122.94873000000007,123.9741210000002,135.6411130000006,105.76904300000024,124.48730499999965,138.7177729999994,109.87158199999976
128,146.53857400000015,141.15380900000036,120.12841800000024,195.0,133.46142599999985,115.12841800000024,131.41015599999992,128.7177729999994,131.79492200000004,139.48730499999965,111.79492200000004,131.79492200000004,146.41015599999992,111.15380900000036
129,147.43603499999972,140.89746099999957,123.84619099999964,200.12841800000024,137.43603499999972,113.9741210000002,130.76904300000024,131.41015599999992,134.23095699999976,136.53857400000015,113.20507799999996,133.46142599999985,151.79492200000004,112.69238299999961
130,142.43603499999972,137.43603499999972,123.20507799999996,195.6411130000006,132.94873000000007,112.30761700000039,126.15380900000036,129.7436520000001,130.89746099999957,129.10253900000043,108.7177729999994,128.84619099999964,151.6665039999998,113.3334960000002
131,134.48730499999965,132.05126999999993,118.58984400000008,186.2822270000006,123.3334960000002,111.2822270000006,120.25634799999989,124.74365200000011,124.74365200000011,121.53857400000015,100.0,121.15380900000036,145.51269500000035,112.69238299999961
132,127.56396500000028,126.15380900000036,112.43603499999972,178.0771479999994,113.84619099999964,111.41015599999992,115.38476599999922,119.35888699999941,119.48730499999965,117.05126999999993,90.51269500000035,114.10253900000043,135.89746099999957,111.15380900000036
133,125.38476599999922,122.94873000000007,109.10253900000043,174.61523400000078,109.35888699999941,112.69238299999961,112.30761700000039,116.2822270000006,117.56396500000028,117.30761700000039,84.61523400000078,111.79492200000004,127.56396500000028,109.87158199999976
134,129.7436520000001,125.64111300000059,111.41015599999992,175.76904300000024,111.41015599999992,114.10253900000043,112.69238299999961,117.56396500000028,120.51269500000035,122.43603499999972,86.6665039999998,115.38476599999922,126.15380900000036,109.48730499999965
135,138.9741210000002,134.10253900000043,118.9741210000002,179.61523400000078,117.43603499999972,114.48730499999965,116.9228520000006,122.82031300000017,126.9228520000006,130.76904300000024,97.17968800000017,122.94873000000007,133.3334960000002,110.0
136,148.46142599999985,143.46142599999985,127.17968800000017,183.0771479999994,121.9228520000006,113.46142599999985,123.58984400000008,128.3334960000002,132.6923829999996,136.79492200000004,110.76904300000024,130.0,144.87158199999976,110.89746099999957
137,152.43603499999972,146.6665039999998,130.2563479999999,184.23095699999976,121.9228520000006,111.79492200000004,128.46142599999985,129.87158199999976,132.82031300000017,134.87158199999976,118.20507799999996,131.79492200000004,152.43603499999972,111.6665039999998
138,149.23095699999976,141.41015599999992,126.15380900000036,183.9741210000002,118.84619099999964,110.51269500000035,128.7177729999994,125.51269500000035,126.0258789999998,124.74365200000011,114.74365200000011,127.30761700000039,151.41015599999992,111.9228520000006
139,142.82031300000017,133.0771479999994,118.84619099999964,185.38476599999922,117.82031300000017,110.38476599999922,125.0,119.10253900000043,116.9228520000006,113.0771479999994,104.23095699999976,120.64111300000059,144.10253900000043,111.6665039999998
140,140.2563479999999,129.61523400000078,114.74365200000011,191.0258789999998,123.0771479999994,111.2822270000006,121.41015599999992,116.53857400000015,112.30761700000039,108.58984400000008,97.05126999999993,117.43603499999972,138.3334960000002,111.79492200000004
141,145.0,134.7436520000001,117.30761700000039,200.6411130000006,134.48730499999965,112.56396500000028,121.79492200000004,120.25634799999989,115.38476599999922,114.74365200000011,100.0,120.64111300000059,139.7436520000001,112.17968800000017
142,154.23095699999976,144.61523400000078,124.48730499999965,210.0,147.05126999999993,113.20507799999996,126.6665039999998,127.69238299999961,123.20507799999996,126.79492200000004,111.41015599999992,128.0771479999994,147.05126999999993,112.17968800000017
143,160.89746099999957,151.6665039999998,130.76904300000024,213.84619099999964,153.9741210000002,112.94873000000007,132.56396500000028,133.0771479999994,130.12841800000024,136.0258789999998,121.9228520000006,134.61523400000078,153.46142599999985,111.0258789999998
144,159.7436520000001,149.87158199999976,131.2822270000006,209.23095699999976,151.0258789999998,112.56396500000028,135.38476599999922,132.43603499999972,130.89746099999957,136.53857400000015,122.56396500000028,135.89746099999957,152.56396500000028,109.74365200000011
145,150.2563479999999,139.7436520000001,125.64111300000059,198.46142599999985,139.3588869999994,112.82031300000017,132.56396500000028,126.9228520000006,125.12841800000024,129.3588869999994,111.79492200000004,130.6411130000006,143.0771479999994,109.48730499999965
146,137.3076170000004,127.43603499999972,117.69238299999961,187.6923829999996,125.25634799999989,113.9741210000002,125.64111300000059,120.89746099999957,117.05126999999993,121.2822270000006,96.53857400000015,122.05126999999993,130.0,110.76904300000024
147,127.82031300000017,120.89746099999957,112.17968800000017,182.82031300000017,115.89746099999957,115.38476599999922,119.48730499999965,119.23095699999976,112.94873000000007,118.84619099999964,86.79492200000004,115.0,121.53857400000015,112.43603499999972
148,126.0258789999998,123.0771479999994,111.6665039999998,185.2563479999999,114.35888699999941,116.15380900000036,117.69238299999961,122.94873000000007,115.38476599999922,123.0771479999994,87.43603499999972,113.46142599999985,121.79492200000004,113.46142599999985
149,130.0,128.84619099999964,113.7177729999994,190.51269500000035,117.69238299999961,115.51269500000035,119.74365200000011,127.56396500000028,120.76904300000024,128.20507799999996,95.0,116.2822270000006,127.43603499999972,113.3334960000002
150,133.58984400000008,129.87158199999976,114.48730499999965,192.82031300000017,119.87158199999976,113.0771479999994,121.41015599999992,127.56396500000028,122.43603499999972,126.41015599999992,100.64111300000059,119.35888699999941,130.12841800000024,112.43603499999972
151,133.0771479999994,122.82031300000017,111.6665039999998,190.12841800000024,117.43603499999972,110.51269500000035,119.48730499999965,121.2822270000006,116.53857400000015,116.0258789999998,98.46142599999985,119.23095699999976,125.0,111.53857400000015
152,130.0,113.20507799999996,107.82031300000017,185.89746099999957,113.3334960000002,110.12841800000024,115.38476599999922,113.46142599999985,107.05126999999993,104.10253900000043,91.53857400000015,116.9228520000006,115.25634799999989,111.0258789999998
153,129.23095699999976,110.25634799999989,107.43603499999972,185.12841800000024,112.69238299999961,113.0771479999994,113.7177729999994,111.15380900000036,102.30761700000039,100.89746099999957,88.20507799999996,115.89746099999957,109.87158199999976,110.76904300000024
154,132.17968800000017,117.56396500000028,112.05126999999993,189.3588869999994,117.69238299999961,117.17968800000017,117.17968800000017,117.05126999999993,106.9228520000006,110.12841800000024,93.7177729999994,117.94873000000007,114.48730499999965,110.89746099999957
155,135.6411130000006,129.3588869999994,118.3334960000002,194.7436520000001,125.0,119.35888699999941,123.46142599999985,126.79492200000004,117.05126999999993,126.15380900000036,104.74365200000011,121.15380900000036,125.76904300000024,111.0258789999998
156,134.3588869999994,135.12841800000024,120.76904300000024,195.89746099999957,128.20507799999996,118.20507799999996,126.6665039999998,132.56396500000028,124.87158199999976,138.3334960000002,112.43603499999972,122.69238299999961,133.7177729999994,111.15380900000036
157,127.17968800000017,129.61523400000078,117.69238299999961,190.51269500000035,123.84619099999964,115.51269500000035,123.9741210000002,129.87158199999976,125.12841800000024,139.7436520000001,111.41015599999992,121.2822270000006,131.9228520000006,111.0258789999998
158,118.20507799999996,116.15380900000036,112.43603499999972,181.6665039999998,114.23095699999976,113.7177729999994,117.17968800000017,121.15380900000036,119.23095699999976,131.2822270000006,103.9741210000002,118.7177729999994,122.82031300000017,110.64111300000059
159,113.7177729999994,103.3334960000002,110.38476599999922,174.3588869999994,105.12841800000024,114.35888699999941,111.53857400000015,112.94873000000007,112.82031300000017,120.0,97.30761700000039,117.17968800000017,114.87158199999976,110.38476599999922
160,115.89746099999957,97.56396500000028,113.20507799999996,171.79492200000004,101.2822270000006,116.15380900000036,110.76904300000024,110.0,109.74365200000011,113.3334960000002,96.0258789999998,117.56396500000028,113.84619099999964,110.64111300000059
161,121.79492200000004,99.35888699999941,118.0771479999994,173.20507799999996,102.30761700000039,116.6665039999998,114.23095699999976,112.30761700000039,109.87158199999976,113.7177729999994,98.84619099999964,118.7177729999994,118.20507799999996,111.53857400000015
162,125.38476599999922,103.84619099999964,120.12841800000024,175.89746099999957,104.23095699999976,114.35888699999941,118.20507799999996,116.15380900000036,110.12841800000024,117.69238299999961,100.12841800000024,118.7177729999994,121.0258789999998,112.82031300000017
163,123.58984400000008,105.89746099999957,116.79492200000004,177.6923829999996,103.58984400000008,110.0,118.7177729999994,117.69238299999961,107.82031300000017,119.87158199999976,96.41015599999992,116.9228520000006,117.69238299999961,113.7177729999994
164,117.82031300000017,103.7177729999994,108.9741210000002,177.43603499999972,100.25634799999989,106.6665039999998,115.38476599999922,116.53857400000015,103.0771479999994,117.05126999999993,89.10253900000043,114.10253900000043,109.48730499999965,113.3334960000002
165,111.9228520000006,98.7177729999994,100.64111300000059,174.7436520000001,97.05126999999993,106.6665039999998,110.64111300000059,113.7177729999994,99.10253900000043,111.0258789999998,82.82031300000017,111.9228520000006,102.30761700000039,111.9228520000006
166,109.61523400000078,94.87158199999976,96.2822270000006,170.2563479999999,96.9228520000006,110.12841800000024,108.20507799999996,111.9228520000006,98.7177729999994,106.79492200000004,81.15380900000036,111.53857400000015,100.64111300000059,109.87158199999976
167,112.05126999999993,95.25634799999989,97.56396500000028,165.51269500000035,101.53857400000015,114.48730499999965,109.87158199999976,112.56396500000028,102.30761700000039,107.69238299999961,83.84619099999964,113.0771479999994,105.0,108.46142599999985
168,117.05126999999993,99.87158199999976,102.82031300000017,162.94873000000007,109.61523400000078,117.17968800000017,114.48730499999965,115.25634799999989,107.05126999999993,111.79492200000004,87.56396500000028,115.38476599999922,111.9228520000006,107.94873000000007
169,120.76904300000024,105.64111300000059,108.3334960000002,163.7177729999994,117.69238299999961,117.05126999999993,118.58984400000008,117.82031300000017,109.61523400000078,114.61523400000078,89.48730499999965,116.79492200000004,116.2822270000006,108.58984400000008
170,120.64111300000059,108.3334960000002,111.0258789999998,166.53857400000015,121.53857400000015,114.87158199999976,119.87158199999976,118.20507799999996,108.84619099999964,112.56396500000028,89.23095699999976,116.9228520000006,115.89746099999957,109.87158199999976
171,117.69238299999961,106.2822270000006,110.12841800000024,168.7177729999994,118.84619099999964,112.56396500000028,118.58984400000008,116.6665039999998,106.6665039999998,107.05126999999993,88.9741210000002,116.0258789999998,112.94873000000007,111.0258789999998
172,114.74365200000011,101.0258789999998,107.56396500000028,168.58984400000008,111.15380900000036,111.53857400000015,117.30761700000039,115.12841800000024,106.41015599999992,103.46142599999985,91.15380900000036,115.0,110.89746099999957,111.53857400000015
173,114.10253900000043,96.0258789999998,106.15380900000036,166.79492200000004,102.69238299999961,112.17968800000017,117.94873000000007,115.51269500000035,109.35888699999941,107.05126999999993,96.53857400000015,114.61523400000078,112.05126999999993,111.15380900000036
174,116.6665039999998,94.87158199999976,107.94873000000007,166.0258789999998,99.10253900000043,114.10253900000043,120.51269500000035,118.46142599999985,115.12841800000024,118.20507799999996,103.84619099999964,114.87158199999976,115.64111300000059,110.38476599999922
175,121.0258789999998,98.9741210000002,113.0771479999994,168.0771479999994,103.7177729999994,116.15380900000036,124.10253900000043,123.0771479999994,122.30761700000039,132.43603499999972,111.15380900000036,116.2822270000006,119.87158199999976,109.35888699999941
176,124.74365200000011,106.41015599999992,118.3334960000002,171.53857400000015,115.12841800000024,117.56396500000028,126.2822270000006,126.9228520000006,128.46142599999985,142.6923829999996,115.89746099999957,118.20507799999996,122.56396500000028,108.20507799999996
177,125.38476599999922,111.6665039999998,120.12841800000024,172.43603499999972,126.2822270000006,118.0771479999994,125.38476599999922,126.9228520000006,130.38476599999922,143.46142599999985,116.79492200000004,119.23095699999976,122.17968800000017,107.56396500000028
178,122.30761700000039,109.61523400000078,116.9228520000006,168.3334960000002,128.58984400000008,117.43603499999972,121.2822270000006,121.79492200000004,125.12841800000024,134.3588869999994,113.0771479999994,118.20507799999996,118.46142599999985,108.20507799999996
179,117.05126999999993,99.74365200000011,110.76904300000024,161.15380900000036,118.84619099999964,116.0258789999998,115.89746099999957,113.7177729999994,113.7177729999994,119.87158199999976,105.51269500000035,115.38476599999922,112.17968800000017,110.25634799999989
180,112.94873000000007,88.0771479999994,105.64111300000059,156.53857400000015,102.30761700000039,114.35888699999941,112.30761700000039,107.17968800000017,101.6665039999998,107.82031300000017,97.94873000000007,112.43603499999972,105.89746099999957,112.30761700000039
181,112.56396500000028,83.20507799999996,105.0,158.9741210000002,90.0,113.7177729999994,112.56396500000028,106.15380900000036,95.89746099999957,104.48730499999965,95.12841800000024,111.41015599999992,103.46142599999985,112.94873000000007
182,115.76904300000024,89.61523400000078,109.61523400000078,167.82031300000017,90.25634799999989,114.35888699999941,116.15380900000036,110.76904300000024,99.74365200000011,110.89746099999957,98.9741210000002,112.82031300000017,107.30761700000039,112.17968800000017
183,120.76904300000024,103.58984400000008,117.17968800000017,177.82031300000017,102.17968800000017,115.89746099999957,120.25634799999989,117.56396500000028,110.38476599999922,122.82031300000017,106.9228520000006,116.0258789999998,116.53857400000015,110.76904300000024
184,124.10253900000043,116.15380900000036,123.46142599999985,182.56396500000028,116.15380900000036,117.05126999999993,121.9228520000006,122.17968800000017,120.76904300000024,133.7177729999994,113.58984400000008,119.10253900000043,125.64111300000059,110.0
185,123.46142599999985,118.58984400000008,124.61523400000078,178.7177729999994,121.41015599999992,116.9228520000006,119.10253900000043,122.30761700000039,124.23095699999976,137.6923829999996,114.61523400000078,119.74365200000011,128.0771479999994,110.0
186,118.20507799999996,109.10253900000043,119.35888699999941,167.3076170000004,114.74365200000011,116.2822270000006,112.69238299999961,118.0771479999994,118.3334960000002,132.82031300000017,109.61523400000078,117.43603499999972,121.41015599999992,110.51269500000035
187,111.2822270000006,93.46142599999985,110.64111300000059,154.10253900000043,102.82031300000017,116.2822270000006,105.89746099999957,112.82031300000017,107.43603499999972,122.56396500000028,103.0771479999994,113.7177729999994,110.12841800000024,111.0258789999998
188,107.94873000000007,82.17968800000017,103.84619099999964,145.76904300000024,96.15380900000036,116.79492200000004,103.3334960000002,110.25634799999989,99.87158199999976,114.74365200000011,101.53857400000015,111.79492200000004,102.82031300000017,111.15380900000036
189,112.05126999999993,83.20507799999996,103.7177729999994,146.79492200000004,100.64111300000059,117.30761700000039,107.69238299999961,112.17968800000017,101.79492200000004,116.0258789999998,108.9741210000002,113.46142599999985,105.51269500000035,110.64111300000059
190,122.05126999999993,96.2822270000006,110.38476599999922,156.79492200000004,112.69238299999961,117.30761700000039,117.43603499999972,117.56396500000028,112.69238299999961,126.2822270000006,122.05126999999993,117.94873000000007,116.79492200000004,110.12841800000024
191,131.41015599999992,112.69238299999961,118.7177729999994,170.12841800000024,122.94873000000007,116.53857400000015,127.43603499999972,122.69238299999961,125.25634799999989,138.46142599999985,133.0771479999994,122.56396500000028,128.84619099999964,110.25634799999989
192,133.46142599999985,122.17968800000017,122.56396500000028,179.23095699999976,124.87158199999976,115.38476599999922,131.41015599999992,123.84619099999964,131.15380900000036,144.48730499999965,135.12841800000024,124.10253900000043,133.20507799999996,110.89746099999957
193,126.15380900000036,120.38476599999922,119.48730499999965,179.87158199999976,119.35888699999941,114.23095699999976,127.30761700000039,120.51269500000035,127.69238299999961,141.79492200000004,127.82031300000017,121.6665039999998,127.69238299999961,111.15380900000036
194,115.0,111.53857400000015,112.69238299999961,173.0771479999994,112.94873000000007,113.7177729999994,118.58984400000008,115.25634799999989,118.58984400000008,134.10253900000043,117.17968800000017,117.05126999999993,117.69238299999961,110.64111300000059
195,107.30761700000039,102.94873000000007,107.30761700000039,163.7177729999994,111.41015599999992,114.23095699999976,111.41015599999992,112.05126999999993,111.0258789999998,127.82031300000017,110.51269500000035,113.46142599999985,110.76904300000024,109.74365200000011
196,106.6665039999998,99.23095699999976,106.9228520000006,157.43603499999972,115.0,115.51269500000035,109.61523400000078,112.82031300000017,109.10253900000043,126.9228520000006,110.89746099999957,112.56396500000028,111.2822270000006,109.61523400000078
197,111.15380900000036,100.64111300000059,111.41015599999992,157.82031300000017,119.87158199999976,116.79492200000004,112.69238299999961,116.6665039999998,112.43603499999972,130.76904300000024,116.41015599999992,113.84619099999964,117.69238299999961,110.89746099999957
198,115.76904300000024,104.48730499999965,117.69238299999961,164.48730499999965,122.05126999999993,117.56396500000028,117.05126999999993,120.38476599999922,117.56396500000028,135.38476599999922,122.43603499999972,115.51269500000035,125.0,112.69238299999961
199,116.41015599999992,108.3334960000002,121.6665039999998,173.0771479999994,120.12841800000024,117.56396500000028,119.10253900000043,121.2822270000006,120.89746099999957,136.79492200000004,124.61523400000078,116.53857400000015,128.0771479999994,114.10253900000043
200,112.82031300000017,110.64111300000059,120.89746099999957,177.94873000000007,115.76904300000024,116.79492200000004,117.17968800000017,118.84619099999964,120.25634799999989,133.84619099999964,121.79492200000004,116.15380900000036,124.35888699999941,114.35888699999941
201,108.58984400000008,111.6665039999998,116.53857400000015,176.41015599999992,112.17968800000017,115.51269500000035,113.0771479999994,114.61523400000078,116.6665039999998,129.3588869999994,117.56396500000028,115.38476599999922,116.6665039999998,112.94873000000007
202,107.43603499999972,112.94873000000007,112.82031300000017,171.15380900000036,111.6665039999998,114.23095699999976,110.51269500000035,112.17968800000017,113.0771479999994,127.82031300000017,116.6665039999998,114.87158199999976,110.89746099999957,110.64111300000059
203,110.64111300000059,115.38476599999922,113.20507799999996,167.94873000000007,114.35888699999941,113.58984400000008,112.56396500000028,113.3334960000002,112.17968800000017,131.79492200000004,121.79492200000004,115.64111300000059,111.6665039999998,109.23095699999976
204,115.89746099999957,119.35888699999941,117.56396500000028,170.2563479999999,118.7177729999994,114.23095699999976,118.7177729999994,117.69238299999961,115.12841800000024,140.76904300000024,131.79492200000004,117.69238299999961,119.48730499999965,109.48730499999965
205,119.48730499999965,123.20507799999996,122.43603499999972,176.41015599999992,122.82031300000017,116.0258789999998,125.25634799999989,122.30761700000039,119.87158199999976,151.53857400000015,141.6665039999998,120.12841800000024,130.38476599999922,111.0258789999998
206,120.12841800000024,124.48730499999965,124.61523400000078,181.41015599999992,125.12841800000024,117.94873000000007,128.46142599999985,124.61523400000078,123.58984400000008,159.10253900000043,146.15380900000036,121.41015599999992,138.58984400000008,112.94873000000007
207,118.7177729999994,121.6665039999998,122.94873000000007,181.15380900000036,125.38476599999922,118.9741210000002,127.17968800000017,123.9741210000002,124.35888699999941,159.7436520000001,144.23095699999976,120.51269500000035,140.38476599999922,114.61523400000078
208,117.05126999999993,115.51269500000035,118.9741210000002,175.89746099999957,124.10253900000043,118.58984400000008,123.3334960000002,121.53857400000015,122.43603499999972,153.0771479999994,138.58984400000008,117.94873000000007,135.0,115.51269500000035
209,114.87158199999976,108.0771479999994,114.48730499999965,169.3588869999994,121.41015599999992,117.17968800000017,119.87158199999976,118.46142599999985,119.35888699999941,142.3076170000004,133.0771479999994,114.61523400000078,125.0,115.38476599999922
210,111.2822270000006,100.76904300000024,110.0,165.38476599999922,117.56396500000028,115.64111300000059,118.3334960000002,115.51269500000035,116.15380900000036,132.94873000000007,129.87158199999976,111.41015599999992,115.12841800000024,114.48730499999965
211,106.15380900000036,95.64111300000059,105.51269500000035,165.38476599999922,112.94873000000007,114.61523400000078,117.69238299999961,112.30761700000039,112.94873000000007,129.10253900000043,128.46142599999985,108.84619099999964,109.35888699999941,113.58984400000008
212,102.30761700000039,94.48730499999965,102.30761700000039,167.56396500000028,108.7177729999994,114.23095699999976,116.2822270000006,108.46142599999985,109.48730499999965,131.79492200000004,128.46142599999985,107.82031300000017,109.10253900000043,113.58984400000008
213,102.82031300000017,97.94873000000007,102.05126999999993,169.10253900000043,106.0258789999998,114.35888699999941,113.20507799999996,104.48730499999965,105.89746099999957,138.7177729999994,129.7436520000001,109.23095699999976,112.56396500000028,114.61523400000078
214,107.43603499999972,104.10253900000043,104.74365200000011,168.3334960000002,105.76904300000024,114.61523400000078,109.23095699999976,101.79492200000004,102.82031300000017,145.76904300000024,132.6923829999996,111.9228520000006,116.15380900000036,115.64111300000059
215,112.17968800000017,108.9741210000002,108.3334960000002,165.51269500000035,107.94873000000007,114.87158199999976,106.2822270000006,101.79492200000004,100.64111300000059,149.3588869999994,136.41015599999992,113.58984400000008,117.30761700000039,115.64111300000059
216,112.69238299999961,109.74365200000011,110.64111300000059,162.3076170000004,112.17968800000017,115.0,105.51269500000035,104.35888699999941,100.12841800000024,148.46142599999985,139.87158199999976,112.30761700000039,116.0258789999998,115.12841800000024
217,108.9741210000002,107.56396500000028,110.89746099999957,161.2822270000006,116.9228520000006,115.12841800000024,107.17968800000017,108.0771479999994,101.79492200000004,144.3588869999994,142.82031300000017,109.74365200000011,114.48730499999965,114.48730499999965
218,104.48730499999965,105.12841800000024,110.25634799999989,163.46142599999985,120.25634799999989,115.51269500000035,110.64111300000059,111.0258789999998,105.76904300000024,140.12841800000024,145.6411130000006,108.3334960000002,114.74365200000011,113.7177729999994
219,103.3334960000002,103.20507799999996,109.48730499999965,168.0771479999994,120.25634799999989,116.2822270000006,114.35888699999941,112.05126999999993,110.89746099999957,138.58984400000008,148.46142599999985,109.35888699999941,116.79492200000004,112.43603499999972
220,106.79492200000004,100.76904300000024,109.35888699999941,172.56396500000028,116.41015599999992,117.43603499999972,117.43603499999972,111.0258789999998,115.12841800000024,141.0258789999998,150.89746099999957,111.9228520000006,118.58984400000008,111.0258789999998
221,112.30761700000039,96.9228520000006,110.64111300000059,174.87158199999976,110.51269500000035,118.58984400000008,119.23095699999976,108.7177729999994,116.2822270000006,145.89746099999957,153.84619099999964,113.58984400000008,118.3334960000002,109.87158199999976
222,115.38476599999922,92.30761700000039,112.05126999999993,173.0771479999994,104.61523400000078,119.10253900000043,118.7177729999994,106.0258789999998,113.7177729999994,150.0,157.6923829999996,112.69238299999961,115.51269500000035,109.61523400000078
223,112.69238299999961,88.3334960000002,111.2822270000006,166.9228520000006,100.38476599999922,118.7177729999994,114.74365200000011,103.20507799999996,107.94873000000007,150.89746099999957,162.05126999999993,109.87158199999976,111.53857400000015,110.25634799999989
224,105.38476599999922,86.9228520000006,107.30761700000039,158.9741210000002,98.7177729999994,117.82031300000017,107.94873000000007,100.76904300000024,101.6665039999998,149.23095699999976,165.76904300000024,107.56396500000028,108.46142599999985,111.2822270000006
225,98.58984400000008,89.35888699999941,102.56396500000028,153.46142599999985,100.38476599999922,117.05126999999993,102.17968800000017,100.38476599999922,98.84619099999964,148.0771479999994,169.3588869999994,108.0771479999994,108.58984400000008,112.05126999999993
226,97.56396500000028,95.0,100.76904300000024,153.46142599999985,105.76904300000024,116.9228520000006,101.41015599999992,102.69238299999961,101.79492200000004,150.0,173.46142599999985,111.2822270000006,112.43603499999972,112.17968800000017
227,103.46142599999985,101.15380900000036,103.58984400000008,158.7177729999994,112.69238299999961,117.17968800000017,106.15380900000036,107.05126999999993,108.9741210000002,154.10253900000043,177.94873000000007,114.61523400000078,117.56396500000028,111.41015599999992
228,112.17968800000017,104.48730499999965,108.84619099999964,165.6411130000006,118.0771479999994,117.43603499999972,113.3334960000002,111.53857400000015,116.15380900000036,158.3334960000002,181.41015599999992,116.15380900000036,121.0258789999998,110.0
229,117.69238299999961,103.84619099999964,112.43603499999972,169.61523400000078,119.74365200000011,117.17968800000017,118.0771479999994,114.61523400000078,119.10253900000043,161.15380900000036,182.82031300000017,115.89746099999957,121.41015599999992,109.35888699999941
230,116.15380900000036,100.51269500000035,112.56396500000028,169.10253900000043,117.69238299999961,116.6665039999998,117.43603499999972,115.89746099999957,117.43603499999972,162.6923829999996,182.3076170000004,115.38476599999922,119.10253900000043,110.76904300000024
231,109.10253900000043,97.17968800000017,109.87158199999976,165.76904300000024,113.20507799999996,115.89746099999957,112.05126999999993,115.12841800000024,113.84619099999964,163.3334960000002,180.76904300000024,115.12841800000024,115.51269500000035,113.9741210000002
232,101.6665039999998,95.38476599999922,107.17968800000017,162.17968800000017,106.79492200000004,115.51269500000035,105.25634799999989,113.20507799999996,111.53857400000015,163.58984400000008,179.23095699999976,114.74365200000011,111.9228520000006,116.6665039999998
233,98.20507799999996,94.87158199999976,106.6665039999998,159.61523400000078,99.87158199999976,115.64111300000059,100.76904300000024,111.15380900000036,111.6665039999998,163.3334960000002,178.0771479999994,113.46142599999985,109.10253900000043,117.17968800000017
234,99.23095699999976,94.48730499999965,108.46142599999985,156.6665039999998,94.74365200000011,116.0258789999998,100.64111300000059,110.12841800000024,112.94873000000007,162.3076170000004,177.94873000000007,110.89746099999957,107.56396500000028,115.12841800000024
235,101.9228520000006,94.35888699999941,111.41015599999992,151.53857400000015,94.35888699999941,116.41015599999992,103.84619099999964,110.76904300000024,114.23095699999976,160.89746099999957,179.87158199999976,107.94873000000007,107.30761700000039,112.05126999999993
236,103.84619099999964,96.53857400000015,114.35888699999941,146.15380900000036,100.0,116.53857400000015,108.58984400000008,112.30761700000039,115.64111300000059,160.6411130000006,184.48730499999965,106.6665039999998,107.94873000000007,109.74365200000011
237,104.10253900000043,101.9228520000006,116.9228520000006,143.84619099999964,109.23095699999976,116.6665039999998,113.3334960000002,114.23095699999976,117.30761700000039,162.82031300000017,190.51269500000035,108.46142599999985,108.84619099999964,109.48730499999965
238,103.0771479999994,107.30761700000039,118.20507799999996,145.76904300000024,116.2822270000006,116.6665039999998,116.53857400000015,115.51269500000035,117.82031300000017,166.2822270000006,194.23095699999976,112.05126999999993,108.9741210000002,111.41015599999992
239,101.41015599999992,107.94873000000007,116.41015599999992,148.9741210000002,116.2822270000006,116.41015599999992,116.9228520000006,115.25634799999989,115.64111300000059,167.82031300000017,191.9228520000006,113.46142599999985,107.17968800000017,114.10253900000043
240,99.74365200000011,101.9228520000006,111.41015599999992,149.3588869999994,108.9741210000002,115.76904300000024,114.61523400000078,113.46142599999985,110.51269500000035,165.6411130000006,184.3588869999994,110.51269500000035,103.9741210000002,116.0258789999998
241,98.84619099999964,93.46142599999985,105.12841800000024,146.0258789999998,100.0,115.38476599999922,111.6665039999998,111.41015599999992,105.38476599999922,161.79492200000004,176.9228520000006,104.48730499999965,101.53857400000015,116.0258789999998
242,99.23095699999976,88.20507799999996,100.64111300000059,141.53857400000015,95.25634799999989,115.64111300000059,110.12841800000024,110.76904300000024,103.84619099999964,160.2563479999999,174.7436520000001,99.48730499999965,101.2822270000006,114.23095699999976
243,99.61523400000078,88.3334960000002,99.74365200000011,138.9741210000002,96.0258789999998,116.79492200000004,110.76904300000024,111.9228520000006,107.17968800000017,162.6923829999996,178.58984400000008,98.9741210000002,102.17968800000017,112.17968800000017
244,99.74365200000011,91.79492200000004,102.05126999999993,139.3588869999994,98.9741210000002,118.0771479999994,112.56396500000028,113.3334960000002,112.94873000000007,166.9228520000006,185.38476599999922,102.82031300000017,102.30761700000039,110.89746099999957
245,100.38476599999922,95.76904300000024,106.6665039999998,141.9228520000006,101.6665039999998,118.7177729999994,114.35888699999941,113.9741210000002,117.94873000000007,170.0,192.17968800000017,108.7177729999994,101.9228520000006,111.2822270000006
246,103.20507799999996,99.48730499999965,112.43603499999972,145.51269500000035,104.23095699999976,118.3334960000002,115.76904300000024,113.9741210000002,120.25634799999989,171.2822270000006,198.3334960000002,113.58984400000008,103.58984400000008,112.94873000000007
247,107.82031300000017,102.82031300000017,117.56396500000028,148.7177729999994,107.30761700000039,117.43603499999972,116.2822270000006,114.87158199999976,119.35888699999941,171.41015599999992,203.0771479999994,115.51269500000035,108.3334960000002,114.48730499999965
248,111.41015599999992,105.12841800000024,119.74365200000011,150.2563479999999,109.87158199999976,116.41015599999992,115.38476599999922,116.53857400000015,115.64111300000059,170.38476599999922,204.61523400000078,113.9741210000002,113.20507799999996,115.0
249,111.0258789999998,104.23095699999976,117.69238299999961,148.3334960000002,107.82031300000017,115.64111300000059,112.82031300000017,117.05126999999993,109.87158199999976,166.2822270000006,201.53857400000015,109.48730499999965,113.58984400000008,114.35888699999941
250,105.76904300000024,98.9741210000002,112.05126999999993,142.6923829999996,99.10253900000043,115.25634799999989,108.58984400000008,113.9741210000002,103.3334960000002,158.7177729999994,194.3588869999994,103.7177729999994,107.05126999999993,113.58984400000008
251,98.7177729999994,91.0258789999998,105.51269500000035,134.87158199999976,86.41015599999992,115.12841800000024,103.58984400000008,107.43603499999972,97.94873000000007,151.0258789999998,186.6665039999998,99.23095699999976,96.15380900000036,113.7177729999994
252,93.58984400000008,84.23095699999976,100.51269500000035,128.3334960000002,75.89746099999957,115.38476599999922,99.48730499999965,100.89746099999957,95.51269500000035,148.0771479999994,182.6923829999996,98.0771479999994,87.56396500000028,114.35888699999941
253,93.0771479999994,82.05126999999993,98.7177729999994,125.76904300000024,73.20507799999996,115.64111300000059,97.69238299999961,98.20507799999996,96.79492200000004,151.41015599999992,184.3588869999994,100.25634799999989,86.0258789999998,114.87158199999976
254,95.76904300000024,85.0,99.87158199999976,127.69238299999961,79.61523400000078,115.51269500000035,98.9741210000002,101.41015599999992,100.51269500000035,157.56396500000028,190.38476599999922,103.7177729999994,91.53857400000015,114.35888699999941
255,99.10253900000043,90.12841800000024,103.0771479999994,132.05126999999993,90.64111300000059,115.25634799999989,102.43603499999972,108.84619099999964,104.35888699999941,161.6665039999998,197.43603499999972,106.2822270000006,99.23095699999976,113.20507799999996
256,100.89746099999957,93.46142599999985,107.05126999999993,135.38476599999922,99.23095699999976,114.87158199999976,106.15380900000036,116.41015599999992,106.15380900000036,161.41015599999992,202.17968800000017,107.69238299999961,103.9741210000002,111.6665039999998
257,100.89746099999957,92.17968800000017,110.25634799999989,135.12841800000024,100.0,114.10253900000043,108.7177729999994,119.87158199999976,104.87158199999976,158.7177729999994,202.82031300000017,108.46142599999985,103.84619099999964,110.76904300000024
258,101.0258789999998,87.17968800000017,111.41015599999992,132.3076170000004,93.0771479999994,113.46142599999985,110.0,117.30761700000039,101.79492200000004,157.94873000000007,200.0,109.35888699999941,100.51269500000035,110.89746099999957
259,103.84619099999964,82.94873000000007,110.76904300000024,130.51269500000035,84.48730499999965,113.58984400000008,111.0258789999998,110.76904300000024,99.87158199999976,161.6665039999998,196.6665039999998,110.0,97.94873000000007,112.30761700000039
260,109.87158199999976,84.23095699999976,109.35888699999941,134.48730499999965,81.79492200000004,114.74365200000011,112.82031300000017,104.48730499999965,101.15380900000036,169.10253900000043,196.2822270000006,109.61523400000078,98.7177729999994,113.9741210000002
261,116.9228520000006,91.15380900000036,108.46142599999985,143.7177729999994,88.20507799999996,116.15380900000036,115.25634799999989,101.79492200000004,105.0,175.89746099999957,199.61523400000078,107.94873000000007,102.05126999999993,114.61523400000078
262,120.25634799999989,98.20507799999996,107.82031300000017,151.6665039999998,99.35888699999941,116.9228520000006,116.2822270000006,102.69238299999961,107.69238299999961,176.79492200000004,204.3588869999994,105.51269500000035,103.9741210000002,113.7177729999994
263,116.41015599999992,99.48730499999965,106.53857400000015,150.89746099999957,107.43603499999972,116.41015599999992,114.48730499999965,104.23095699999976,105.76904300000024,169.61523400000078,206.9228520000006,102.94873000000007,101.0258789999998,112.17968800000017
264,106.0258789999998,93.7177729999994,103.58984400000008,140.0,107.56396500000028,115.0,109.87158199999976,103.7177729999994,98.7177729999994,157.43603499999972,205.38476599999922,101.0258789999998,93.58984400000008,111.15380900000036
265,94.61523400000078,85.38476599999922,100.38476599999922,125.51269500000035,101.41015599999992,113.3334960000002,103.9741210000002,101.0258789999998,89.87158199999976,146.6665039999998,200.2563479999999,99.74365200000011,86.0258789999998,111.41015599999992
266,88.46142599999985,80.38476599999922,98.9741210000002,117.30761700000039,94.61523400000078,111.79492200000004,98.84619099999964,97.69238299999961,83.58984400000008,141.9228520000006,193.84619099999964,99.10253900000043,83.3334960000002,112.56396500000028
267,91.6665039999998,81.53857400000015,101.0258789999998,120.0,91.15380900000036,111.53857400000015,96.53857400000015,96.15380900000036,82.94873000000007,144.10253900000043,189.61523400000078,99.10253900000043,87.43603499999972,113.9741210000002
268,102.82031300000017,88.84619099999964,106.6665039999998,130.38476599999922,92.43603499999972,113.3334960000002,98.3334960000002,97.82031300000017,88.46142599999985,151.6665039999998,191.0258789999998,99.87158199999976,96.53857400000015,114.48730499999965
269,116.53857400000015,99.35888699999941,114.10253900000043,140.89746099999957,97.43603499999972,116.53857400000015,103.9741210000002,102.30761700000039,97.82031300000017,161.2822270000006,198.84619099999964,101.41015599999992,107.30761700000039,113.7177729999994
270,125.38476599999922,108.7177729999994,120.12841800000024,144.7436520000001,103.84619099999964,118.7177729999994,110.0,107.17968800000017,105.89746099999957,168.20507799999996,208.9741210000002,103.46142599999985,115.12841800000024,111.53857400000015
271,124.35888699999941,111.9228520000006,121.2822270000006,140.0,108.20507799999996,117.56396500000028,111.79492200000004,109.10253900000043,107.82031300000017,167.56396500000028,214.3588869999994,105.25634799999989,116.0258789999998,109.61523400000078
272,113.9741210000002,106.9228520000006,115.51269500000035,129.3588869999994,108.46142599999985,113.3334960000002,106.9228520000006,105.89746099999957,101.53857400000015,158.0771479999994,210.12841800000024,105.25634799999989,108.9741210000002,109.23095699999976
273,100.51269500000035,96.9228520000006,104.74365200000011,118.9741210000002,105.64111300000059,108.20507799999996,98.3334960000002,98.7177729999994,91.0258789999998,145.12841800000024,198.20507799999996,102.43603499999972,98.3334960000002,110.51269500000035
274,92.82031300000017,89.23095699999976,95.0,114.48730499999965,104.23095699999976,105.89746099999957,92.69238299999961,92.17968800000017,84.10253900000043,138.20507799999996,186.6665039999998,98.20507799999996,91.41015599999992,112.56396500000028
275,96.15380900000036,90.64111300000059,92.82031300000017,119.10253900000043,108.20507799999996,107.69238299999961,94.61523400000078,90.64111300000059,86.6665039999998,143.46142599999985,183.84619099999964,95.89746099999957,93.20507799999996,113.84619099999964
276,108.46142599999985,101.53857400000015,100.0,130.76904300000024,116.6665039999998,112.56396500000028,103.3334960000002,95.38476599999922,97.82031300000017,158.0771479999994,191.41015599999992,98.0771479999994,102.43603499999972,114.10253900000043
277,121.53857400000015,115.25634799999989,111.41015599999992,143.20507799999996,122.94873000000007,117.30761700000039,112.69238299999961,102.82031300000017,110.12841800000024,172.3076170000004,203.7177729999994,103.46142599999985,112.43603499999972,113.20507799999996
278,127.69238299999961,122.82031300000017,119.10253900000043,148.3334960000002,120.89746099999957,119.35888699999941,116.41015599999992,107.94873000000007,115.76904300000024,177.43603499999972,213.0771479999994,108.58984400000008,116.53857400000015,111.6665039999998
279,124.74365200000011,119.61523400000078,118.58984400000008,142.17968800000017,109.61523400000078,118.46142599999985,112.56396500000028,108.46142599999985,112.56396500000028,172.82031300000017,215.12841800000024,110.51269500000035,112.30761700000039,110.76904300000024
280,117.17968800000017,107.94873000000007,112.30761700000039,127.69238299999961,95.0,116.2822270000006,104.23095699999976,105.38476599999922,104.61523400000078,164.3588869999994,210.76904300000024,108.84619099999964,103.7177729999994,111.2822270000006
281,112.30761700000039,96.15380900000036,106.15380900000036,113.84619099999964,85.89746099999957,114.48730499999965,97.17968800000017,101.41015599999992,97.30761700000039,158.58984400000008,204.3588869999994,105.64111300000059,97.05126999999993,112.94873000000007
282,114.35888699999941,92.17968800000017,104.48730499999965,110.38476599999922,87.69238299999961,113.9741210000002,96.2822270000006,98.9741210000002,94.23095699999976,158.3334960000002,200.38476599999922,103.9741210000002,97.17968800000017,114.23095699999976
283,121.9228520000006,98.20507799999996,108.58984400000008,120.89746099999957,99.61523400000078,114.23095699999976,101.2822270000006,99.35888699999941,95.89746099999957,161.79492200000004,201.0258789999998,105.51269500000035,103.84619099999964,114.61523400000078
284,130.12841800000024,110.0,115.76904300000024,139.7436520000001,115.12841800000024,115.25634799999989,108.7177729999994,102.30761700000039,100.12841800000024,165.6411130000006,205.2563479999999,110.0,112.94873000000007,113.9741210000002
285,135.38476599999922,120.51269500000035,122.56396500000028,155.2563479999999,126.79492200000004,116.79492200000004,114.35888699999941,106.6665039999998,104.87158199999976,168.7177729999994,210.0,115.12841800000024,119.35888699999941,113.0771479999994
286,136.6665039999998,125.12841800000024,126.41015599999992,158.58984400000008,130.38476599999922,118.20507799999996,116.79492200000004,110.51269500000035,109.10253900000043,171.79492200000004,212.94873000000007,118.58984400000008,120.76904300000024,112.30761700000039
287,135.89746099999957,123.7177729999994,126.9228520000006,149.48730499999965,126.41015599999992,118.3334960000002,116.79492200000004,112.17968800000017,112.82031300000017,176.2822270000006,213.7177729999994,119.10253900000043,118.7177729999994,111.9228520000006
288,134.23095699999976,118.9741210000002,125.76904300000024,135.89746099999957,118.46142599999985,115.76904300000024,115.64111300000059,110.89746099999957,114.87158199999976,180.89746099999957,212.94873000000007,117.69238299999961,115.89746099999957,112.05126999999993
289,131.9228520000006,113.7177729999994,124.48730499999965,127.69238299999961,110.12841800000024,110.89746099999957,113.58984400000008,107.05126999999993,113.7177729999994,182.6923829999996,211.41015599999992,116.0258789999998,114.23095699999976,112.56396500000028
290,127.94873000000007,108.84619099999964,123.46142599999985,128.7177729999994,102.94873000000007,105.89746099999957,110.25634799999989,102.94873000000007,108.9741210000002,180.12841800000024,209.23095699999976,115.25634799999989,113.46142599999985,113.20507799999996
291,122.82031300000017,104.61523400000078,122.43603499999972,135.0,97.05126999999993,103.84619099999964,106.41015599999992,100.89746099999957,103.3334960000002,175.6411130000006,207.05126999999993,115.51269500000035,111.79492200000004,113.7177729999994
292,118.0771479999994,101.6665039999998,120.89746099999957,139.10253900000043,93.0771479999994,106.15380900000036,104.10253900000043,101.6665039999998,100.38476599999922,172.94873000000007,205.76904300000024,116.15380900000036,108.58984400000008,114.23095699999976
293,115.12841800000024,100.0,118.84619099999964,136.6665039999998,91.79492200000004,111.53857400000015,105.12841800000024,104.23095699999976,102.17968800000017,172.56396500000028,206.0258789999998,116.2822270000006,104.61523400000078,114.35888699999941
294,114.10253900000043,98.9741210000002,116.53857400000015,129.61523400000078,92.94873000000007,116.2822270000006,108.7177729999994,106.0258789999998,106.9228520000006,172.3076170000004,207.6923829999996,115.51269500000035,101.9228520000006,113.7177729999994
295,114.23095699999976,97.94873000000007,114.87158199999976,124.35888699999941,95.64111300000059,118.0771479999994,112.17968800000017,105.51269500000035,110.76904300000024,169.7436520000001,209.3588869999994,114.23095699999976,102.17968800000017,112.30761700000039
296,115.12841800000024,97.82031300000017,114.74365200000011,125.89746099999957,98.58984400000008,116.9228520000006,114.23095699999976,104.23095699999976,110.89746099999957,166.79492200000004,210.6411130000006,113.3334960000002,105.38476599999922,111.41015599999992
297,117.43603499999972,99.74365200000011,117.30761700000039,134.10253900000043,101.9228520000006,115.12841800000024,115.12841800000024,104.74365200000011,108.9741210000002,167.17968800000017,212.05126999999993,113.84619099999964,110.25634799999989,111.9228520000006
298,122.17968800000017,104.74365200000011,122.56396500000028,144.61523400000078,106.53857400000015,114.48730499999965,117.05126999999993,108.9741210000002,108.58984400000008,173.0771479999994,214.23095699999976,116.2822270000006,114.23095699999976,113.7177729999994
299,128.58984400000008,111.0258789999998,128.9741210000002,151.6665039999998,112.82031300000017,115.12841800000024,120.64111300000059,115.64111300000059,112.17968800000017,182.56396500000028,217.05126999999993,120.0,115.12841800000024,115.64111300000059
300,133.9741210000002,115.12841800000024,133.46142599999985,152.05126999999993,118.0771479999994,115.89746099999957,124.35888699999941,120.76904300000024,117.43603499999972,189.3588869999994,217.94873000000007,122.43603499999972,112.17968800000017,116.2822270000006
301,134.7436520000001,113.58984400000008,132.56396500000028,146.41015599999992,118.46142599999985,115.89746099999957,124.74365200000011,120.51269500000035,118.84619099999964,187.6923829999996,214.48730499999965,120.76904300000024,105.89746099999957,116.0258789999998
302,129.87158199999976,106.79492200000004,125.76904300000024,137.56396500000028,112.56396500000028,115.12841800000024,120.25634799999989,114.74365200000011,114.10253900000043,177.3076170000004,206.9228520000006,115.0,98.9741210000002,115.38476599999922
303,122.05126999999993,98.9741210000002,116.9228520000006,129.87158199999976,103.9741210000002,114.74365200000011,112.17968800000017,107.05126999999993,106.79492200000004,164.7436520000001,198.3334960000002,108.0771479999994,94.35888699999941,115.12841800000024
304,116.15380900000036,95.51269500000035,111.53857400000015,126.15380900000036,98.20507799999996,115.51269500000035,104.23095699999976,101.79492200000004,102.82031300000017,157.82031300000017,193.20507799999996,104.23095699999976,94.35888699999941,114.87158199999976
305,115.12841800000024,97.30761700000039,111.9228520000006,126.9228520000006,97.56396500000028,116.79492200000004,100.0,100.51269500000035,105.0,160.12841800000024,192.94873000000007,105.51269500000035,97.94873000000007,114.23095699999976
306,117.56396500000028,100.25634799999989,115.64111300000059,130.0,99.35888699999941,116.9228520000006,100.25634799999989,102.43603499999972,110.51269500000035,168.46142599999985,195.6411130000006,110.64111300000059,101.79492200000004,113.46142599999985
307,119.48730499999965,98.84619099999964,118.46142599999985,132.17968800000017,99.74365200000011,115.25634799999989,103.0771479999994,105.38476599999922,113.9741210000002,175.89746099999957,197.56396500000028,115.89746099999957,102.43603499999972,112.56396500000028
308,118.7177729999994,92.69238299999961,118.3334960000002,131.79492200000004,97.94873000000007,113.20507799999996,106.15380900000036,107.82031300000017,112.56396500000028,176.9228520000006,196.9228520000006,118.0771479999994,99.10253900000043,112.30761700000039
309,116.41015599999992,87.56396500000028,116.6665039999998,130.0,97.69238299999961,112.82031300000017,108.7177729999994,109.48730499999965,107.69238299999961,171.2822270000006,195.12841800000024,117.17968800000017,95.12841800000024,113.20507799999996
310,115.25634799999989,89.35888699999941,115.89746099999957,129.10253900000043,101.9228520000006,114.74365200000011,111.15380900000036,110.64111300000059,104.10253900000043,164.3588869999994,194.61523400000078,115.25634799999989,94.48730499999965,114.48730499999965
311,115.89746099999957,97.82031300000017,117.17968800000017,130.2563479999999,109.10253900000043,117.30761700000039,114.10253900000043,110.64111300000059,105.12841800000024,161.53857400000015,196.0258789999998,113.84619099999964,98.0771479999994,115.0
312,116.9228520000006,105.76904300000024,118.9741210000002,132.43603499999972,113.7177729999994,118.9741210000002,116.2822270000006,108.7177729999994,108.7177729999994,163.7177729999994,196.79492200000004,112.43603499999972,102.05126999999993,114.10253900000043
313,116.0258789999998,105.0,119.10253900000043,133.3334960000002,111.0258789999998,118.84619099999964,116.15380900000036,105.0,110.25634799999989,167.05126999999993,194.10253900000043,109.61523400000078,100.89746099999957,112.82031300000017
314,113.0771479999994,94.61523400000078,117.05126999999993,131.9228520000006,102.05126999999993,116.9228520000006,113.3334960000002,101.41015599999992,106.6665039999998,166.53857400000015,187.56396500000028,105.64111300000059,93.46142599999985,111.79492200000004
315,110.12841800000024,81.79492200000004,114.35888699999941,129.23095699999976,93.0771479999994,114.61523400000078,109.87158199999976,100.38476599999922,100.12841800000024,161.15380900000036,180.89746099999957,103.0771479999994,84.23095699999976,111.41015599999992
316,110.38476599999922,76.53857400000015,113.20507799999996,127.56396500000028,90.25634799999989,112.82031300000017,108.7177729999994,103.20507799999996,95.89746099999957,154.61523400000078,179.23095699999976,104.23095699999976,79.87158199999976,111.41015599999992
317,114.23095699999976,83.20507799999996,114.23095699999976,128.58984400000008,95.0,112.43603499999972,111.0258789999998,108.9741210000002,98.0771479999994,152.43603499999972,183.84619099999964,109.23095699999976,83.84619099999964,111.79492200000004
318,119.35888699999941,97.05126999999993,116.79492200000004,131.79492200000004,103.20507799999996,113.46142599999985,115.38476599999922,114.87158199999976,106.0258789999998,157.56396500000028,191.53857400000015,115.0,93.46142599999985,112.82031300000017
319,122.17968800000017,108.20507799999996,119.23095699999976,134.87158199999976,108.3334960000002,115.0,118.46142599999985,118.3334960000002,115.0,167.94873000000007,196.41015599999992,117.17968800000017,102.17968800000017,114.35888699999941
320,120.0,109.35888699999941,119.87158199999976,135.38476599999922,107.30761700000039,116.15380900000036,118.3334960000002,118.7177729999994,120.38476599999922,177.94873000000007,195.12841800000024,113.84619099999964,104.23095699999976,116.0258789999998
321,113.7177729999994,100.12841800000024,117.56396500000028,132.17968800000017,102.05126999999993,116.53857400000015,115.0,116.6665039999998,120.25634799999989,182.17968800000017,188.58984400000008,106.79492200000004,98.58984400000008,116.79492200000004
322,106.15380900000036,86.9228520000006,113.20507799999996,126.9228520000006,97.69238299999961,116.15380900000036,111.41015599999992,114.35888699999941,116.15380900000036,178.9741210000002,181.0258789999998,100.38476599999922,89.23095699999976,116.41015599999992
323,101.0258789999998,77.30761700000039,109.35888699999941,123.58984400000008,97.82031300000017,115.38476599999922,110.25634799999989,113.0771479999994,111.15380900000036,171.41015599999992,176.6665039999998,98.20507799999996,82.17968800000017,115.25634799999989
324,100.25634799999989,74.87158199999976,107.43603499999972,124.23095699999976,101.53857400000015,114.87158199999976,112.17968800000017,113.3334960000002,107.82031300000017,164.3588869999994,176.6665039999998,100.25634799999989,81.0258789999998,113.9741210000002
325,102.82031300000017,77.94873000000007,107.69238299999961,127.82031300000017,104.48730499999965,114.48730499999965,115.12841800000024,114.23095699999976,106.2822270000006,160.76904300000024,179.87158199999976,104.10253900000043,84.48730499999965,113.20507799999996
326,106.53857400000015,82.56396500000028,109.10253900000043,131.0258789999998,103.3334960000002,114.35888699999941,116.2822270000006,114.74365200000011,106.2822270000006,161.41015599999992,183.3334960000002,106.6665039999998,88.3334960000002,113.3334960000002
327,110.38476599999922,87.17968800000017,110.89746099999957,131.79492200000004,98.9741210000002,114.35888699999941,114.87158199999976,114.61523400000078,108.0771479999994,164.61523400000078,185.38476599999922,107.17968800000017,89.87158199999976,114.10253900000043
328,115.12841800000024,92.69238299999961,113.58984400000008,131.2822270000006,96.2822270000006,114.48730499999965,111.9228520000006,114.23095699999976,111.79492200000004,168.9741210000002,186.9228520000006,106.6665039999998,90.38476599999922,114.61523400000078
329,121.6665039999998,99.87158199999976,116.9228520000006,133.20507799999996,99.35888699999941,114.74365200000011,110.38476599999922,114.23095699999976,116.2822270000006,173.7177729999994,189.7436520000001,107.17968800000017,93.3334960000002,114.23095699999976
330,129.7436520000001,107.05126999999993,120.76904300000024,139.23095699999976,108.3334960000002,115.25634799999989,111.6665039999998,115.38476599999922,120.0,178.0771479999994,194.61523400000078,110.25634799999989,100.25634799999989,113.3334960000002
331,136.53857400000015,111.0258789999998,123.7177729999994,147.3076170000004,118.84619099999964,116.41015599999992,114.87158199999976,117.69238299999961,121.41015599999992,181.2822270000006,199.87158199999976,115.0,108.58984400000008,112.56396500000028
332,138.20507799999996,110.12841800000024,124.23095699999976,151.9228520000006,124.87158199999976,117.43603499999972,117.17968800000017,120.0,119.87158199999976,181.15380900000036,201.6665039999998,118.58984400000008,112.82031300000017,112.43603499999972
333,133.3334960000002,104.61523400000078,120.89746099999957,149.23095699999976,122.69238299999961,117.30761700000039,116.9228520000006,120.76904300000024,116.53857400000015,177.05126999999993,197.94873000000007,118.58984400000008,109.87158199999976,112.43603499999972
334,124.10253900000043,97.43603499999972,114.87158199999976,140.51269500000035,114.10253900000043,115.76904300000024,114.10253900000043,118.7177729999994,112.94873000000007,170.38476599999922,190.12841800000024,115.38476599999922,102.05126999999993,112.30761700000039
335,117.17968800000017,92.69238299999961,110.0,132.3076170000004,104.87158199999976,114.35888699999941,111.41015599999992,114.48730499999965,110.25634799999989,164.61523400000078,183.58984400000008,111.2822270000006,96.53857400000015,112.56396500000028
336,118.46142599999985,93.58984400000008,110.64111300000059,130.76904300000024,100.38476599999922,114.10253900000043,111.0258789999998,110.0,107.94873000000007,162.3076170000004,182.94873000000007,109.74365200000011,98.9741210000002,113.58984400000008
337,128.20507799999996,99.48730499999965,116.6665039999998,136.15380900000036,100.89746099999957,115.0,113.0771479999994,106.9228520000006,105.25634799999989,163.0771479999994,188.0771479999994,111.41015599999992,108.7177729999994,115.0
338,140.51269500000035,106.2822270000006,123.58984400000008,143.84619099999964,102.05126999999993,115.64111300000059,115.89746099999957,106.41015599999992,102.69238299999961,164.10253900000043,193.9741210000002,114.87158199999976,118.58984400000008,116.15380900000036
339,148.0771479999994,109.35888699999941,126.41015599999992,147.6923829999996,100.76904300000024,114.87158199999976,117.56396500000028,108.0771479999994,101.2822270000006,163.7177729999994,195.76904300000024,117.30761700000039,120.89746099999957,116.15380900000036
340,148.46142599999985,107.43603499999972,124.10253900000043,145.76904300000024,97.94873000000007,112.69238299999961,117.43603499999972,110.89746099999957,102.69238299999961,163.0771479999994,192.94873000000007,117.69238299999961,114.10253900000043,114.87158199999976
341,145.38476599999922,103.9741210000002,120.0,141.53857400000015,97.30761700000039,110.64111300000059,116.6665039999998,114.10253900000043,107.17968800000017,164.7436520000001,190.38476599999922,116.53857400000015,105.0,112.94873000000007
342,144.7436520000001,104.10253900000043,118.58984400000008,139.7436520000001,101.2822270000006,110.25634799999989,116.41015599999992,116.79492200000004,113.7177729999994,169.87158199999976,193.46142599999985,116.53857400000015,103.58984400000008,111.53857400000015
343,149.3588869999994,110.12841800000024,121.2822270000006,142.6923829999996,108.0771479999994,111.9228520000006,117.17968800000017,118.3334960000002,119.87158199999976,176.53857400000015,202.82031300000017,119.10253900000043,114.61523400000078,111.79492200000004
344,156.79492200000004,119.61523400000078,125.38476599999922,147.82031300000017,112.82031300000017,114.61523400000078,117.43603499999972,118.0771479999994,122.82031300000017,180.76904300000024,212.43603499999972,122.69238299999961,132.6923829999996,113.7177729999994
345,163.0771479999994,127.56396500000028,126.6665039999998,151.41015599999992,112.05126999999993,116.79492200000004,116.15380900000036,115.76904300000024,121.2822270000006,180.0,215.76904300000024,123.9741210000002,147.17968800000017,116.2822270000006
346,166.53857400000015,131.41015599999992,124.48730499999965,153.0771479999994,106.53857400000015,117.17968800000017,114.35888699999941,113.20507799999996,116.79492200000004,175.89746099999957,211.41015599999992,121.41015599999992,151.9228520000006,117.69238299999961
347,169.48730499999965,133.0771479999994,122.43603499999972,155.2563479999999,100.76904300000024,115.76904300000024,114.48730499999965,112.69238299999961,113.7177729999994,172.94873000000007,205.2563479999999,117.30761700000039,150.2563479999999,117.17968800000017
348,174.61523400000078,135.38476599999922,125.12841800000024,160.51269500000035,98.84619099999964,113.58984400000008,117.69238299999961,115.12841800000024,114.87158199999976,174.87158199999976,205.12841800000024,115.76904300000024,150.89746099999957,115.38476599999922
349,181.6665039999998,138.7177729999994,132.3076170000004,168.20507799999996,101.2822270000006,112.43603499999972,121.6665039999998,118.58984400000008,119.23095699999976,180.38476599999922,213.3334960000002,118.7177729999994,159.23095699999976,113.3334960000002
350,186.2822270000006,141.15380900000036,138.9741210000002,174.3588869999994,105.38476599999922,112.82031300000017,122.69238299999961,119.48730499999965,121.79492200000004,184.7436520000001,224.48730499999965,124.74365200000011,172.05126999999993,112.56396500000028
351,184.10253900000043,141.2822270000006,139.7436520000001,175.51269500000035,107.30761700000039,113.9741210000002,119.23095699999976,116.15380900000036,118.7177729999994,183.0771479999994,229.87158199999976,129.3588869999994,180.76904300000024,113.58984400000008
352,175.12841800000024,139.23095699999976,134.10253900000043,170.76904300000024,105.76904300000024,115.0,113.46142599999985,109.74365200000011,111.15380900000036,174.87158199999976,224.87158199999976,129.10253900000043,179.7436520000001,115.25634799999989
353,164.87158199999976,136.6665039999998,126.41015599999992,163.20507799999996,102.94873000000007,115.51269500000035,109.74365200000011,104.23095699999976,103.84619099999964,164.61523400000078,213.58984400000008,123.9741210000002,171.0258789999998,115.76904300000024
354,159.87158199999976,135.2563479999999,122.17968800000017,157.82031300000017,101.2822270000006,115.64111300000059,110.51269500000035,103.46142599999985,101.9228520000006,158.20507799999996,204.48730499999965,117.69238299999961,162.3076170000004,114.23095699999976
355,161.6665039999998,135.51269500000035,123.46142599999985,157.17968800000017,101.79492200000004,116.0258789999998,114.35888699999941,107.82031300000017,106.53857400000015,158.9741210000002,203.20507799999996,114.23095699999976,160.38476599999922,111.9228520000006
356,165.51269500000035,135.2563479999999,127.17968800000017,159.7436520000001,103.0771479999994,116.15380900000036,117.17968800000017,114.23095699999976,113.58984400000008,164.48730499999965,208.20507799999996,115.0,164.48730499999965,111.15380900000036
357,165.12841800000024,131.15380900000036,127.82031300000017,161.53857400000015,103.20507799999996,115.76904300000024,116.15380900000036,117.82031300000017,117.94873000000007,169.48730499999965,212.82031300000017,117.94873000000007,168.3334960000002,112.69238299999961
358,158.58984400000008,122.82031300000017,123.84619099999964,160.2563479999999,102.17968800000017,114.87158199999976,112.30761700000039,116.9228520000006,116.6665039999998,169.3588869999994,212.17968800000017,119.48730499999965,166.6665039999998,115.51269500000035
359,150.2563479999999,114.74365200000011,118.46142599999985,157.17968800000017,101.41015599999992,114.35888699999941,108.7177729999994,113.7177729999994,112.05126999999993,165.0,206.9228520000006,118.3334960000002,160.51269500000035,117.82031300000017
360,146.6665039999998,112.30761700000039,117.69238299999961,155.0,101.53857400000015,114.61523400000078,108.3334960000002,111.6665039999998,109.23095699999976,161.15380900000036,201.9228520000006,116.41015599999992,155.76904300000024,118.20507799999996
361,150.6411130000006,116.53857400000015,123.20507799999996,154.23095699999976,101.53857400000015,115.64111300000059,110.89746099999957,112.43603499999972,111.53857400000015,162.17968800000017,201.15380900000036,116.0258789999998,157.17968800000017,116.41015599999992
362,158.58984400000008,122.56396500000028,131.0258789999998,153.3334960000002,99.35888699999941,116.15380900000036,113.20507799999996,114.10253900000043,117.05126999999993,167.94873000000007,204.23095699999976,118.0771479999994,163.3334960000002,113.58984400000008
363,163.3334960000002,123.46142599999985,134.48730499999965,149.87158199999976,94.10253900000043,115.38476599999922,111.9228520000006,113.46142599999985,119.74365200000011,173.9741210000002,206.79492200000004,120.0,167.3076170000004,111.6665039999998
364,160.12841800000024,116.0258789999998,130.76904300000024,144.23095699999976,87.17968800000017,113.84619099999964,106.6665039999998,108.9741210000002,114.74365200000011,174.23095699999976,204.61523400000078,119.35888699999941,163.7177729999994,112.05126999999993
365,150.38476599999922,103.9741210000002,122.56396500000028,139.3588869999994,82.30761700000039,112.43603499999972,100.12841800000024,102.43603499999972,103.3334960000002,166.9228520000006,197.82031300000017,115.64111300000059,153.7177729999994,114.74365200000011
366,139.48730499999965,94.61523400000078,115.25634799999989,137.82031300000017,82.82031300000017,112.30761700000039,96.41015599999992,97.82031300000017,91.9228520000006,156.15380900000036,190.51269500000035,110.89746099999957,143.9741210000002,117.94873000000007
367,133.20507799999996,92.56396500000028,113.20507799999996,139.87158199999976,89.61523400000078,113.3334960000002,97.30761700000039,97.82031300000017,87.82031300000017,149.10253900000043,186.9228520000006,108.20507799999996,141.15380900000036,119.48730499999965
368,133.7177729999994,97.56396500000028,116.53857400000015,143.46142599999985,99.74365200000011,114.61523400000078,101.9228520000006,101.79492200000004,92.82031300000017,149.87158199999976,189.48730499999965,109.10253900000043,146.53857400000015,118.7177729999994
369,138.7177729999994,104.87158199999976,122.05126999999993,146.9228520000006,108.9741210000002,115.25634799999989,107.82031300000017,107.05126999999993,103.58984400000008,157.3076170000004,197.3076170000004,112.82031300000017,156.79492200000004,116.9228520000006
370,144.23095699999976,109.74365200000011,126.53857400000015,148.58984400000008,113.58984400000008,115.0,113.20507799999996,111.79492200000004,113.9741210000002,166.15380900000036,206.79492200000004,117.43603499999972,166.15380900000036,115.38476599999922
371,146.79492200000004,109.10253900000043,129.10253900000043,147.3076170000004,112.69238299999961,114.10253900000043,117.30761700000039,115.64111300000059,119.87158199999976,171.41015599999992,213.3334960000002,120.76904300000024,169.87158199999976,114.48730499999965
372,145.51269500000035,103.46142599999985,129.87158199999976,142.6923829999996,107.56396500000028,113.7177729999994,119.35888699999941,119.23095699999976,120.64111300000059,171.6665039999998,213.3334960000002,121.79492200000004,166.6665039999998,113.84619099999964
373,141.2822270000006,96.41015599999992,129.61523400000078,136.79492200000004,101.9228520000006,114.61523400000078,119.10253900000043,122.82031300000017,118.84619099999964,170.0,207.6923829999996,121.0258789999998,159.23095699999976,113.7177729999994
374,136.41015599999992,93.20507799999996,128.84619099999964,133.46142599999985,99.87158199999976,116.2822270000006,117.69238299999961,125.76904300000024,117.82031300000017,170.76904300000024,200.89746099999957,119.74365200000011,152.43603499999972,114.10253900000043
375,132.3076170000004,96.41015599999992,127.56396500000028,135.38476599999922,102.69238299999961,117.17968800000017,116.79492200000004,127.17968800000017,119.35888699999941,175.89746099999957,197.56396500000028,119.23095699999976,149.23095699999976,115.0
376,128.3334960000002,102.94873000000007,124.87158199999976,140.89746099999957,106.9228520000006,116.41015599999992,116.6665039999998,126.41015599999992,122.05126999999993,181.6665039999998,197.6923829999996,119.35888699999941,148.3334960000002,116.2822270000006
377,122.94873000000007,105.76904300000024,120.38476599999922,144.7436520000001,107.05126999999993,114.61523400000078,116.15380900000036,123.46142599999985,122.69238299999961,181.53857400000015,196.9228520000006,118.9741210000002,145.89746099999957,117.17968800000017
378,115.64111300000059,100.89746099999957,115.25634799999989,142.6923829999996,100.25634799999989,114.23095699999976,114.10253900000043,120.0,120.12841800000024,173.58984400000008,191.79492200000004,117.43603499999972,139.23095699999976,117.43603499999972
379,109.35888699999941,90.76904300000024,112.43603499999972,135.51269500000035,89.48730499999965,115.51269500000035,111.6665039999998,118.58984400000008,117.30761700000039,163.20507799999996,183.46142599999985,115.38476599999922,130.76904300000024,116.6665039999998
380,108.7177729999994,82.82031300000017,114.48730499999965,128.0771479999994,82.05126999999993,117.05126999999993,111.2822270000006,121.0258789999998,118.3334960000002,158.7177729999994,177.17968800000017,114.61523400000078,125.38476599999922,114.74365200000011
381,115.25634799999989,81.53857400000015,120.51269500000035,125.64111300000059,82.94873000000007,116.79492200000004,113.9741210000002,126.79492200000004,123.84619099999964,163.84619099999964,176.9228520000006,115.89746099999957,125.64111300000059,113.0771479999994
382,125.25634799999989,86.53857400000015,126.53857400000015,129.7436520000001,91.2822270000006,114.35888699999941,117.56396500000028,132.94873000000007,130.51269500000035,174.23095699999976,182.82031300000017,118.3334960000002,129.61523400000078,113.0771479999994
383,132.43603499999972,93.0771479999994,129.23095699999976,137.82031300000017,101.9228520000006,111.15380900000036,118.46142599999985,136.53857400000015,133.7177729999994,182.17968800000017,190.76904300000024,120.38476599999922,133.20507799999996,115.25634799999989
