,EEG.AF3,EEG.F7,EEG.F3,EEG.FC5,EEG.T7,EEG.P7,EEG.O1,EEG.O2,EEG.P8,EEG.T8,EEG.FC6,EEG.F4,EEG.F8,EEG.AF4
0,74.10253900000043,101.79492200000004,104.35888699999941,292.82031300000017,129.3588869999994,116.9228520000006,106.9228520000006,103.58984400000008,113.7177729999994,110.25634799999989,100.0,103.46142599999985,107.17968800000017,116.53857400000015
1,72.17968800000017,91.9228520000006,103.3334960000002,287.05126999999993,120.64111300000059,115.64111300000059,108.20507799999996,104.10253900000043,109.61523400000078,109.61523400000078,97.56396500000028,104.35888699999941,104.74365200000011,114.74365200000011
2,67.69238299999961,81.79492200000004,101.41015599999992,280.0,112.05126999999993,114.87158199999976,105.25634799999989,102.56396500000028,100.76904300000024,109.10253900000043,93.84619099999964,103.0771479999994,102.30761700000039,112.17968800000017
3,63.46142599999985,76.9228520000006,101.0258789999998,273.3334960000002,105.25634799999989,114.87158199999976,101.9228520000006,99.87158199999976,92.43603499999972,110.51269500000035,91.79492200000004,100.64111300000059,100.89746099999957,109.87158199999976
4,60.25634799999989,77.30761700000039,101.41015599999992,266.9228520000006,98.84619099999964,115.64111300000059,100.25634799999989,97.05126999999993,87.43603499999972,112.43603499999972,90.0,98.58984400000008,98.9741210000002,107.82031300000017
5,56.79492200000004,79.23095699999976,99.61523400000078,260.89746099999957,92.82031300000017,116.41015599999992,99.10253900000043,93.7177729999994,84.74365200000011,109.74365200000011,85.25634799999989,97.43603499999972,94.10253900000043,104.61523400000078
6,53.333496000000196,80.25634799999989,95.38476599999922,256.9228520000006,91.41015599999992,116.79492200000004,96.79492200000004,90.76904300000024,82.94873000000007,99.10253900000043,77.56396500000028,96.41015599999992,87.69238299999961,100.89746099999957
7,54.102539000000434,82.94873000000007,93.20507799999996,258.5898440000001,99.61523400000078,117.17968800000017,95.12841800000024,90.64111300000059,84.10253900000043,84.87158199999976,73.46142599999985,96.41015599999992,85.25634799999989,100.64111300000059
8,64.10253900000043,90.38476599999922,98.7177729999994,267.4360349999997,116.0258789999998,117.94873000000007,97.43603499999972,95.51269500000035,91.0258789999998,77.17968800000017,79.35888699999941,98.7177729999994,91.79492200000004,107.30761700000039
9,82.30761700000039,101.53857400000015,111.6665039999998,279.48730499999965,130.89746099999957,118.58984400000008,103.9741210000002,103.20507799999996,102.69238299999961,82.82031300000017,94.48730499999965,104.23095699999976,105.89746099999957,120.0
10,100.38476599999922,109.87158199999976,124.74365200000011,286.9228520000006,132.43603499999972,117.94873000000007,110.12841800000024,108.46142599999985,111.6665039999998,98.0771479999994,109.48730499999965,110.25634799999989,118.9741210000002,132.94873000000007
11,109.10253900000043,109.74365200000011,129.3588869999994,284.10253900000043,118.0771479999994,116.2822270000006,110.76904300000024,107.30761700000039,110.51269500000035,111.15380900000036,114.35888699999941,113.20507799999996,122.05126999999993,140.38476599999922
12,106.6665039999998,101.2822270000006,123.7177729999994,272.5639650000003,96.53857400000015,114.87158199999976,105.12841800000024,100.51269500000035,99.35888699999941,112.94873000000007,107.82031300000017,111.15380900000036,113.84619099999964,141.15380900000036
13,100.12841800000024,91.79492200000004,114.23095699999976,260.76904300000024,83.7177729999994,115.0,98.58984400000008,94.10253900000043,86.2822270000006,104.61523400000078,98.58984400000008,105.89746099999957,102.69238299999961,139.10253900000043
14,98.58984400000008,90.51269500000035,110.51269500000035,258.20507799999996,90.89746099999957,116.53857400000015,97.69238299999961,93.9741210000002,81.53857400000015,96.79492200000004,97.05126999999993,102.43603499999972,99.10253900000043,139.61523400000078
15,106.79492200000004,100.51269500000035,116.6665039999998,267.17968800000017,116.53857400000015,118.3334960000002,103.9741210000002,101.53857400000015,88.46142599999985,98.9741210000002,106.6665039999998,104.35888699999941,107.82031300000017,144.87158199999976
16,121.9228520000006,115.51269500000035,129.10253900000043,281.2822270000006,144.48730499999965,118.46142599999985,112.43603499999972,111.2822270000006,101.6665039999998,110.89746099999957,120.64111300000059,111.0258789999998,123.84619099999964,154.10253900000043
17,138.0771479999994,123.7177729999994,139.48730499999965,289.23095699999976,154.7436520000001,116.79492200000004,115.51269500000035,114.48730499999965,111.53857400000015,122.05126999999993,128.84619099999964,118.3334960000002,136.15380900000036,165.76904300000024
18,148.9741210000002,116.2822270000006,141.2822270000006,284.6152340000008,137.56396500000028,114.23095699999976,108.7177729999994,106.0258789999998,110.51269500000035,121.53857400000015,125.76904300000024,121.0258789999998,135.76904300000024,177.05126999999993
19,149.10253900000043,95.38476599999922,132.82031300000017,269.7436520000001,102.17968800000017,112.30761700000039,94.87158199999976,88.3334960000002,98.7177729999994,107.30761700000039,113.20507799999996,116.79492200000004,121.9228520000006,183.84619099999964
20,134.61523400000078,73.20507799999996,118.46142599999985,254.48730499999965,70.64111300000059,112.43603499999972,82.05126999999993,70.89746099999957,83.46142599999985,88.7177729999994,99.48730499999965,107.43603499999972,102.43603499999972,182.05126999999993
21,108.58984400000008,64.35888699999941,105.64111300000059,249.10253900000043,63.0771479999994,114.35888699999941,78.20507799999996,63.846190999999635,75.0,80.64111300000059,93.58984400000008,98.20507799999996,89.74365200000011,174.61523400000078
22,82.69238299999961,75.76904300000024,101.41015599999992,259.10253900000043,83.46142599999985,116.9228520000006,86.2822270000006,71.79492200000004,79.87158199999976,92.30761700000039,99.35888699999941,94.48730499999965,93.7177729999994,172.3076170000004
23,70.89746099999957,102.94873000000007,108.0771479999994,281.53857400000015,118.7177729999994,118.7177729999994,102.56396500000028,91.0258789999998,96.9228520000006,120.12841800000024,113.84619099999964,98.3334960000002,113.84619099999964,185.89746099999957
24,78.9741210000002,132.17968800000017,121.41015599999992,307.05126999999993,148.0771479999994,119.10253900000043,118.58984400000008,111.15380900000036,116.9228520000006,147.82031300000017,128.7177729999994,106.9228520000006,138.7177729999994,218.58984400000008
25,101.53857400000015,148.58984400000008,132.82031300000017,325.76904300000024,158.20507799999996,118.46142599999985,126.79492200000004,121.2822270000006,127.82031300000017,157.6923829999996,136.0258789999998,114.61523400000078,153.58984400000008,264.87158199999976
26,127.56396500000028,145.76904300000024,135.2563479999999,332.17968800000017,149.48730499999965,117.56396500000028,123.9741210000002,117.56396500000028,122.69238299999961,144.3588869999994,133.3334960000002,117.43603499999972,150.51269500000035,318.20507799999996
27,149.3588869999994,129.3588869999994,128.3334960000002,329.23095699999976,133.46142599999985,116.6665039999998,112.69238299999961,104.35888699999941,104.87158199999976,118.46142599999985,124.23095699999976,115.38476599999922,134.23095699999976,373.84619099999964
28,166.41015599999992,112.30761700000039,118.0771479999994,325.12841800000024,122.17968800000017,115.89746099999957,99.87158199999976,90.51269500000035,85.64111300000059,97.05126999999993,114.61523400000078,111.79492200000004,117.05126999999993,425.89746099999957
29,182.94873000000007,106.0258789999998,112.17968800000017,328.0771479999994,121.0258789999998,115.12841800000024,92.56396500000028,83.84619099999964,76.79492200000004,89.74365200000011,108.9741210000002,109.87158199999976,110.76904300000024,466.2822270000006
30,202.56396500000028,113.20507799999996,115.38476599999922,340.89746099999957,126.6665039999998,114.87158199999976,93.84619099999964,86.41015599999992,83.0771479999994,95.0,110.51269500000035,111.15380900000036,119.35888699999941,490.76904300000024
31,223.46142599999985,127.69238299999961,125.51269500000035,359.23095699999976,131.6665039999998,115.25634799999989,102.05126999999993,94.35888699999941,99.87158199999976,103.7177729999994,119.61523400000078,114.48730499999965,137.6923829999996,504.7436520000001
32,239.23095699999976,140.12841800000024,135.6411130000006,375.3847659999992,131.0258789999998,115.76904300000024,111.53857400000015,101.9228520000006,117.30761700000039,108.0771479999994,133.46142599999985,117.56396500000028,155.6411130000006,523.3334960000002
33,245.38476599999922,145.0,139.7436520000001,384.23095699999976,127.82031300000017,116.2822270000006,117.05126999999993,105.89746099999957,126.2822270000006,107.17968800000017,146.6665039999998,118.20507799999996,165.6411130000006,564.6152340000008
34,248.7177729999994,145.38476599999922,138.7177729999994,388.20507799999996,130.0,117.56396500000028,117.05126999999993,107.82031300000017,124.74365200000011,107.69238299999961,155.2563479999999,117.30761700000039,168.3334960000002,638.8461909999996
35,264.10253900000043,149.10253900000043,139.48730499999965,394.48730499999965,141.41015599999992,120.0,114.48730499999965,111.41015599999992,118.0771479999994,116.53857400000015,159.23095699999976,117.43603499999972,170.89746099999957,739.2309569999998
36,300.3847659999992,159.48730499999965,147.94873000000007,408.3334960000002,155.76904300000024,123.20507799999996,114.35888699999941,117.94873000000007,114.87158199999976,133.46142599999985,161.79492200000004,120.51269500000035,179.7436520000001,839.2309569999998
37,348.7177729999994,171.6665039999998,161.9228520000006,427.4360349999997,162.17968800000017,126.15380900000036,118.58984400000008,125.12841800000024,119.10253900000043,150.12841800000024,164.87158199999976,125.76904300000024,194.61523400000078,904.7436520000001
38,387.17968800000017,177.05126999999993,172.05126999999993,443.46142599999985,156.0258789999998,127.43603499999972,124.74365200000011,128.20507799999996,126.9228520000006,155.6411130000006,166.6665039999998,130.0,207.94873000000007,915.6411130000006
39,396.9228520000006,170.38476599999922,169.87158199999976,448.5898440000001,142.05126999999993,126.0258789999998,127.05126999999993,123.7177729999994,129.61523400000078,145.76904300000024,164.23095699999976,129.61523400000078,211.0258789999998,879.1025390000004
40,377.4360349999997,153.84619099999964,154.7436520000001,440.6411130000006,128.9741210000002,121.6665039999998,121.9228520000006,112.30761700000039,121.15380900000036,125.76904300000024,156.6665039999998,123.58984400000008,200.89746099999957,824.8715819999998
41,345.89746099999957,136.0258789999998,135.51269500000035,425.51269500000035,123.9741210000002,116.0258789999998,111.41015599999992,99.35888699999941,104.10253900000043,107.05126999999993,147.56396500000028,115.0,182.6923829999996,784.4873049999997
42,325.51269500000035,126.53857400000015,124.48730499999965,414.23095699999976,130.0,112.30761700000039,102.43603499999972,91.79492200000004,89.10253900000043,99.48730499999965,142.6923829999996,109.35888699999941,167.82031300000017,772.6923829999996
43,329.48730499999965,129.7436520000001,128.3334960000002,415.2563479999999,145.0,113.20507799999996,101.2822270000006,92.94873000000007,87.56396500000028,104.61523400000078,144.87158199999976,110.12841800000024,165.89746099999957,782.5639650000003
44,355.89746099999957,142.94873000000007,143.7177729999994,429.10253900000043,163.58984400000008,118.84619099999964,109.48730499999965,101.41015599999992,102.05126999999993,116.2822270000006,153.0771479999994,116.79492200000004,177.6923829999996,797.8203130000002
45,390.3847659999992,158.84619099999964,161.15380900000036,448.3334960000002,179.3588869999994,126.53857400000015,122.56396500000028,112.69238299999961,123.84619099999964,126.41015599999992,163.46142599999985,125.25634799999989,195.0,806.5385740000002
46,415.51269500000035,170.12841800000024,171.79492200000004,463.3334960000002,187.17968800000017,132.05126999999993,133.3334960000002,122.17968800000017,139.48730499999965,131.15380900000036,171.41015599999992,131.15380900000036,205.89746099999957,804.6152340000008
47,419.87158199999976,173.3334960000002,171.15380900000036,467.6923829999996,184.23095699999976,132.05126999999993,136.2822270000006,126.9228520000006,140.89746099999957,132.17968800000017,173.58984400000008,131.9228520000006,201.9228520000006,792.6923829999996
48,403.3334960000002,167.94873000000007,161.15380900000036,460.2563479999999,170.38476599999922,126.6665039999998,130.38476599999922,125.64111300000059,130.0,132.94873000000007,169.10253900000043,127.17968800000017,184.23095699999976,772.9487300000001
49,377.4360349999997,156.15380900000036,148.58984400000008,445.76904300000024,150.6411130000006,119.48730499999965,119.87158199999976,119.48730499999965,116.6665039999998,136.6665039999998,160.2563479999999,120.0,162.43603499999972,750.1284180000002
50,357.17968800000017,143.20507799999996,141.2822270000006,432.5639650000003,134.48730499999965,115.51269500000035,111.53857400000015,111.9228520000006,111.6665039999998,143.46142599999985,152.17968800000017,114.74365200000011,148.84619099999964,731.794922
51,352.05126999999993,134.3588869999994,143.20507799999996,427.3076170000004,129.87158199999976,117.30761700000039,110.89746099999957,107.17968800000017,118.20507799999996,150.38476599999922,149.10253900000043,114.87158199999976,150.2563479999999,722.5639650000003
52,360.6411130000006,131.9228520000006,151.9228520000006,431.0258789999998,135.2563479999999,123.3334960000002,117.69238299999961,107.43603499999972,129.7436520000001,152.05126999999993,151.15380900000036,119.87158199999976,163.0771479999994,721.2822270000006
53,374.10253900000043,132.05126999999993,160.12841800000024,438.20507799999996,141.15380900000036,128.9741210000002,125.89746099999957,110.76904300000024,135.51269500000035,144.7436520000001,153.58984400000008,125.25634799999989,176.0258789999998,723.4614259999998
54,383.20507799999996,129.3588869999994,161.53857400000015,441.0258789999998,138.58984400000008,130.51269500000035,127.82031300000017,112.69238299999961,128.84619099999964,130.2563479999999,151.0258789999998,126.15380900000036,178.20507799999996,723.8461909999996
55,381.0258789999998,121.9228520000006,154.10253900000043,435.3847659999992,128.0771479999994,126.41015599999992,121.15380900000036,110.12841800000024,113.20507799999996,114.48730499999965,141.53857400000015,120.89746099999957,166.41015599999992,717.8203130000002
56,365.89746099999957,111.79492200000004,140.76904300000024,422.6923829999996,118.9741210000002,119.48730499999965,110.38476599999922,104.23095699999976,98.84619099999964,103.9741210000002,128.0771479999994,112.17968800000017,146.15380900000036,701.794922
57,343.3334960000002,103.0771479999994,127.43603499999972,408.5898440000001,120.89746099999957,113.9741210000002,103.20507799999996,99.48730499999965,94.74365200000011,101.53857400000015,116.79492200000004,105.25634799999989,127.82031300000017,678.4614259999998
58,324.87158199999976,98.0771479999994,119.61523400000078,398.3334960000002,134.3588869999994,113.0771479999994,103.9741210000002,99.61523400000078,101.6665039999998,106.41015599999992,113.20507799999996,103.7177729999994,119.10253900000043,657.3076170000004
59,320.51269500000035,95.76904300000024,119.35888699999941,393.5898440000001,148.9741210000002,116.53857400000015,111.0258789999998,104.48730499999965,112.82031300000017,113.9741210000002,118.0771479999994,107.17968800000017,121.2822270000006,648.3334960000002
60,331.4101559999999,93.46142599999985,124.35888699999941,392.4360349999997,152.56396500000028,120.64111300000059,118.7177729999994,111.2822270000006,119.61523400000078,118.58984400000008,125.89746099999957,112.05126999999993,128.7177729999994,653.4614259999998
61,349.23095699999976,91.2822270000006,130.76904300000024,393.0771479999994,143.3334960000002,122.30761700000039,123.0771479999994,118.0771479999994,119.87158199999976,118.0771479999994,130.51269500000035,115.51269500000035,134.61523400000078,666.0258789999998
62,364.10253900000043,92.94873000000007,136.2822270000006,395.51269500000035,132.3076170000004,120.89746099999957,125.0,124.23095699999976,118.7177729999994,116.2822270000006,130.12841800000024,116.9228520000006,135.2563479999999,675.8974609999996
63,369.48730499999965,101.0258789999998,140.6411130000006,399.87158199999976,132.56396500000028,118.58984400000008,127.94873000000007,130.2563479999999,123.0771479999994,119.23095699999976,129.10253900000043,117.43603499999972,131.41015599999992,675.6411130000006
64,362.4360349999997,112.30761700000039,142.56396500000028,402.6923829999996,145.12841800000024,117.82031300000017,133.46142599999985,135.2563479999999,133.3334960000002,128.20507799999996,131.53857400000015,117.56396500000028,125.51269500000035,662.4360349999997
65,343.9741210000002,117.69238299999961,140.0,398.46142599999985,157.56396500000028,119.48730499999965,138.0771479999994,136.79492200000004,141.9228520000006,136.2822270000006,136.0258789999998,117.05126999999993,119.74365200000011,639.2309569999998
66,320.76904300000024,110.0,132.82031300000017,385.0,156.2822270000006,122.30761700000039,137.05126999999993,132.05126999999993,140.12841800000024,135.38476599999922,136.79492200000004,115.38476599999922,115.38476599999922,615.6411130000006
67,303.84619099999964,91.79492200000004,124.48730499999965,367.4360349999997,140.38476599999922,124.10253900000043,128.58984400000008,122.05126999999993,127.69238299999961,124.74365200000011,129.7436520000001,113.7177729999994,112.94873000000007,603.7177729999994
68,301.2822270000006,75.51269500000035,121.53857400000015,356.4101559999999,123.9741210000002,123.58984400000008,117.94873000000007,112.82031300000017,114.61523400000078,113.7177729999994,118.46142599999985,113.58984400000008,113.20507799999996,608.9741210000002
69,311.53857400000015,74.23095699999976,127.94873000000007,359.3588869999994,123.9741210000002,121.53857400000015,112.82031300000017,111.41015599999992,112.30761700000039,112.94873000000007,111.9228520000006,116.15380900000036,116.53857400000015,625.5126950000003
70,324.87158199999976,90.38476599999922,140.76904300000024,373.84619099999964,142.3076170000004,119.23095699999976,117.05126999999993,118.9741210000002,122.69238299999961,123.84619099999964,116.15380900000036,119.48730499999965,121.41015599999992,639.7436520000001
71,330.3847659999992,111.53857400000015,150.89746099999957,386.15380900000036,162.94873000000007,117.69238299999961,125.38476599999922,127.43603499999972,135.2563479999999,136.53857400000015,127.56396500000028,120.38476599999922,124.61523400000078,641.0258789999998
72,321.9228520000006,120.76904300000024,149.7436520000001,382.5639650000003,165.2563479999999,117.43603499999972,128.20507799999996,125.76904300000024,136.0258789999998,138.20507799999996,134.87158199999976,116.15380900000036,121.79492200000004,627.1796880000002
73,301.4101559999999,109.61523400000078,135.51269500000035,360.2563479999999,145.12841800000024,117.69238299999961,120.0,110.89746099999957,120.51269500000035,125.12841800000024,128.84619099999964,108.20507799999996,111.9228520000006,604.3588869999994
74,277.4360349999997,86.0258789999998,116.41015599999992,331.6665039999998,117.82031300000017,117.43603499999972,105.38476599999922,91.2822270000006,98.20507799999996,105.76904300000024,111.53857400000015,101.6665039999998,99.10253900000043,582.9487300000001
75,261.6665039999998,66.79492200000004,104.10253900000043,314.10253900000043,105.0,116.0258789999998,94.35888699999941,80.25634799999989,85.64111300000059,93.46142599999985,95.25634799999989,100.89746099999957,90.0,572.5639650000003
76,262.4360349999997,64.74365200000011,106.2822270000006,317.17968800000017,116.6665039999998,114.87158199999976,94.61523400000078,85.25634799999989,92.17968800000017,96.41015599999992,92.17968800000017,106.53857400000015,89.87158199999976,576.9228520000006
77,277.94873000000007,79.74365200000011,120.76904300000024,336.53857400000015,145.12841800000024,116.79492200000004,105.51269500000035,102.56396500000028,114.35888699999941,113.58984400000008,105.0,114.74365200000011,99.61523400000078,591.2822270000006
78,296.2822270000006,100.64111300000059,137.6923829999996,357.5639650000003,173.0771479999994,122.82031300000017,119.61523400000078,120.38476599999922,138.3334960000002,135.6411130000006,124.87158199999976,120.64111300000059,115.25634799999989,604.3588869999994
79,302.05126999999993,112.69238299999961,145.76904300000024,365.12841800000024,183.9741210000002,129.7436520000001,127.69238299999961,126.79492200000004,149.7436520000001,150.12841800000024,137.56396500000028,121.53857400000015,129.3588869999994,604.3588869999994
80,287.17968800000017,106.9228520000006,139.10253900000043,353.84619099999964,171.41015599999992,132.94873000000007,125.0,117.56396500000028,142.17968800000017,147.56396500000028,134.3588869999994,117.69238299999961,134.61523400000078,587.1796880000002
81,258.20507799999996,86.41015599999992,121.9228520000006,331.4101559999999,143.58984400000008,130.2563479999999,114.48730499999965,98.9741210000002,121.15380900000036,129.10253900000043,118.9741210000002,112.30761700000039,129.10253900000043,560.5126950000003
82,232.94873000000007,65.64111300000059,106.53857400000015,313.9741210000002,119.10253900000043,124.61523400000078,104.87158199999976,84.61523400000078,101.2822270000006,106.53857400000015,104.87158199999976,108.9741210000002,118.9741210000002,539.6152340000008
83,229.10253900000043,59.87158199999976,106.0258789999998,314.6152340000008,114.23095699999976,121.0258789999998,104.74365200000011,85.89746099999957,96.9228520000006,96.15380900000036,104.35888699999941,109.87158199999976,115.0,536.0258789999998
84,249.3588869999994,73.84619099999964,123.20507799999996,333.20507799999996,131.53857400000015,122.17968800000017,115.89746099999957,104.61523400000078,111.53857400000015,106.53857400000015,119.23095699999976,114.74365200000011,123.7177729999994,547.6923829999996
85,278.46142599999985,96.79492200000004,147.6923829999996,355.12841800000024,157.3076170000004,126.2822270000006,132.17968800000017,130.6411130000006,135.12841800000024,131.6665039999998,139.23095699999976,120.38476599999922,141.0258789999998,559.7436520000001
86,292.6923829999996,111.6665039999998,162.05126999999993,362.05126999999993,171.79492200000004,128.9741210000002,143.3334960000002,148.58984400000008,151.53857400000015,155.0,149.87158199999976,123.20507799999996,154.61523400000078,554.3588869999994
87,278.5898440000001,107.17968800000017,155.76904300000024,345.3847659999992,163.58984400000008,127.17968800000017,142.3076170000004,148.46142599999985,150.6411130000006,161.0258789999998,142.94873000000007,121.2822270000006,153.46142599999985,524.1025390000004
88,243.84619099999964,86.53857400000015,133.3334960000002,314.10253900000043,138.0771479999994,121.0258789999998,130.38476599999922,132.82031300000017,134.61523400000078,145.38476599999922,122.82031300000017,115.89746099999957,136.79492200000004,479.10253900000043
89,213.7177729999994,64.48730499999965,111.53857400000015,287.82031300000017,112.43603499999972,114.10253900000043,115.25634799999989,113.9741210000002,115.12841800000024,118.20507799999996,103.0771479999994,110.89746099999957,116.0258789999998,440.89746099999957
90,211.2822270000006,56.153809000000365,106.9228520000006,282.6923829999996,104.10253900000043,110.25634799999989,106.53857400000015,104.61523400000078,106.0258789999998,98.3334960000002,97.94873000000007,109.35888699999941,106.9228520000006,426.53857400000015
91,238.58984400000008,65.51269500000035,122.56396500000028,298.7177729999994,118.20507799999996,111.0258789999998,108.84619099999964,109.35888699999941,113.46142599999985,100.25634799999989,112.17968800000017,112.43603499999972,118.20507799999996,434.48730499999965
92,274.3588869999994,83.58984400000008,146.6665039999998,320.51269500000035,143.58984400000008,114.61523400000078,119.61523400000078,122.69238299999961,132.3076170000004,123.46142599999985,137.43603499999972,118.3334960000002,144.10253900000043,445.2563479999999
93,290.76904300000024,96.0258789999998,161.41015599999992,329.7436520000001,162.05126999999993,117.94873000000007,130.6411130000006,133.84619099999964,149.61523400000078,151.6665039999998,157.82031300000017,123.58984400000008,168.46142599999985,438.20507799999996
94,274.3588869999994,93.7177729999994,156.15380900000036,317.94873000000007,160.89746099999957,118.84619099999964,133.7177729999994,133.58984400000008,153.20507799999996,164.61523400000078,160.38476599999922,125.12841800000024,175.51269500000035,407.94873000000007
95,234.10253900000043,78.3334960000002,134.48730499999965,291.2822270000006,140.76904300000024,116.9228520000006,125.89746099999957,121.0258789999998,140.12841800000024,152.94873000000007,143.3334960000002,121.9228520000006,160.6411130000006,367.82031300000017
96,192.56396500000028,58.7177729999994,109.74365200000011,264.6152340000008,113.58984400000008,113.7177729999994,110.89746099999957,102.56396500000028,116.79492200000004,124.23095699999976,115.64111300000059,115.89746099999957,131.79492200000004,337.5639650000003
97,170.51269500000035,45.12841800000024,95.38476599999922,251.6665039999998,93.9741210000002,111.6665039999998,96.41015599999992,88.0771479999994,94.87158199999976,95.38476599999922,91.79492200000004,109.87158199999976,103.46142599999985,329.23095699999976
98,176.15380900000036,44.102539000000434,97.69238299999961,256.6665039999998,90.89746099999957,112.56396500000028,90.12841800000024,84.74365200000011,84.23095699999976,81.53857400000015,83.9741210000002,106.53857400000015,88.84619099999964,340.76904300000024
99,201.41015599999992,56.025878999999804,112.56396500000028,274.48730499999965,103.84619099999964,116.41015599999992,95.51269500000035,93.3334960000002,88.0771479999994,86.15380900000036,95.38476599999922,107.69238299999961,93.3334960000002,360.3847659999992
100,228.7177729999994,75.51269500000035,130.38476599999922,294.10253900000043,125.12841800000024,121.9228520000006,110.64111300000059,109.10253900000043,101.6665039999998,102.17968800000017,118.46142599999985,112.94873000000007,113.20507799999996,374.3588869999994
101,241.2822270000006,93.7177729999994,141.6665039999998,305.0,144.10253900000043,126.6665039999998,127.43603499999972,123.9741210000002,115.25634799999989,117.94873000000007,138.58984400000008,119.10253900000043,137.56396500000028,375.51269500000035
102,233.7177729999994,101.79492200000004,142.3076170000004,302.17968800000017,151.79492200000004,128.20507799999996,136.9228520000006,130.38476599999922,120.76904300000024,125.12841800000024,143.84619099999964,121.6665039999998,154.10253900000043,365.6411130000006
103,212.43603499999972,96.53857400000015,134.10253900000043,287.6923829999996,145.12841800000024,125.12841800000024,133.7177729999994,125.0,115.25634799999989,121.79492200000004,131.2822270000006,118.3334960000002,155.2563479999999,352.3076170000004
104,190.0,82.43603499999972,121.9228520000006,267.6923829999996,128.0771479999994,119.35888699999941,120.12841800000024,110.76904300000024,102.94873000000007,112.05126999999993,109.23095699999976,110.38476599999922,141.6665039999998,342.94873000000007
105,175.51269500000035,68.3334960000002,111.9228520000006,249.61523400000078,110.25634799999989,114.74365200000011,104.87158199999976,95.25634799999989,92.05126999999993,102.56396500000028,91.0258789999998,102.82031300000017,122.43603499999972,340.2563479999999
106,171.53857400000015,61.79492200000004,108.58984400000008,238.9741210000002,101.0258789999998,114.48730499999965,97.17968800000017,86.15380900000036,89.23095699999976,97.69238299999961,86.53857400000015,99.74365200000011,109.23095699999976,341.2822270000006
107,175.2563479999999,63.333496000000196,112.17968800000017,237.17968800000017,103.9741210000002,117.43603499999972,100.25634799999989,86.0258789999998,95.38476599999922,97.56396500000028,96.53857400000015,101.79492200000004,109.35888699999941,340.3847659999992
108,181.0258789999998,67.82031300000017,118.84619099999964,240.12841800000024,113.9741210000002,120.25634799999989,109.48730499999965,91.2822270000006,105.0,99.74365200000011,112.43603499999972,106.2822270000006,121.0258789999998,333.46142599999985
109,183.46142599999985,69.48730499999965,122.17968800000017,239.87158199999976,122.05126999999993,120.38476599999922,115.89746099999957,95.12841800000024,110.0,101.53857400000015,123.20507799999996,108.84619099999964,135.0,319.6152340000008
110,178.84619099999964,66.79492200000004,117.82031300000017,230.38476599999922,121.53857400000015,118.7177729999994,113.84619099999964,93.0771479999994,105.76904300000024,101.9228520000006,122.56396500000028,107.30761700000039,142.05126999999993,300.76904300000024
111,168.46142599999985,63.20507799999996,107.82031300000017,213.0771479999994,113.3334960000002,117.69238299999961,104.48730499999965,86.6665039999998,95.38476599999922,102.05126999999993,113.58984400000008,103.3334960000002,138.7177729999994,280.51269500000035
112,159.10253900000043,64.74365200000011,99.61523400000078,197.05126999999993,104.35888699999941,119.48730499999965,95.76904300000024,82.56396500000028,87.43603499999972,105.0,106.2822270000006,100.51269500000035,130.2563479999999,262.82031300000017
113,159.23095699999976,73.9741210000002,101.6665039999998,191.53857400000015,102.43603499999972,123.20507799999996,95.51269500000035,87.43603499999972,89.74365200000011,112.05126999999993,108.9741210000002,102.94873000000007,126.53857400000015,247.05126999999993
114,171.53857400000015,87.30761700000039,114.74365200000011,197.94873000000007,110.0,126.2822270000006,106.0258789999998,101.6665039999998,102.30761700000039,121.15380900000036,122.05126999999993,110.38476599999922,133.58984400000008,225.89746099999957
115,188.9741210000002,96.53857400000015,130.76904300000024,207.43603499999972,121.0258789999998,126.2822270000006,120.89746099999957,117.56396500000028,116.41015599999992,126.2822270000006,137.82031300000017,118.9741210000002,147.3076170000004,189.10253900000043
116,201.6665039999998,95.89746099999957,138.7177729999994,208.7177729999994,126.0258789999998,122.94873000000007,130.12841800000024,125.51269500000035,122.43603499999972,123.20507799999996,146.79492200000004,122.82031300000017,157.56396500000028,132.17968800000017
117,204.7436520000001,87.69238299999961,133.3334960000002,197.05126999999993,120.64111300000059,118.9741210000002,127.56396500000028,121.53857400000015,118.46142599999985,113.9741210000002,145.2563479999999,119.23095699999976,156.9228520000006,63.974121000000196
118,202.6923829999996,80.0,118.84619099999964,178.3334960000002,109.35888699999941,116.79492200000004,115.89746099999957,110.38476599999922,111.2822270000006,106.41015599999992,137.6923829999996,111.0258789999998,147.43603499999972,2.5639650000002803
119,205.0,79.74365200000011,105.25634799999989,162.3076170000004,100.89746099999957,116.79492200000004,103.9741210000002,101.0258789999998,108.9741210000002,107.30761700000039,131.0258789999998,103.9741210000002,137.17968800000017,-36.41015600000037
120,218.9741210000002,86.6665039999998,100.38476599999922,155.2563479999999,100.76904300000024,117.69238299999961,100.0,99.23095699999976,112.82031300000017,115.76904300000024,129.10253900000043,101.79492200000004,132.3076170000004,-50.64111300000013
121,246.15380900000036,95.64111300000059,105.38476599999922,156.0258789999998,107.05126999999993,118.0771479999994,105.0,103.9741210000002,117.43603499999972,124.74365200000011,130.6411130000006,104.74365200000011,133.20507799999996,-51.153809000000365
122,283.46142599999985,101.2822270000006,115.38476599999922,158.7177729999994,113.3334960000002,117.43603499999972,114.10253900000043,110.25634799999989,117.43603499999972,127.43603499999972,132.43603499999972,109.74365200000011,136.41015599999992,-53.33325200000036
123,325.6411130000006,102.43603499999972,123.20507799999996,157.43603499999972,114.10253900000043,116.9228520000006,120.12841800000024,113.46142599999985,111.79492200000004,123.9741210000002,133.0771479999994,113.46142599999985,139.10253900000043,-66.66674799999964
124,367.94873000000007,101.41015599999992,124.61523400000078,150.12841800000024,109.23095699999976,117.17968800000017,118.84619099999964,112.05126999999993,104.87158199999976,119.35888699999941,133.0771479999994,113.7177729999994,139.87158199999976,-91.53857400000015
125,406.6665039999998,100.64111300000059,119.87158199999976,139.3588869999994,102.94873000000007,118.3334960000002,111.41015599999992,107.82031300000017,100.89746099999957,118.20507799999996,132.94873000000007,110.76904300000024,138.20507799999996,-121.79492200000004
126,438.7177729999994,100.64111300000059,112.43603499999972,130.12841800000024,100.51269500000035,119.10253900000043,102.56396500000028,103.84619099999964,100.89746099999957,119.10253900000043,131.6665039999998,106.6665039999998,134.3588869999994,-150.76928699999962
127,461.53857400000015,100.38476599999922,105.51269500000035,124.87158199999976,102.17968800000017,118.58984400000008,97.43603499999972,102.17968800000017,101.41015599999992,116.41015599999992,127.30761700000039,103.7177729999994,128.84619099999964,-173.20507799999996
128,474.48730499999965,98.7177729999994,100.25634799999989,120.76904300000024,102.94873000000007,117.05126999999993,97.30761700000039,102.17968800000017,98.20507799999996,106.15380900000036,118.7177729999994,101.9228520000006,122.69238299999961,-186.41015600000037
129,479.7436520000001,95.89746099999957,96.9228520000006,113.3334960000002,97.82031300000017,116.9228520000006,100.25634799999989,102.43603499999972,90.51269500000035,91.6665039999998,108.58984400000008,100.51269500000035,118.20507799999996,-188.58984399999963
130,482.17968800000017,94.35888699999941,96.15380900000036,103.46142599999985,89.35888699999941,119.61523400000078,103.7177729999994,102.94873000000007,83.58984400000008,82.17968800000017,102.69238299999961,99.35888699999941,118.84619099999964,-180.0
131,486.6665039999998,97.56396500000028,99.61523400000078,96.9228520000006,86.0258789999998,124.74365200000011,107.69238299999961,106.0258789999998,84.74365200000011,86.6665039999998,106.0258789999998,99.74365200000011,127.56396500000028,-163.84619099999964
132,492.94873000000007,106.41015599999992,107.69238299999961,99.10253900000043,93.84619099999964,129.23095699999976,113.7177729999994,113.20507799999996,96.79492200000004,105.89746099999957,118.46142599999985,102.69238299999961,143.3334960000002,-145.1281740000004
133,494.87158199999976,117.30761700000039,117.69238299999961,109.10253900000043,108.9741210000002,130.38476599999922,121.41015599999992,122.69238299999961,113.0771479999994,129.48730499999965,132.94873000000007,107.56396500000028,160.2563479999999,-130.1281740000004
134,484.10253900000043,123.7177729999994,123.84619099999964,118.9741210000002,119.74365200000011,126.9228520000006,126.9228520000006,129.48730499999965,122.43603499999972,142.05126999999993,140.12841800000024,111.6665039999998,170.2563479999999,-123.71801800000003
135,457.4360349999997,121.0258789999998,121.53857400000015,121.2822270000006,117.43603499999972,120.64111300000059,125.51269500000035,129.23095699999976,118.3334960000002,135.0,135.12841800000024,111.9228520000006,168.7177729999994,-127.43579099999943
136,421.0258789999998,110.76904300000024,111.53857400000015,113.84619099999964,103.84619099999964,114.74365200000011,116.41015599999992,121.53857400000015,103.9741210000002,113.3334960000002,120.38476599999922,107.82031300000017,157.94873000000007,-138.076904
137,387.3076170000004,99.10253900000043,99.35888699999941,102.43603499999972,89.10253900000043,111.6665039999998,104.87158199999976,111.53857400000015,89.48730499999965,92.05126999999993,104.61523400000078,101.53857400000015,144.87158199999976,-149.61547900000005
138,365.6411130000006,92.94873000000007,92.05126999999993,94.48730499999965,82.82031300000017,112.56396500000028,98.58984400000008,105.89746099999957,83.46142599999985,85.12841800000024,96.15380900000036,96.9228520000006,136.79492200000004,-156.79492200000004
139,357.3076170000004,95.12841800000024,93.7177729999994,93.7177729999994,86.6665039999998,115.76904300000024,101.53857400000015,108.0771479999994,88.20507799999996,95.64111300000059,98.58984400000008,96.15380900000036,136.53857400000015,-157.820557
140,355.6411130000006,103.7177729999994,103.0771479999994,98.58984400000008,95.76904300000024,118.84619099999964,111.15380900000036,116.15380900000036,100.0,115.25634799999989,109.35888699999941,98.9741210000002,143.0771479999994,-154.61547900000005
141,353.3334960000002,113.58984400000008,115.12841800000024,104.23095699999976,104.74365200000011,119.61523400000078,120.0,125.12841800000024,112.30761700000039,131.79492200000004,122.56396500000028,103.84619099999964,153.20507799999996,-149.7436520000001
142,346.53857400000015,120.12841800000024,124.23095699999976,105.25634799999989,111.6665039999998,118.20507799999996,122.69238299999961,130.89746099999957,120.38476599999922,137.3076170000004,132.82031300000017,108.9741210000002,162.6923829999996,-145.5129390000002
143,335.3847659999992,121.15380900000036,127.17968800000017,98.20507799999996,117.82031300000017,117.05126999999993,118.84619099999964,132.05126999999993,122.82031300000017,132.43603499999972,137.3076170000004,113.0771479999994,167.6923829999996,-143.58984399999963
144,322.3076170000004,119.10253900000043,125.0,83.3334960000002,124.48730499999965,118.0771479999994,112.94873000000007,130.51269500000035,122.17968800000017,125.0,136.79492200000004,115.51269500000035,166.53857400000015,-144.35888699999987
145,309.48730499999965,117.82031300000017,121.6665039999998,65.0,130.6411130000006,121.6665039999998,110.12841800000024,129.10253900000043,121.53857400000015,122.56396500000028,134.7436520000001,116.0258789999998,160.38476599999922,-147.0512700000004
146,298.46142599999985,119.87158199999976,121.0258789999998,49.102539000000434,132.94873000000007,125.51269500000035,112.05126999999993,129.3588869999994,122.56396500000028,126.9228520000006,133.9741210000002,115.25634799999989,153.0771479999994,-149.35888699999987
147,290.0,124.61523400000078,124.10253900000043,39.23095699999976,128.46142599999985,127.05126999999993,116.2822270000006,131.53857400000015,124.35888699999941,133.46142599999985,135.6411130000006,113.84619099999964,147.17968800000017,-149.61547900000005
148,283.3334960000002,129.3588869999994,128.7177729999994,35.64111300000059,117.43603499999972,125.25634799999989,119.74365200000011,134.23095699999976,125.89746099999957,136.2822270000006,138.3334960000002,112.82031300000017,143.46142599999985,-147.56420900000057
149,277.3076170000004,131.53857400000015,131.79492200000004,35.51269500000035,103.9741210000002,121.53857400000015,121.0258789999998,135.6411130000006,126.79492200000004,133.46142599999985,140.51269500000035,113.20507799999996,141.41015599999992,-144.61547900000005
150,270.0,129.87158199999976,131.53857400000015,34.74365200000011,93.20507799999996,117.94873000000007,121.0258789999998,134.7436520000001,127.17968800000017,127.94873000000007,140.89746099999957,114.74365200000011,140.6411130000006,-142.56420900000057
151,259.23095699999976,123.84619099999964,127.43603499999972,29.48730499999965,88.0771479999994,116.41015599999992,120.0,131.9228520000006,125.89746099999957,123.46142599999985,138.46142599999985,115.38476599999922,139.7436520000001,-142.820557
152,244.7436520000001,114.87158199999976,121.2822270000006,18.461425999999847,88.7177729999994,116.79492200000004,117.17968800000017,127.94873000000007,121.0258789999998,121.0258789999998,133.46142599999985,113.20507799999996,137.6923829999996,-144.7436520000001
153,229.23095699999976,105.64111300000059,115.89746099999957,5.0,94.10253900000043,117.69238299999961,111.9228520000006,124.10253900000043,112.30761700000039,118.84619099999964,127.30761700000039,108.46142599999985,133.9741210000002,-146.02563499999997
154,217.56396500000028,100.38476599999922,114.23095699999976,-4.61547900000005,102.69238299999961,117.43603499999972,105.64111300000059,120.89746099999957,102.94873000000007,115.25634799999989,122.43603499999972,103.7177729999994,129.48730499999965,-145.2563479999999
155,212.17968800000017,100.64111300000059,116.0258789999998,-6.666747999999643,111.79492200000004,116.0258789999998,100.51269500000035,117.05126999999993,96.53857400000015,111.15380900000036,119.74365200000011,101.0258789999998,124.87158199999976,-143.076904
156,210.51269500000035,104.35888699999941,117.82031300000017,-2.9487300000000687,117.17968800000017,114.10253900000043,97.82031300000017,110.89746099999957,94.48730499999965,108.20507799999996,117.43603499999972,100.51269500000035,119.48730499999965,-141.41015600000037
157,207.6923829999996,108.0771479999994,116.2822270000006,1.7949220000000423,116.2822270000006,113.20507799999996,97.30761700000039,103.46142599999985,94.74365200000011,108.3334960000002,114.35888699999941,101.2822270000006,113.7177729999994,-141.41015600000037
158,201.9228520000006,110.64111300000059,112.05126999999993,4.487304999999651,110.51269500000035,114.10253900000043,98.20507799999996,99.10253900000043,94.61523400000078,111.0258789999998,111.6665039999998,102.82031300000017,110.25634799999989,-142.3076170000004
159,195.2563479999999,113.46142599999985,109.35888699999941,6.153809000000365,104.10253900000043,116.41015599999992,100.12841800000024,101.79492200000004,92.17968800000017,113.7177729999994,112.30761700000039,104.87158199999976,111.9228520000006,-142.179443
160,190.89746099999957,118.0771479999994,112.05126999999993,8.846190999999635,99.48730499999965,118.58984400000008,103.58984400000008,111.15380900000036,87.30761700000039,113.3334960000002,117.43603499999972,107.56396500000028,118.46142599999985,-139.4870609999998
161,190.12841800000024,123.58984400000008,119.74365200000011,12.82031300000017,96.6665039999998,119.61523400000078,108.9741210000002,122.05126999999993,83.20507799999996,110.0,125.51269500000035,111.0258789999998,125.89746099999957,-134.35888699999987
162,191.41015599999992,128.0771479999994,128.84619099999964,16.153809000000365,95.51269500000035,120.0,115.64111300000059,128.9741210000002,85.12841800000024,107.69238299999961,132.82031300000017,115.0,130.76904300000024,-128.076904
163,191.2822270000006,130.38476599999922,135.2563479999999,17.05126999999993,98.84619099999964,120.51269500000035,121.15380900000036,128.7177729999994,95.89746099999957,110.12841800000024,135.76904300000024,118.46142599999985,132.17968800000017,-123.33325200000036
164,187.17968800000017,129.3588869999994,136.15380900000036,15.256347999999889,109.10253900000043,121.41015599999992,122.05126999999993,122.56396500000028,111.53857400000015,116.6665039999998,131.9228520000006,119.74365200000011,130.2563479999999,-122.30761700000039
165,177.82031300000017,125.51269500000035,131.9228520000006,12.43603499999972,124.48730499999965,121.2822270000006,116.0258789999998,115.0,122.30761700000039,120.64111300000059,121.9228520000006,117.17968800000017,125.51269500000035,-125.51293900000019
166,165.6411130000006,120.12841800000024,125.51269500000035,11.153809000000365,137.17968800000017,119.61523400000078,105.51269500000035,110.38476599999922,120.51269500000035,116.53857400000015,108.9741210000002,111.0258789999998,118.7177729999994,-130.76928699999962
167,155.0,116.9228520000006,121.53857400000015,13.589844000000085,139.87158199999976,117.05126999999993,97.56396500000028,111.53857400000015,108.0771479999994,105.51269500000035,99.23095699999976,104.23095699999976,112.17968800000017,-134.10253899999998
168,150.38476599999922,119.10253900000043,123.20507799999996,20.25634799999989,131.41015599999992,115.12841800000024,98.58984400000008,116.6665039999998,94.61523400000078,96.15380900000036,97.82031300000017,100.89746099999957,110.0,-132.6923829999996
169,151.79492200000004,126.0258789999998,129.7436520000001,29.48730499999965,118.46142599999985,115.0,108.58984400000008,121.6665039999998,89.35888699999941,96.15380900000036,105.51269500000035,103.0771479999994,113.3334960000002,-126.79492200000004
170,153.9741210000002,132.43603499999972,135.6411130000006,38.333496000000196,109.23095699999976,116.0258789999998,120.12841800000024,121.79492200000004,93.3334960000002,105.64111300000059,116.79492200000004,108.46142599999985,118.46142599999985,-120.0
171,151.0258789999998,133.0771479999994,135.51269500000035,45.12841800000024,106.79492200000004,117.17968800000017,124.23095699999976,116.0258789999998,99.87158199999976,116.6665039999998,123.20507799999996,112.82031300000017,119.61523400000078,-117.30761700000039
172,141.15380900000036,126.6665039999998,128.20507799999996,49.35888699999941,108.20507799999996,117.69238299999961,118.58984400000008,107.30761700000039,101.6665039999998,120.89746099999957,119.87158199999976,113.3334960000002,114.23095699999976,-120.38452099999995
173,127.94873000000007,116.79492200000004,118.46142599999985,50.897460999999566,107.82031300000017,117.56396500000028,108.20507799999996,100.89746099999957,96.79492200000004,116.53857400000015,109.35888699999941,110.25634799999989,105.12841800000024,-126.66674799999964
174,117.05126999999993,108.0771479999994,112.56396500000028,50.0,103.20507799999996,117.05126999999993,101.15380900000036,100.0,87.82031300000017,108.20507799999996,99.87158199999976,106.41015599999992,98.20507799999996,-131.66674799999964
175,111.0258789999998,103.7177729999994,112.82031300000017,47.43603499999972,98.58984400000008,116.15380900000036,101.41015599999992,104.10253900000043,79.61523400000078,102.69238299999961,98.20507799999996,104.35888699999941,97.43603499999972,-132.179443
176,109.35888699999941,105.0,117.30761700000039,46.9228520000006,101.15380900000036,115.64111300000059,107.30761700000039,109.87158199999976,76.6665039999998,103.46142599999985,106.2822270000006,105.76904300000024,103.58984400000008,-127.69238299999961
177,109.61523400000078,111.79492200000004,122.43603499999972,52.56396500000028,112.94873000000007,116.15380900000036,114.74365200000011,114.10253900000043,81.79492200000004,109.48730499999965,119.74365200000011,110.25634799999989,113.46142599999985,-119.74365200000011
178,109.61523400000078,121.41015599999992,125.51269500000035,65.64111300000059,128.20507799999996,118.0771479999994,119.61523400000078,114.87158199999976,93.0771479999994,116.41015599999992,130.76904300000024,115.51269500000035,121.53857400000015,-111.79492200000004
179,107.56396500000028,128.46142599999985,125.64111300000059,81.41015599999992,136.41015599999992,120.0,120.64111300000059,111.6665039999998,104.35888699999941,118.58984400000008,132.6923829999996,118.58984400000008,123.0771479999994,-107.05127000000039
180,103.3334960000002,128.20507799999996,123.9741210000002,92.30761700000039,131.2822270000006,119.35888699999941,118.7177729999994,106.2822270000006,107.94873000000007,113.9741210000002,125.0,117.94873000000007,116.79492200000004,-107.43579099999943
181,97.17968800000017,119.87158199999976,121.41015599999992,93.46142599999985,115.89746099999957,115.25634799999989,115.12841800000024,100.89746099999957,100.89746099999957,104.23095699999976,113.3334960000002,114.61523400000078,106.2822270000006,-112.30761700000039
182,89.48730499999965,107.82031300000017,118.3334960000002,85.38476599999922,98.0771479999994,108.7177729999994,109.61523400000078,96.15380900000036,86.15380900000036,93.7177729999994,104.35888699999941,110.12841800000024,96.9228520000006,-119.23071300000038
183,80.12841800000024,97.82031300000017,113.7177729999994,73.3334960000002,85.89746099999957,103.20507799999996,101.6665039999998,91.0258789999998,70.89746099999957,86.0258789999998,100.12841800000024,104.87158199999976,91.6665039999998,-125.25634799999989
184,70.25634799999989,93.7177729999994,108.0771479999994,63.974121000000196,83.7177729999994,101.53857400000015,93.0771479999994,86.53857400000015,63.333496000000196,82.43603499999972,98.3334960000002,99.61523400000078,90.64111300000059,-128.20507799999996
185,63.333496000000196,97.69238299999961,104.74365200000011,63.46142599999985,92.30761700000039,105.0,88.46142599999985,86.79492200000004,68.58984400000008,84.10253900000043,97.69238299999961,97.05126999999993,93.84619099999964,-126.15380900000036
186,64.10253900000043,109.61523400000078,107.56396500000028,73.9741210000002,108.3334960000002,111.15380900000036,92.82031300000017,95.89746099999957,85.38476599999922,92.17968800000017,99.23095699999976,99.35888699999941,101.79492200000004,-118.97436500000003
187,73.46142599999985,125.38476599999922,117.17968800000017,91.15380900000036,125.38476599999922,116.79492200000004,105.25634799999989,112.30761700000039,105.25634799999989,105.89746099999957,104.48730499999965,106.2822270000006,112.69238299999961,-109.35888699999987
188,85.51269500000035,138.20507799999996,128.58984400000008,104.87158199999976,135.38476599999922,119.10253900000043,118.7177729999994,127.82031300000017,117.56396500000028,120.76904300000024,111.9228520000006,114.10253900000043,121.79492200000004,-101.53857400000015
189,91.79492200000004,141.79492200000004,134.87158199999976,106.9228520000006,133.7177729999994,118.0771479999994,124.48730499999965,133.3334960000002,117.05126999999993,130.12841800000024,117.69238299999961,118.58984400000008,124.35888699999941,-99.23071300000038
190,87.82031300000017,134.87158199999976,132.43603499999972,96.15380900000036,122.43603499999972,116.15380900000036,119.74365200000011,126.0258789999998,107.82031300000017,129.48730499999965,118.3334960000002,117.69238299999961,119.23095699999976,-102.43579099999943
191,75.64111300000059,121.9228520000006,123.0771479999994,78.9741210000002,108.9741210000002,115.12841800000024,108.46142599999985,111.15380900000036,99.10253900000043,118.84619099999964,112.94873000000007,112.94873000000007,109.61523400000078,-108.33325200000036
192,61.025878999999804,109.23095699999976,112.17968800000017,64.48730499999965,100.64111300000059,115.64111300000059,97.82031300000017,97.82031300000017,95.89746099999957,103.3334960000002,103.9741210000002,107.94873000000007,100.64111300000059,-113.84619099999964
193,49.87158199999976,102.17968800000017,105.38476599999922,59.87158199999976,100.76904300000024,116.2822270000006,93.0771479999994,92.56396500000028,96.79492200000004,90.25634799999989,96.0258789999998,105.25634799999989,95.51269500000035,-116.28198199999997
194,45.64111300000059,103.46142599999985,105.51269500000035,66.2822270000006,108.0771479999994,116.2822270000006,94.87158199999976,96.2822270000006,97.17968800000017,86.41015599999992,94.23095699999976,105.64111300000059,95.12841800000024,-115.1281740000004
195,47.30761700000039,111.6665039999998,111.41015599999992,78.84619099999964,116.2822270000006,115.38476599999922,100.64111300000059,104.74365200000011,95.25634799999989,94.23095699999976,100.0,107.56396500000028,98.7177729999994,-111.02563499999997
196,51.025878999999804,120.89746099999957,118.58984400000008,89.10253900000043,118.46142599999985,114.35888699999941,106.0258789999998,111.53857400000015,92.94873000000007,108.0771479999994,109.48730499999965,108.7177729999994,103.46142599999985,-106.79492200000004
197,51.79492200000004,123.84619099999964,121.9228520000006,90.51269500000035,111.53857400000015,114.10253900000043,107.69238299999961,111.9228520000006,92.56396500000028,117.82031300000017,115.89746099999957,107.43603499999972,105.51269500000035,-105.1281740000004
198,46.666503999999804,117.05126999999993,118.58984400000008,83.7177729999994,99.35888699999941,114.35888699999941,104.61523400000078,105.12841800000024,93.3334960000002,115.89746099999957,114.10253900000043,103.58984400000008,102.69238299999961,-107.17944299999999
199,37.30761700000039,104.61523400000078,110.76904300000024,75.89746099999957,89.48730499999965,114.48730499999965,99.35888699999941,96.0258789999998,92.94873000000007,103.84619099999964,105.51269500000035,100.0,97.69238299999961,-111.15380900000036
200,29.102539000000434,95.76904300000024,104.48730499999965,76.0258789999998,88.58984400000008,114.23095699999976,96.53857400000015,91.79492200000004,90.12841800000024,91.53857400000015,96.9228520000006,99.10253900000043,95.64111300000059,-112.94872999999961
201,27.56396500000028,97.94873000000007,105.38476599999922,87.30761700000039,97.05126999999993,113.84619099999964,99.74365200000011,97.30761700000039,87.30761700000039,89.87158199999976,95.51269500000035,102.30761700000039,100.38476599999922,-108.71801800000003
202,33.846190999999635,110.64111300000059,114.35888699999941,103.58984400000008,109.87158199999976,114.35888699999941,108.58984400000008,110.12841800000024,88.0771479999994,101.79492200000004,103.46142599999985,108.58984400000008,110.12841800000024,-99.23071300000038
203,43.0771479999994,125.89746099999957,126.41015599999992,114.61523400000078,119.87158199999976,115.76904300000024,118.84619099999964,122.69238299999961,92.94873000000007,119.61523400000078,115.64111300000059,115.38476599999922,118.9741210000002,-88.97436500000003
204,47.94873000000007,134.10253900000043,133.7177729999994,113.46142599999985,121.41015599999992,117.30761700000039,124.74365200000011,126.9228520000006,98.9741210000002,130.2563479999999,123.0771479999994,119.35888699999941,120.0,-84.35888699999987
205,43.846190999999635,130.2563479999999,131.15380900000036,101.9228520000006,115.12841800000024,118.20507799999996,122.82031300000017,120.25634799999989,101.2822270000006,125.51269500000035,119.35888699999941,118.58984400000008,111.41015599999992,-87.94872999999961
206,33.46142599999985,118.3334960000002,120.51269500000035,88.58984400000008,107.94873000000007,118.46142599999985,115.38476599999922,107.30761700000039,98.20507799999996,108.7177729999994,106.79492200000004,113.9741210000002,98.7177729999994,-96.66674799999964
207,24.358886999999413,107.69238299999961,109.61523400000078,82.94873000000007,109.23095699999976,118.7177729999994,108.7177729999994,97.56396500000028,93.46142599999985,92.05126999999993,94.87158199999976,108.7177729999994,91.0258789999998,-103.07690400000001
208,23.077147999999397,106.2822270000006,106.79492200000004,88.84619099999964,122.05126999999993,119.35888699999941,108.9741210000002,98.7177729999994,93.3334960000002,87.17968800000017,93.46142599999985,106.79492200000004,94.87158199999976,-101.66674799999964
209,29.230956999999762,113.9741210000002,113.46142599999985,101.2822270000006,137.6923829999996,119.74365200000011,115.89746099999957,110.76904300000024,100.38476599999922,95.89746099999957,103.84619099999964,109.23095699999976,107.82031300000017,-93.71801800000003
210,36.53857400000015,122.82031300000017,122.69238299999961,110.51269500000035,141.53857400000015,119.10253900000043,122.94873000000007,125.0,110.38476599999922,110.0,117.69238299999961,113.58984400000008,119.87158199999976,-85.76928699999962
211,36.79492200000004,123.3334960000002,124.87158199999976,109.10253900000043,125.38476599999922,117.30761700000039,122.82031300000017,130.6411130000006,113.9741210000002,118.7177729999994,123.58984400000008,115.12841800000024,120.76904300000024,-84.8718259999996
212,27.43603499999972,112.56396500000028,116.15380900000036,98.7177729999994,96.9228520000006,115.25634799999989,113.84619099999964,122.82031300000017,106.2822270000006,116.9228520000006,116.53857400000015,112.17968800000017,108.20507799999996,-92.30761700000039
213,14.102539000000434,97.17968800000017,102.43603499999972,88.3334960000002,75.12841800000024,114.10253900000043,102.17968800000017,107.82031300000017,92.43603499999972,109.23095699999976,102.82031300000017,107.05126999999993,91.0258789999998,-102.17944299999999
214,7.179688000000169,88.84619099999964,94.74365200000011,87.56396500000028,76.15380900000036,114.74365200000011,96.53857400000015,98.20507799999996,83.9741210000002,104.61523400000078,94.10253900000043,104.48730499999965,82.30761700000039,-106.41015600000037
215,12.051269999999931,94.74365200000011,99.61523400000078,98.0771479999994,99.10253900000043,117.05126999999993,100.89746099999957,102.69238299999961,88.58984400000008,107.56396500000028,97.56396500000028,107.17968800000017,88.58984400000008,-100.64111300000013
216,24.74365200000011,111.6665039999998,113.46142599999985,113.0771479999994,127.82031300000017,119.61523400000078,111.9228520000006,118.3334960000002,102.69238299999961,115.0,110.38476599999922,113.3334960000002,104.87158199999976,-88.20507799999996
217,35.64111300000059,128.46142599999985,126.79492200000004,123.0771479999994,143.46142599999985,121.0258789999998,121.53857400000015,133.58984400000008,115.0,120.64111300000059,121.9228520000006,118.7177729999994,118.7177729999994,-76.92309599999999
218,37.17968800000017,134.87158199999976,131.53857400000015,123.58984400000008,139.3588869999994,120.76904300000024,124.23095699999976,138.20507799999996,116.15380900000036,121.2822270000006,123.7177729999994,119.74365200000011,120.51269500000035,-73.46142599999985
219,29.615234000000783,128.46142599999985,126.9228520000006,117.69238299999961,123.20507799999996,119.61523400000078,120.64111300000059,130.38476599999922,107.56396500000028,118.3334960000002,115.12841800000024,116.79492200000004,111.15380900000036,-77.56420900000057
220,19.615234000000783,115.51269500000035,118.7177729999994,112.05126999999993,109.23095699999976,118.84619099999964,115.76904300000024,117.30761700000039,98.3334960000002,116.15380900000036,103.7177729999994,112.82031300000017,99.87158199999976,-83.58984399999963
221,13.846190999999635,105.0,113.3334960000002,110.38476599999922,105.76904300000024,119.35888699999941,113.7177729999994,107.82031300000017,96.9228520000006,116.9228520000006,97.94873000000007,111.2822270000006,95.76904300000024,-85.64111300000013
222,13.589844000000085,101.53857400000015,112.82031300000017,110.38476599999922,110.51269500000035,121.2822270000006,114.23095699999976,105.38476599999922,101.6665039999998,118.58984400000008,100.38476599999922,112.69238299999961,101.0258789999998,-82.69238299999961
223,16.025878999999804,104.61523400000078,114.48730499999965,107.56396500000028,114.61523400000078,123.7177729999994,114.23095699999976,108.46142599999985,104.35888699999941,117.69238299999961,107.94873000000007,115.38476599999922,110.12841800000024,-78.20507799999996
224,18.461425999999847,110.64111300000059,115.76904300000024,101.2822270000006,114.10253900000043,125.51269500000035,112.43603499999972,114.48730499999965,100.76904300000024,113.84619099999964,115.64111300000059,117.05126999999993,116.41015599999992,-75.0
225,21.282227000000603,117.82031300000017,117.30761700000039,96.9228520000006,113.58984400000008,127.30761700000039,112.30761700000039,122.82031300000017,96.53857400000015,111.53857400000015,121.41015599999992,117.30761700000039,118.0771479999994,-72.30761700000039
226,26.153809000000365,125.51269500000035,121.79492200000004,100.64111300000059,119.48730499999965,129.7436520000001,117.56396500000028,133.58984400000008,101.2822270000006,115.76904300000024,126.0258789999998,117.82031300000017,118.20507799999996,-67.69238299999961
227,31.538574000000153,131.9228520000006,129.61523400000078,111.41015599999992,130.76904300000024,132.3076170000004,127.43603499999972,143.9741210000002,116.41015599999992,126.15380900000036,129.87158199999976,119.87158199999976,120.76904300000024,-61.41015600000037
228,33.0771479999994,133.3334960000002,136.15380900000036,120.64111300000059,138.46142599999985,133.7177729999994,135.89746099999957,148.20507799999996,131.9228520000006,136.15380900000036,130.6411130000006,122.69238299999961,124.61523400000078,-57.435790999999426
229,27.17968800000017,127.05126999999993,135.6411130000006,119.74365200000011,134.48730499999965,133.3334960000002,136.15380900000036,141.9228520000006,134.23095699999976,137.6923829999996,125.64111300000059,123.58984400000008,125.12841800000024,-60.1281740000004
230,14.743652000000111,114.35888699999941,126.2822270000006,108.3334960000002,120.0,131.2822270000006,127.17968800000017,126.79492200000004,118.3334960000002,126.6665039999998,115.0,121.15380900000036,118.84619099999964,-69.48706099999981
231,0.769043000000238,101.41015599999992,112.43603499999972,93.46142599999985,103.58984400000008,128.9741210000002,113.84619099999964,109.48730499999965,92.17968800000017,106.0258789999998,102.43603499999972,116.53857400000015,106.41015599999992,-81.15380900000036
232,-9.102538999999979,94.23095699999976,101.15380900000036,83.7177729999994,93.46142599999985,127.30761700000039,103.20507799999996,97.17968800000017,71.15380900000036,84.87158199999976,92.30761700000039,111.9228520000006,92.94873000000007,-88.71801800000003
233,-11.794922000000042,95.25634799999989,97.30761700000039,83.0771479999994,91.53857400000015,125.76904300000024,98.9741210000002,93.3334960000002,66.2822270000006,73.58984400000008,87.17968800000017,108.58984400000008,84.10253900000043,-88.84619099999964
234,-9.102538999999979,101.0258789999998,99.74365200000011,88.46142599999985,94.35888699999941,123.84619099999964,100.64111300000059,95.76904300000024,76.6665039999998,77.43603499999972,85.76904300000024,106.0258789999998,81.9228520000006,-83.20507799999996
235,-6.025634999999966,105.38476599999922,103.3334960000002,93.46142599999985,98.58984400000008,121.2822270000006,105.0,98.7177729999994,90.76904300000024,92.30761700000039,85.64111300000059,103.58984400000008,83.7177729999994,-77.43579099999943
236,-6.025634999999966,104.74365200000011,103.7177729999994,94.23095699999976,103.58984400000008,118.7177729999994,108.46142599999985,97.56396500000028,96.53857400000015,107.69238299999961,84.48730499999965,101.79492200000004,85.12841800000024,-76.02563499999997
237,-8.076904000000013,100.12841800000024,100.89746099999957,91.79492200000004,110.38476599999922,116.79492200000004,109.35888699999941,93.58984400000008,90.89746099999957,114.10253900000043,82.69238299999961,101.6665039999998,84.23095699999976,-78.97436500000003
238,-7.692382999999609,96.6665039999998,98.0771479999994,90.25634799999989,118.84619099999964,116.0258789999998,108.58984400000008,91.2822270000006,81.15380900000036,110.76904300000024,82.82031300000017,104.10253900000043,83.58984400000008,-81.53857400000015
239,-2.3076170000003913,98.7177729999994,98.84619099999964,92.69238299999961,126.53857400000015,116.0258789999998,108.3334960000002,94.35888699999941,77.43603499999972,104.87158199999976,87.94873000000007,108.46142599999985,87.05126999999993,-78.58984399999963
240,5.897460999999566,105.25634799999989,103.20507799999996,97.94873000000007,130.2563479999999,116.53857400000015,109.61523400000078,101.41015599999992,83.0771479999994,103.9741210000002,97.17968800000017,112.56396500000028,95.25634799999989,-70.0
241,10.769043000000238,110.25634799999989,107.43603499999972,101.6665039999998,128.7177729999994,116.9228520000006,110.51269500000035,107.05126999999993,92.17968800000017,108.20507799999996,105.76904300000024,113.84619099999964,103.7177729999994,-61.025634999999966
242,7.56396500000028,108.84619099999964,106.9228520000006,99.48730499999965,122.82031300000017,116.79492200000004,108.20507799999996,106.53857400000015,95.51269500000035,110.12841800000024,106.9228520000006,110.51269500000035,105.64111300000059,-58.58984399999963
243,-2.9487300000000687,101.41015599999992,100.89746099999957,91.2822270000006,114.61523400000078,116.41015599999992,102.30761700000039,99.87158199999976,89.48730499999965,103.7177729999994,98.58984400000008,103.7177729999994,98.58984400000008,-64.8718259999996
244,-13.974365000000034,94.23095699999976,94.23095699999976,82.17968800000017,107.94873000000007,116.0258789999998,96.9228520000006,92.82031300000017,79.48730499999965,91.15380900000036,86.2822270000006,97.56396500000028,87.94873000000007,-74.23071300000038
245,-17.564209000000574,92.94873000000007,93.58984400000008,79.10253900000043,106.15380900000036,115.89746099999957,97.05126999999993,92.05126999999993,74.10253900000043,82.05126999999993,79.74365200000011,96.79492200000004,83.0771479999994,-77.69238299999961
246,-10.769286999999622,98.9741210000002,100.76904300000024,85.25634799999989,110.25634799999989,115.89746099999957,105.0,99.87158199999976,78.84619099999964,85.51269500000035,85.64111300000059,102.56396500000028,89.23095699999976,-71.28198199999997
247,2.1796880000001693,108.46142599999985,111.6665039999998,97.56396500000028,117.82031300000017,115.89746099999957,117.17968800000017,112.43603499999972,91.15380900000036,101.79492200000004,101.53857400000015,111.15380900000036,103.3334960000002,-58.20507799999996
248,12.051269999999931,115.76904300000024,119.48730499999965,109.10253900000043,124.48730499999965,116.0258789999998,127.30761700000039,123.0771479999994,103.20507799999996,121.0258789999998,116.79492200000004,116.79492200000004,116.2822270000006,-46.66674799999964
249,12.051269999999931,117.82031300000017,120.25634799999989,113.58984400000008,127.05126999999993,116.79492200000004,130.0,127.05126999999993,108.20507799999996,130.76904300000024,121.53857400000015,116.15380900000036,120.0,-43.46142599999985
250,2.8203130000001693,116.15380900000036,115.38476599999922,109.87158199999976,126.0258789999998,117.94873000000007,125.12841800000024,124.48730499999965,104.87158199999976,126.9228520000006,114.10253900000043,110.76904300000024,113.9741210000002,-48.71801800000003
251,-7.051270000000386,114.48730499999965,109.87158199999976,101.9228520000006,123.84619099999964,118.46142599999985,117.05126999999993,119.35888699999941,99.10253900000043,116.9228520000006,101.9228520000006,105.25634799999989,105.38476599999922,-56.66674799999964
252,-9.358886999999868,115.64111300000059,108.0771479999994,96.15380900000036,122.43603499999972,117.56396500000028,111.79492200000004,115.89746099999957,97.69238299999961,112.94873000000007,94.87158199999976,103.7177729999994,101.9228520000006,-60.64111300000013
253,-2.6923829999996087,118.7177729999994,110.76904300000024,96.79492200000004,121.53857400000015,115.51269500000035,112.56396500000028,116.2822270000006,103.20507799999996,120.64111300000059,97.43603499999972,106.53857400000015,105.64111300000059,-58.33325200000036
254,6.025878999999804,120.51269500000035,114.35888699999941,102.69238299999961,119.48730499999965,113.58984400000008,117.05126999999993,118.58984400000008,111.41015599999992,133.9741210000002,106.0258789999998,110.51269500000035,111.6665039999998,-53.07690400000001
255,8.205077999999958,117.94873000000007,114.10253900000043,108.58984400000008,115.51269500000035,113.0771479999994,119.10253900000043,118.20507799999996,114.35888699999941,139.10253900000043,112.17968800000017,111.6665039999998,112.94873000000007,-50.64111300000013
256,0.0,110.76904300000024,107.43603499999972,109.35888699999941,109.87158199999976,114.10253900000043,113.7177729999994,112.30761700000039,107.17968800000017,127.43603499999972,108.84619099999964,108.46142599999985,106.41015599999992,-54.35888699999987
257,-14.102538999999979,101.41015599999992,97.69238299999961,104.10253900000043,103.7177729999994,115.51269500000035,102.17968800000017,102.30761700000039,92.30761700000039,102.56396500000028,96.53857400000015,102.69238299999961,94.74365200000011,-62.051270000000386
258,-25.25634799999989,94.48730499999965,91.0258789999998,97.05126999999993,99.87158199999976,116.53857400000015,91.79492200000004,93.20507799999996,78.0771479999994,78.7177729999994,82.69238299999961,98.0771479999994,84.87158199999976,-67.94872999999961
259,-25.89746100000002,93.7177729999994,92.05126999999993,94.23095699999976,100.76904300000024,117.05126999999993,89.61523400000078,89.74365200000011,72.82031300000017,69.10253900000043,76.53857400000015,97.43603499999972,82.56396500000028,-67.05127000000039
260,-15.897461000000021,99.61523400000078,99.61523400000078,97.69238299999961,105.64111300000059,117.30761700000039,96.2822270000006,92.82031300000017,77.56396500000028,76.0258789999998,81.6665039999998,100.89746099999957,87.69238299999961,-59.48706099999981
261,-2.6923829999996087,108.7177729999994,107.94873000000007,104.10253900000043,110.0,117.30761700000039,106.2822270000006,99.23095699999976,85.25634799999989,90.89746099999957,92.94873000000007,105.12841800000024,95.76904300000024,-50.64111300000013
262,4.743652000000111,116.0258789999998,111.2822270000006,107.17968800000017,108.20507799999996,116.79492200000004,111.9228520000006,103.46142599999985,88.20507799999996,102.82031300000017,101.2822270000006,107.05126999999993,101.6665039999998,-46.28198199999997
263,2.6923829999996087,118.20507799999996,108.20507799999996,103.9741210000002,98.58984400000008,115.89746099999957,109.87158199999976,102.82031300000017,84.10253900000043,107.17968800000017,101.6665039999998,105.51269500000035,103.84619099999964,-47.564209000000574
264,-4.871825999999601,115.25634799999989,102.30761700000039,96.6665039999998,85.12841800000024,114.74365200000011,103.20507799999996,98.7177729999994,78.20507799999996,106.0258789999998,95.89746099999957,102.43603499999972,103.58984400000008,-51.28198199999997
265,-10.769286999999622,108.58984400000008,97.69238299999961,89.74365200000011,74.48730499999965,113.84619099999964,97.69238299999961,94.48730499999965,76.9228520000006,103.46142599999985,89.35888699999941,100.0,102.43603499999972,-53.20507799999996
266,-11.538574000000153,101.2822270000006,95.76904300000024,86.0258789999998,71.0258789999998,113.20507799999996,96.0258789999998,91.6665039999998,82.43603499999972,100.51269500000035,86.15380900000036,99.35888699999941,100.0,-52.564209000000574
267,-7.948729999999614,97.05126999999993,96.2822270000006,85.76904300000024,76.0258789999998,112.69238299999961,97.94873000000007,90.51269500000035,90.64111300000059,97.56396500000028,87.30761700000039,100.0,96.41015599999992,-50.1281740000004
268,-1.5385740000001533,99.74365200000011,99.23095699999976,90.0,88.0771479999994,112.17968800000017,102.17968800000017,92.82031300000017,97.05126999999993,96.79492200000004,93.58984400000008,101.6665039999998,95.12841800000024,-46.153809000000365
269,7.820313000000169,111.79492200000004,106.2822270000006,99.35888699999941,104.10253900000043,112.82031300000017,108.7177729999994,101.53857400000015,101.9228520000006,102.56396500000028,105.12841800000024,105.89746099999957,100.89746099999957,-39.35888699999987
270,19.48730499999965,130.2563479999999,117.56396500000028,112.43603499999972,118.7177729999994,115.38476599999922,117.43603499999972,116.6665039999998,108.84619099999964,115.25634799999989,119.87158199999976,113.3334960000002,114.87158199999976,-30.1281740000004
271,29.230956999999762,146.41015599999992,128.84619099999964,123.7177729999994,125.0,118.84619099999964,125.0,132.3076170000004,118.3334960000002,129.48730499999965,131.41015599999992,121.0258789999998,130.51269500000035,-22.179442999999992
272,31.153809000000365,151.2822270000006,133.84619099999964,126.6665039999998,118.46142599999985,120.51269500000035,127.05126999999993,140.0,125.51269500000035,136.79492200000004,133.58984400000008,124.48730499999965,137.94873000000007,-20.0
273,23.461425999999847,142.05126999999993,128.84619099999964,119.61523400000078,101.2822270000006,118.20507799999996,121.79492200000004,135.76904300000024,124.74365200000011,133.46142599999985,125.64111300000059,121.0258789999998,131.9228520000006,-25.0
274,10.769043000000238,125.12841800000024,116.79492200000004,106.9228520000006,80.89746099999957,112.17968800000017,112.05126999999993,123.20507799999996,115.12841800000024,123.20507799999996,112.43603499999972,112.30761700000039,116.2822270000006,-33.46142599999985
275,0.6411130000005869,110.12841800000024,105.0,96.15380900000036,66.2822270000006,105.51269500000035,103.7177729999994,110.25634799999989,101.0258789999998,113.0771479999994,100.89746099999957,103.58984400000008,100.51269500000035,-40.25634799999989
276,-2.3076170000003913,103.84619099999964,99.87158199999976,92.43603499999972,62.30761700000039,101.6665039999998,100.76904300000024,104.48730499999965,89.23095699999976,108.46142599999985,96.2822270000006,99.48730499999965,93.46142599999985,-42.30761700000039
277,1.4101559999999154,106.53857400000015,103.0771479999994,96.15380900000036,70.0,102.56396500000028,103.46142599999985,107.82031300000017,85.51269500000035,110.64111300000059,99.35888699999941,101.9228520000006,98.0771479999994,-39.61547900000005
278,7.56396500000028,113.58984400000008,110.64111300000059,103.0771479999994,85.51269500000035,108.3334960000002,108.0771479999994,116.6665039999998,91.9228520000006,116.6665039999998,107.56396500000028,108.0771479999994,110.0,-34.8718259999996
279,12.051269999999931,119.10253900000043,115.89746099999957,107.82031300000017,101.41015599999992,116.15380900000036,110.0,124.48730499999965,104.23095699999976,122.17968800000017,115.12841800000024,113.20507799999996,120.76904300000024,-31.153809000000365
280,12.56396500000028,119.74365200000011,114.87158199999976,107.17968800000017,109.48730499999965,121.0258789999998,107.56396500000028,126.15380900000036,113.46142599999985,124.74365200000011,116.79492200000004,112.94873000000007,123.3334960000002,-30.38452099999995
281,10.897460999999566,116.79492200000004,109.35888699999941,101.6665039999998,107.05126999999993,119.87158199999976,103.58984400000008,121.0258789999998,113.20507799999996,125.25634799999989,112.05126999999993,107.05126999999993,117.05126999999993,-31.153809000000365
282,10.769043000000238,114.23095699999976,105.25634799999989,96.2822270000006,99.87158199999976,113.9741210000002,102.56396500000028,113.0771479999994,103.9741210000002,126.41015599999992,105.64111300000059,100.0,107.69238299999961,-30.89746100000002
283,14.487304999999651,115.0,107.30761700000039,95.51269500000035,95.64111300000059,107.82031300000017,106.6665039999998,107.94873000000007,92.82031300000017,127.56396500000028,103.3334960000002,97.30761700000039,102.17968800000017,-27.69238299999961
284,20.0,117.69238299999961,114.10253900000043,99.35888699999941,97.05126999999993,105.38476599999922,113.46142599999985,107.82031300000017,86.53857400000015,125.0,106.0258789999998,100.76904300000024,102.17968800000017,-23.71801800000003
285,22.94873000000007,118.20507799999996,119.35888699999941,103.58984400000008,99.10253900000043,107.05126999999993,118.3334960000002,110.12841800000024,86.6665039999998,115.38476599999922,110.25634799999989,107.30761700000039,103.9741210000002,-22.69238299999961
286,21.282227000000603,115.51269500000035,118.9741210000002,104.35888699999941,95.0,110.0,118.3334960000002,110.64111300000059,90.89746099999957,101.6665039999998,111.79492200000004,112.30761700000039,103.46142599999985,-25.769286999999622
287,18.077147999999397,112.69238299999961,114.74365200000011,102.56396500000028,83.9741210000002,111.6665039999998,115.0,108.9741210000002,96.41015599999992,92.17968800000017,111.53857400000015,113.0771479999994,101.2822270000006,-29.487060999999812
288,19.230956999999762,114.74365200000011,112.69238299999961,102.69238299999961,73.0771479999994,111.53857400000015,112.94873000000007,108.58984400000008,103.20507799999996,94.87158199999976,113.84619099999964,111.0258789999998,102.05126999999993,-28.846190999999635
289,27.30761700000039,123.3334960000002,116.9228520000006,107.69238299999961,71.41015599999992,111.0258789999998,115.51269500000035,112.82031300000017,111.53857400000015,110.64111300000059,121.2822270000006,110.0,108.9741210000002,-22.435790999999426
290,37.82031300000017,134.61523400000078,125.0,114.61523400000078,82.17968800000017,111.79492200000004,120.25634799999989,120.12841800000024,119.23095699999976,130.2563479999999,130.6411130000006,111.6665039999998,119.87158199999976,-14.102538999999979
291,43.589844000000085,141.6665039999998,130.6411130000006,117.94873000000007,100.51269500000035,113.58984400000008,121.9228520000006,125.89746099999957,122.43603499999972,141.6665039999998,135.89746099999957,115.0,128.0771479999994,-9.8718259999996
292,41.025878999999804,140.6411130000006,129.48730499999965,114.61523400000078,117.17968800000017,115.64111300000059,118.46142599999985,126.15380900000036,119.48730499999965,138.20507799999996,133.3334960000002,117.17968800000017,129.48730499999965,-12.435790999999426
293,33.46142599999985,133.46142599999985,122.82031300000017,107.17968800000017,125.38476599999922,116.79492200000004,112.94873000000007,122.05126999999993,113.3334960000002,123.7177729999994,125.51269500000035,116.9228520000006,125.12841800000024,-19.358886999999868
294,27.05126999999993,125.64111300000059,116.53857400000015,101.15380900000036,123.46142599999985,116.79492200000004,110.51269500000035,117.56396500000028,109.61523400000078,108.84619099999964,118.20507799999996,115.0,119.61523400000078,-25.25634799999989
295,25.641113000000587,121.15380900000036,114.61523400000078,99.48730499999965,113.84619099999964,116.2822270000006,112.82031300000017,115.89746099999957,110.51269500000035,102.94873000000007,115.0,113.3334960000002,116.2822270000006,-26.923095999999987
296,27.30761700000039,119.35888699999941,116.15380900000036,100.12841800000024,100.38476599999922,115.38476599999922,116.79492200000004,116.53857400000015,113.20507799999996,107.17968800000017,114.74365200000011,112.43603499999972,115.12841800000024,-25.0
297,27.69238299999961,117.82031300000017,117.69238299999961,99.35888699999941,87.82031300000017,115.0,118.0771479999994,116.9228520000006,112.56396500000028,115.0,113.7177729999994,112.17968800000017,113.46142599999985,-22.435790999999426
298,25.25634799999989,115.64111300000059,116.9228520000006,96.0258789999998,81.79492200000004,115.38476599999922,115.25634799999989,115.51269500000035,107.17968800000017,119.48730499999965,110.25634799999989,112.69238299999961,110.0,-21.794922000000042
299,23.077147999999397,114.48730499999965,115.0,92.30761700000039,86.53857400000015,116.2822270000006,110.89746099999957,114.10253900000043,100.64111300000059,119.61523400000078,107.43603499999972,113.84619099999964,106.53857400000015,-22.948729999999614
300,24.615234000000783,116.41015599999992,114.35888699999941,91.6665039999998,100.38476599999922,116.9228520000006,109.74365200000011,115.25634799999989,98.9741210000002,120.0,110.38476599999922,115.12841800000024,106.53857400000015,-23.58984399999963
301,30.25634799999989,121.53857400000015,116.6665039999998,94.61523400000078,115.51269500000035,116.79492200000004,113.58984400000008,120.25634799999989,104.61523400000078,124.61523400000078,121.0258789999998,116.41015599999992,111.6665039999998,-22.179442999999992
302,36.025878999999804,126.9228520000006,120.12841800000024,98.58984400000008,122.17968800000017,116.79492200000004,120.25634799999989,127.43603499999972,114.10253900000043,131.79492200000004,134.3588869999994,117.43603499999972,118.84619099999964,-19.10253899999998
303,36.79492200000004,128.46142599999985,120.76904300000024,99.23095699999976,116.0258789999998,117.05126999999993,123.58984400000008,132.43603499999972,120.51269500000035,135.76904300000024,140.76904300000024,117.56396500000028,121.53857400000015,-16.794922000000042
304,30.384765999999217,123.9741210000002,116.15380900000036,94.35888699999941,100.76904300000024,116.9228520000006,119.10253900000043,130.89746099999957,118.46142599999985,132.43603499999972,134.3588869999994,116.41015599999992,115.89746099999957,-18.205077999999958
305,19.74365200000011,115.12841800000024,107.82031300000017,86.2822270000006,86.15380900000036,115.64111300000059,108.20507799999996,122.94873000000007,109.35888699999941,122.82031300000017,118.0771479999994,114.23095699999976,104.23095699999976,-22.820557000000008
306,11.153809000000365,106.9228520000006,100.89746099999957,80.25634799999989,79.61523400000078,114.10253900000043,97.94873000000007,113.46142599999985,100.25634799999989,112.17968800000017,102.05126999999993,112.56396500000028,94.23095699999976,-27.435790999999426
307,9.230956999999762,103.20507799999996,99.61523400000078,79.87158199999976,81.6665039999998,113.3334960000002,95.64111300000059,108.7177729999994,97.69238299999961,105.12841800000024,95.38476599999922,112.17968800000017,92.56396500000028,-28.974365000000034
308,13.077147999999397,103.0771479999994,102.94873000000007,83.7177729999994,86.15380900000036,113.9741210000002,102.30761700000039,110.64111300000059,102.56396500000028,102.94873000000007,99.23095699999976,112.82031300000017,98.58984400000008,-27.30761700000039
309,17.05126999999993,102.82031300000017,106.0258789999998,86.6665039999998,86.0258789999998,115.51269500000035,111.79492200000004,115.38476599999922,108.84619099999964,103.84619099999964,108.20507799999996,113.46142599999985,105.51269500000035,-24.8718259999996
310,16.538574000000153,100.0,105.38476599999922,85.12841800000024,79.61523400000078,116.9228520000006,116.53857400000015,118.0771479999994,110.76904300000024,105.64111300000059,115.38476599999922,113.0771479999994,106.9228520000006,-23.71801800000003
311,12.17968800000017,96.15380900000036,102.43603499999972,80.89746099999957,72.17968800000017,117.30761700000039,113.46142599999985,116.9228520000006,107.94873000000007,107.94873000000007,117.94873000000007,112.30761700000039,102.56396500000028,-23.076904000000013
312,8.333496000000196,95.89746099999957,101.2822270000006,78.84619099999964,71.15380900000036,117.43603499999972,107.30761700000039,113.9741210000002,105.38476599999922,111.15380900000036,117.17968800000017,112.30761700000039,97.69238299999961,-21.28198199999997
313,9.358886999999413,101.41015599999992,104.23095699999976,82.43603499999972,79.61523400000078,117.56396500000028,104.48730499999965,112.56396500000028,107.56396500000028,114.61523400000078,115.64111300000059,113.3334960000002,97.82031300000017,-17.564209000000574
314,15.512695000000349,110.89746099999957,110.12841800000024,90.51269500000035,92.94873000000007,118.0771479999994,107.43603499999972,113.7177729999994,113.0771479999994,116.0258789999998,115.38476599999922,115.12841800000024,103.7177729999994,-12.948729999999614
315,23.461425999999847,119.10253900000043,115.64111300000059,97.82031300000017,103.0771479999994,118.46142599999985,113.0771479999994,115.76904300000024,116.9228520000006,114.23095699999976,116.9228520000006,116.41015599999992,111.9228520000006,-9.102538999999979
316,29.74365200000011,122.43603499999972,118.46142599999985,100.89746099999957,106.41015599999992,118.20507799999996,116.6665039999998,117.43603499999972,115.38476599999922,110.89746099999957,120.76904300000024,117.17968800000017,117.82031300000017,-7.051270000000386
317,32.17968800000017,121.15380900000036,118.20507799999996,99.87158199999976,105.38476599999922,117.05126999999993,116.6665039999998,118.46142599999985,108.9741210000002,109.35888699999941,126.0258789999998,117.43603499999972,118.7177729999994,-6.41015600000037
318,30.769043000000238,118.20507799999996,116.2822270000006,97.82031300000017,105.0,115.38476599999922,114.74365200000011,118.7177729999994,101.53857400000015,111.0258789999998,129.7436520000001,117.30761700000039,114.87158199999976,-6.538574000000153
319,26.538574000000153,116.0258789999998,114.10253900000043,97.82031300000017,107.56396500000028,114.35888699999941,112.82031300000017,117.56396500000028,96.0258789999998,113.46142599999985,128.58984400000008,116.6665039999998,108.7177729999994,-7.435790999999426
320,22.30761700000039,115.89746099999957,112.05126999999993,101.0258789999998,111.6665039999998,114.61523400000078,111.79492200000004,114.35888699999941,94.23095699999976,112.69238299999961,122.56396500000028,115.51269500000035,104.23095699999976,-8.461425999999847
321,21.282227000000603,117.56396500000028,110.76904300000024,107.43603499999972,114.74365200000011,116.6665039999998,111.79492200000004,110.64111300000059,96.41015599999992,107.94873000000007,116.2822270000006,114.61523400000078,104.87158199999976,-8.846190999999635
322,25.51269500000035,120.12841800000024,110.51269500000035,115.12841800000024,115.38476599999922,119.61523400000078,112.17968800000017,109.23095699999976,102.17968800000017,103.58984400000008,115.38476599999922,114.74365200000011,111.15380900000036,-7.820557000000008
323,32.94873000000007,122.05126999999993,110.76904300000024,120.76904300000024,113.20507799999996,121.53857400000015,111.9228520000006,110.76904300000024,108.3334960000002,104.35888699999941,120.89746099999957,115.38476599999922,119.48730499999965,-6.025634999999966
324,37.30761700000039,121.41015599999992,109.10253900000043,120.64111300000059,107.82031300000017,121.0258789999998,109.87158199999976,112.82031300000017,109.61523400000078,110.0,127.94873000000007,115.25634799999989,124.10253900000043,-5.512939000000188
325,33.974121000000196,118.20507799999996,103.84619099999964,115.12841800000024,100.25634799999989,117.82031300000017,105.76904300000024,111.53857400000015,102.94873000000007,115.0,129.87158199999976,113.3334960000002,121.9228520000006,-7.564209000000574
326,25.25634799999989,115.25634799999989,97.43603499999972,108.9741210000002,95.89746099999957,113.84619099999964,101.6665039999998,106.2822270000006,91.6665039999998,115.0,125.51269500000035,110.38476599999922,115.76904300000024,-10.512939000000188
327,19.615234000000783,116.6665039999998,95.0,108.46142599999985,100.38476599999922,112.05126999999993,100.12841800000024,101.41015599999992,85.76904300000024,112.30761700000039,120.25634799999989,108.20507799999996,112.30761700000039,-10.38452099999995
328,24.871581999999762,124.35888699999941,100.25634799999989,116.0258789999998,114.61523400000078,113.7177729999994,103.20507799999996,102.69238299999961,93.3334960000002,113.9741210000002,122.17968800000017,108.84619099999964,116.79492200000004,-4.871825999999601
329,40.0,134.87158199999976,111.9228520000006,127.56396500000028,131.41015599999992,117.30761700000039,110.0,111.9228520000006,113.3334960000002,124.23095699999976,133.0771479999994,113.20507799999996,128.3334960000002,4.102539000000434
330,55.51269500000035,142.05126999999993,122.56396500000028,135.89746099999957,140.89746099999957,120.25634799999989,117.82031300000017,124.87158199999976,134.3588869999994,138.9741210000002,146.41015599999992,119.35888699999941,139.87158199999976,10.897460999999566
331,59.35888699999941,140.51269500000035,123.9741210000002,135.38476599999922,137.82031300000017,120.25634799999989,122.17968800000017,132.94873000000007,142.82031300000017,147.43603499999972,151.15380900000036,123.46142599999985,142.43603499999972,10.0
332,46.666503999999804,130.12841800000024,112.56396500000028,126.0258789999998,124.10253900000043,117.17968800000017,119.61523400000078,130.12841800000024,133.0771479999994,140.89746099999957,141.15380900000036,121.79492200000004,132.56396500000028,0.512695000000349
333,23.717772999999397,116.6665039999998,93.46142599999985,113.3334960000002,106.9228520000006,113.0771479999994,110.76904300000024,117.30761700000039,112.56396500000028,120.89746099999957,120.25634799999989,114.48730499999965,114.61523400000078,-12.820557000000008
334,4.871581999999762,108.46142599999985,77.69238299999961,105.89746099999957,93.58984400000008,110.64111300000059,101.0258789999998,103.20507799999996,95.25634799999989,99.74365200000011,101.15380900000036,105.76904300000024,99.61523400000078,-21.666747999999643
335,1.2822270000006029,110.12841800000024,74.23095699999976,108.0771479999994,88.7177729999994,111.0258789999998,96.41015599999992,97.69238299999961,91.2822270000006,91.53857400000015,95.51269500000035,100.51269500000035,96.0258789999998,-20.89746100000002
336,12.56396500000028,118.20507799999996,83.58984400000008,117.82031300000017,91.79492200000004,113.20507799999996,99.48730499999965,103.58984400000008,98.46142599999985,99.87158199999976,105.0,100.89746099999957,103.20507799999996,-12.692382999999609
337,27.69238299999961,124.48730499999965,96.79492200000004,128.3334960000002,97.56396500000028,114.74365200000011,106.6665039999998,114.35888699999941,106.0258789999998,114.87158199999976,120.0,104.87158199999976,112.17968800000017,-4.61547900000005
338,34.35888699999941,123.0771479999994,103.58984400000008,135.2563479999999,101.15380900000036,114.23095699999976,111.6665039999998,120.38476599999922,104.87158199999976,122.43603499999972,128.9741210000002,108.7177729999994,114.35888699999941,-3.2050779999999577
339,30.641113000000587,116.41015599999992,101.2822270000006,140.6411130000006,101.79492200000004,112.69238299999961,111.9228520000006,118.46142599999985,96.53857400000015,116.79492200000004,127.82031300000017,110.25634799999989,110.0,-7.820557000000008
340,24.74365200000011,112.69238299999961,96.15380900000036,150.2563479999999,103.20507799999996,112.05126999999993,111.0258789999998,114.10253900000043,91.53857400000015,105.38476599999922,122.82031300000017,110.38476599999922,107.30761700000039,-11.153809000000365
341,26.025878999999804,117.82031300000017,96.2822270000006,165.51269500000035,108.0771479999994,113.58984400000008,113.46142599999985,114.35888699999941,97.82031300000017,100.38476599999922,121.41015599999992,111.6665039999998,112.94873000000007,-7.564209000000574
342,35.51269500000035,128.3334960000002,103.3334960000002,180.38476599999922,114.23095699999976,116.53857400000015,118.9741210000002,119.23095699999976,112.56396500000028,107.69238299999961,124.87158199999976,114.61523400000078,124.48730499999965,1.0258789999998044
343,45.38476599999922,134.48730499999965,110.51269500000035,185.51269500000035,118.0771479999994,118.3334960000002,122.17968800000017,121.53857400000015,124.74365200000011,121.6665039999998,128.0771479999994,117.43603499999972,132.3076170000004,7.307617000000391
344,46.9228520000006,129.7436520000001,110.38476599999922,177.56396500000028,118.20507799999996,117.30761700000039,118.7177729999994,115.89746099999957,124.61523400000078,130.76904300000024,125.38476599999922,117.56396500000028,129.10253900000043,5.769043000000238
345,38.974121000000196,117.43603499999972,102.82031300000017,163.7177729999994,117.43603499999972,113.9741210000002,110.38476599999922,104.48730499999965,112.94873000000007,127.05126999999993,116.79492200000004,114.87158199999976,117.05126999999993,-1.9228520000006029
346,29.48730499999965,108.58984400000008,94.35888699999941,156.15380900000036,118.3334960000002,111.79492200000004,103.7177729999994,96.2822270000006,99.74365200000011,113.84619099999964,108.20507799999996,112.30761700000039,105.89746099999957,-8.461425999999847
347,27.05126999999993,111.53857400000015,92.17968800000017,161.6665039999998,118.9741210000002,112.56396500000028,104.23095699999976,98.20507799999996,94.87158199999976,102.05126999999993,106.2822270000006,112.30761700000039,103.7177729999994,-8.333252000000357
348,33.20507799999996,123.7177729999994,96.2822270000006,175.76904300000024,113.7177729999994,115.51269500000035,111.2822270000006,108.20507799999996,99.48730499999965,98.84619099999964,112.30761700000039,114.48730499999965,110.38476599999922,-2.0512699999999313
349,41.666503999999804,134.10253900000043,101.0258789999998,187.05126999999993,100.51269500000035,116.9228520000006,118.9741210000002,116.15380900000036,105.51269500000035,101.53857400000015,121.0258789999998,115.51269500000035,117.56396500000028,4.871581999999762
350,45.25634799999989,133.7177729999994,100.51269500000035,187.3076170000004,85.51269500000035,114.87158199999976,120.89746099999957,113.7177729999994,105.0,102.69238299999961,124.87158199999976,113.20507799999996,117.43603499999972,7.307617000000391
351,42.94873000000007,123.58984400000008,95.25634799999989,178.58984400000008,79.87158199999976,110.25634799999989,115.25634799999989,102.30761700000039,98.0771479999994,99.87158199999976,121.41015599999992,108.20507799999996,110.12841800000024,5.256347999999889
352,39.35888699999941,113.3334960000002,90.38476599999922,170.6411130000006,90.64111300000059,106.53857400000015,105.89746099999957,90.64111300000059,92.17968800000017,98.20507799999996,114.87158199999976,104.74365200000011,103.58984400000008,2.6923829999996087
353,40.12841800000024,111.79492200000004,91.2822270000006,171.79492200000004,113.3334960000002,106.6665039999998,98.9741210000002,87.30761700000039,92.69238299999961,103.46142599999985,112.30761700000039,106.2822270000006,105.25634799999989,3.4614259999998467
354,45.64111300000059,119.61523400000078,97.56396500000028,180.6411130000006,133.0771479999994,110.76904300000024,98.20507799999996,92.94873000000007,97.43603499999972,113.58984400000008,117.56396500000028,112.17968800000017,114.10253900000043,7.179688000000169
355,51.53857400000015,128.9741210000002,103.58984400000008,187.6923829999996,135.0,116.15380900000036,101.2822270000006,100.12841800000024,98.7177729999994,119.61523400000078,126.41015599999992,117.56396500000028,121.41015599999992,9.230956999999762
356,51.9228520000006,130.76904300000024,102.82031300000017,183.7177729999994,115.76904300000024,119.10253900000043,103.0771479999994,100.38476599999922,91.2822270000006,113.9741210000002,130.2563479999999,116.9228520000006,118.46142599999985,5.769043000000238
357,45.38476599999922,122.82031300000017,93.9741210000002,169.48730499999965,87.17968800000017,118.46142599999985,100.64111300000059,92.17968800000017,78.3334960000002,97.82031300000017,123.46142599999985,109.61523400000078,104.74365200000011,-2.6923829999996087
358,36.410155999999915,112.05126999999993,83.3334960000002,156.15380900000036,68.46142599999985,115.89746099999957,96.15380900000036,82.82031300000017,69.87158199999976,82.05126999999993,109.23095699999976,100.64111300000059,89.35888699999941,-10.0
359,31.922852000000603,107.56396500000028,79.87158199999976,154.87158199999976,71.6665039999998,114.23095699999976,95.25634799999989,81.9228520000006,74.35888699999941,78.3334960000002,96.9228520000006,96.9228520000006,83.58984400000008,-9.61547900000005
360,34.87158199999976,112.82031300000017,87.05126999999993,167.6923829999996,92.82031300000017,114.61523400000078,101.15380900000036,91.6665039999998,90.51269500000035,89.35888699999941,93.20507799999996,101.0258789999998,90.64111300000059,-1.153809000000365
361,42.17968800000017,123.20507799999996,99.35888699999941,185.0,116.53857400000015,115.76904300000024,110.51269500000035,104.74365200000011,107.82031300000017,105.76904300000024,96.6665039999998,109.35888699999941,102.94873000000007,8.717772999999397
362,47.94873000000007,131.0258789999998,106.9228520000006,195.2563479999999,128.0771479999994,115.89746099999957,116.9228520000006,110.76904300000024,114.61523400000078,114.10253900000043,100.89746099999957,115.64111300000059,109.23095699999976,12.17968800000017
363,48.589844000000085,132.05126999999993,105.25634799999989,193.84619099999964,124.74365200000011,114.35888699999941,116.9228520000006,106.6665039999998,106.9228520000006,108.20507799999996,101.79492200000004,115.76904300000024,104.48730499999965,7.179688000000169
364,46.666503999999804,129.10253900000043,98.46142599999985,186.15380900000036,114.74365200000011,112.94873000000007,113.46142599999985,98.9741210000002,92.43603499999972,95.12841800000024,100.76904300000024,111.0258789999998,94.23095699999976,-0.12841800000023795
365,47.56396500000028,128.20507799999996,95.51269500000035,181.15380900000036,108.7177729999994,113.46142599999985,112.43603499999972,98.20507799999996,83.84619099999964,88.84619099999964,103.3334960000002,106.9228520000006,89.35888699999941,-1.5385740000001533
366,54.102539000000434,131.41015599999992,101.41015599999992,183.84619099999964,112.30761700000039,115.38476599999922,118.20507799999996,109.10253900000043,89.10253900000043,97.69238299999961,113.3334960000002,108.3334960000002,96.53857400000015,6.282227000000603
367,62.82031300000017,135.2563479999999,112.94873000000007,191.6665039999998,121.15380900000036,116.0258789999998,128.3334960000002,125.89746099999957,105.25634799999989,116.15380900000036,128.0771479999994,114.74365200000011,112.56396500000028,18.717772999999397
368,66.0258789999998,132.6923829999996,121.0258789999998,196.41015599999992,124.48730499999965,113.20507799999996,135.0,136.79492200000004,120.25634799999989,128.0771479999994,138.58984400000008,120.76904300000024,126.41015599999992,26.538574000000153
369,57.94873000000007,120.38476599999922,117.82031300000017,191.15380900000036,113.46142599999985,107.43603499999972,130.89746099999957,132.3076170000004,121.53857400000015,120.76904300000024,135.2563479999999,120.76904300000024,127.56396500000028,22.69238299999961
370,40.38476599999922,102.69238299999961,102.56396500000028,175.76904300000024,90.12841800000024,102.05126999999993,115.12841800000024,113.0771479999994,105.89746099999957,96.6665039999998,116.9228520000006,113.58984400000008,114.61523400000078,8.333496000000196
371,22.56396500000028,88.7177729999994,83.7177729999994,158.0771479999994,68.3334960000002,100.89746099999957,95.51269500000035,90.38476599999922,81.53857400000015,71.2822270000006,94.74365200000011,103.46142599999985,96.41015599999992,-7.307617000000391
372,14.743652000000111,86.53857400000015,73.20507799999996,148.46142599999985,64.48730499999965,105.64111300000059,83.3334960000002,77.82031300000017,62.94873000000007,60.897460999999566,83.84619099999964,97.05126999999993,85.76904300000024,-13.333252000000357
373,21.666503999999804,97.43603499999972,77.43603499999972,152.43603499999972,84.48730499999965,113.46142599999985,85.12841800000024,82.43603499999972,60.897460999999566,70.38476599999922,92.69238299999961,98.46142599999985,90.0,-5.38452099999995
374,38.846190999999635,114.87158199999976,93.20507799999996,166.79492200000004,118.46142599999985,118.9741210000002,98.58984400000008,100.51269500000035,76.6665039999998,92.82031300000017,116.0258789999998,106.53857400000015,106.6665039999998,11.025878999999804
375,56.153809000000365,129.3588869999994,109.35888699999941,182.3076170000004,146.79492200000004,118.46142599999985,113.9741210000002,120.25634799999989,102.05126999999993,116.2822270000006,138.9741210000002,116.15380900000036,125.89746099999957,25.25634799999989
376,64.23095699999976,135.2563479999999,116.0258789999998,190.89746099999957,154.87158199999976,112.82031300000017,122.43603499999972,130.38476599999922,123.9741210000002,131.53857400000015,147.6923829999996,121.6665039999998,137.43603499999972,29.48730499999965
377,61.025878999999804,133.58984400000008,111.9228520000006,191.15380900000036,142.3076170000004,106.2822270000006,121.15380900000036,127.56396500000028,132.6923829999996,136.0258789999998,138.7177729999994,121.0258789999998,136.9228520000006,24.230956999999762
378,52.82031300000017,129.7436520000001,103.7177729999994,187.56396500000028,122.17968800000017,102.82031300000017,114.23095699999976,117.94873000000007,127.82031300000017,133.20507799999996,120.64111300000059,116.53857400000015,127.94873000000007,16.666503999999804
379,47.94873000000007,128.7177729999994,99.87158199999976,186.15380900000036,109.61523400000078,103.58984400000008,108.0771479999994,111.2822270000006,117.30761700000039,128.9741210000002,106.53857400000015,112.56396500000028,118.0771479999994,13.717772999999397
380,49.48730499999965,130.38476599999922,103.3334960000002,189.10253900000043,110.0,106.79492200000004,107.69238299999961,112.69238299999961,110.12841800000024,126.2822270000006,104.61523400000078,112.30761700000039,113.0771479999994,16.153809000000365
381,54.23095699999976,131.0258789999998,110.25634799999989,194.10253900000043,116.2822270000006,109.35888699999941,112.69238299999961,119.10253900000043,110.12841800000024,124.48730499999965,112.94873000000007,115.38476599999922,113.0771479999994,19.615234000000783
382,56.9228520000006,127.05126999999993,114.61523400000078,196.53857400000015,117.17968800000017,110.12841800000024,118.84619099999964,123.0771479999994,115.0,121.41015599999992,122.17968800000017,118.3334960000002,115.12841800000024,19.230956999999762
383,54.87158199999976,119.35888699999941,112.69238299999961,193.3334960000002,107.82031300000017,109.87158199999976,121.41015599999992,120.25634799999989,118.84619099999964,117.05126999999993,124.35888699999941,118.0771479999994,116.41015599999992,14.743652000000111
