,EEG.AF3,EEG.F7,EEG.F3,EEG.FC5,EEG.T7,EEG.P7,EEG.O1,EEG.O2,EEG.P8,EEG.T8,EEG.FC6,EEG.F4,EEG.F8,EEG.AF4
0,111.6665039999998,86.6665039999998,91.2822270000006,255.51269500000035,111.79492200000004,117.30761700000039,133.7177729999994,91.9228520000006,87.05126999999993,92.69238299999961,106.9228520000006,99.87158199999976,87.82031300000017,89.61523400000078
1,99.61523400000078,77.94873000000007,80.64111300000059,246.9228520000006,96.53857400000015,114.23095699999976,124.35888699999941,78.20507799999996,78.84619099999964,85.0,94.23095699999976,95.64111300000059,72.43603499999972,79.23095699999976
2,97.56396500000028,77.82031300000017,79.23095699999976,246.15380900000036,85.25634799999989,112.30761700000039,125.25634799999989,77.43603499999972,80.89746099999957,83.9741210000002,89.35888699999941,96.2822270000006,66.41015599999992,75.89746099999957
3,104.23095699999976,84.35888699999941,85.38476599999922,252.43603499999972,84.23095699999976,112.94873000000007,133.3334960000002,87.56396500000028,88.20507799999996,90.38476599999922,92.69238299999961,100.0,71.0258789999998,80.25634799999989
4,113.0771479999994,91.6665039999998,93.46142599999985,259.7436520000001,91.15380900000036,115.38476599999922,142.43603499999972,99.87158199999976,94.23095699999976,99.35888699999941,99.61523400000078,103.3334960000002,81.41015599999992,87.69238299999961
5,118.0771479999994,94.74365200000011,98.46142599999985,262.94873000000007,98.20507799999996,117.56396500000028,148.84619099999964,106.53857400000015,96.0258789999998,103.58984400000008,105.25634799999989,104.48730499999965,90.89746099999957,92.94873000000007
6,118.20507799999996,93.0771479999994,100.12841800000024,261.6665039999998,99.35888699999941,117.82031300000017,151.9228520000006,106.79492200000004,95.76904300000024,99.74365200000011,107.69238299999961,104.23095699999976,95.0,94.48730499999965
7,117.17968800000017,89.87158199999976,100.51269500000035,259.3588869999994,96.15380900000036,116.41015599999992,152.43603499999972,104.10253900000043,96.6665039999998,91.41015599999992,107.30761700000039,103.3334960000002,93.3334960000002,94.61523400000078
8,118.84619099999964,88.7177729999994,101.15380900000036,258.7177729999994,95.25634799999989,114.87158199999976,150.2563479999999,101.2822270000006,99.87158199999976,86.15380900000036,105.76904300000024,102.69238299999961,88.7177729999994,95.89746099999957
9,122.43603499999972,90.51269500000035,100.89746099999957,258.9741210000002,100.89746099999957,114.48730499999965,144.7436520000001,99.23095699999976,102.69238299999961,87.94873000000007,103.46142599999985,102.30761700000039,84.61523400000078,97.82031300000017
10,124.35888699999941,93.46142599999985,98.20507799999996,257.4360349999997,111.15380900000036,114.87158199999976,137.43603499999972,97.82031300000017,102.30761700000039,94.61523400000078,101.2822270000006,102.05126999999993,83.9741210000002,98.3334960000002
11,124.74365200000011,95.76904300000024,94.48730499999965,254.10253900000043,119.23095699999976,115.25634799999989,131.2822270000006,98.3334960000002,98.9741210000002,99.74365200000011,101.79492200000004,102.43603499999972,87.94873000000007,98.0771479999994
12,128.20507799999996,97.82031300000017,94.23095699999976,252.6923829999996,119.48730499999965,114.61523400000078,130.0,102.69238299999961,95.51269500000035,99.61523400000078,107.82031300000017,104.35888699999941,96.0258789999998,100.64111300000059
13,138.46142599999985,100.25634799999989,100.25634799999989,256.4101559999999,111.41015599999992,113.46142599999985,133.58984400000008,110.51269500000035,94.74365200000011,95.76904300000024,118.7177729999994,107.69238299999961,105.0,108.58984400000008
14,152.82031300000017,101.9228520000006,110.0,263.7177729999994,98.7177729999994,112.82031300000017,138.58984400000008,116.79492200000004,96.6665039999998,93.9741210000002,128.7177729999994,110.51269500000035,110.0,119.87158199999976
15,165.0,101.41015599999992,117.30761700000039,269.6152340000008,87.82031300000017,113.0771479999994,140.51269500000035,115.64111300000059,99.10253900000043,98.9741210000002,131.9228520000006,111.0258789999998,108.9741210000002,130.76904300000024
16,171.79492200000004,98.7177729999994,118.20507799999996,270.51269500000035,83.7177729999994,114.35888699999941,137.94873000000007,106.0258789999998,100.64111300000059,110.51269500000035,127.94873000000007,109.74365200000011,104.35888699999941,139.87158199999976
17,174.23095699999976,95.0,113.58984400000008,267.17968800000017,85.89746099999957,115.51269500000035,132.56396500000028,93.20507799999996,101.15380900000036,121.6665039999998,121.6665039999998,108.3334960000002,100.76904300000024,148.46142599999985
18,173.7177729999994,90.12841800000024,106.9228520000006,262.05126999999993,88.3334960000002,115.64111300000059,127.30761700000039,83.7177729999994,101.15380900000036,123.58984400000008,117.30761700000039,107.82031300000017,100.38476599999922,155.38476599999922
19,167.17968800000017,83.46142599999985,100.38476599999922,257.4360349999997,85.64111300000059,114.35888699999941,123.7177729999994,80.76904300000024,99.48730499999965,112.05126999999993,114.74365200000011,107.56396500000028,100.38476599999922,157.17968800000017
20,151.79492200000004,76.79492200000004,95.51269500000035,255.76904300000024,81.0258789999998,113.0771479999994,122.69238299999961,83.9741210000002,96.53857400000015,93.20507799999996,111.6665039999998,105.38476599999922,97.56396500000028,152.3076170000004
21,129.61523400000078,76.0258789999998,93.84619099999964,261.2822270000006,84.10253900000043,113.84619099999964,125.89746099999957,92.30761700000039,95.25634799999989,79.61523400000078,108.20507799999996,102.05126999999993,92.69238299999961,146.6665039999998
22,109.61523400000078,85.25634799999989,96.9228520000006,275.89746099999957,99.74365200000011,117.05126999999993,133.84619099999964,104.35888699999941,99.74365200000011,80.38476599999922,107.82031300000017,100.25634799999989,89.74365200000011,151.41015599999992
23,102.43603499999972,100.89746099999957,104.10253900000043,296.4101559999999,121.15380900000036,120.64111300000059,143.9741210000002,116.9228520000006,109.35888699999941,94.23095699999976,113.0771479999994,102.94873000000007,91.9228520000006,175.89746099999957
24,114.48730499999965,113.84619099999964,111.9228520000006,314.87158199999976,135.89746099999957,121.79492200000004,150.89746099999957,124.74365200000011,117.82031300000017,111.15380900000036,121.9228520000006,109.35888699999941,97.94873000000007,220.6411130000006
25,142.56396500000028,116.2822270000006,117.17968800000017,325.2563479999999,136.41015599999992,119.87158199999976,150.6411130000006,124.23095699999976,119.35888699999941,122.56396500000028,130.2563479999999,116.0258789999998,104.35888699999941,275.6411130000006
26,175.0,108.20507799999996,118.58984400000008,328.0771479999994,125.76904300000024,116.79492200000004,145.12841800000024,117.69238299999961,114.87158199999976,127.17968800000017,134.23095699999976,118.9741210000002,107.43603499999972,326.15380900000036
27,196.41015599999992,96.41015599999992,116.2822270000006,328.9741210000002,113.0771479999994,115.0,140.2563479999999,111.53857400000015,111.6665039999998,130.0,133.7177729999994,116.6665039999998,106.2822270000006,359.87158199999976
28,196.79492200000004,87.43603499999972,111.2822270000006,333.0771479999994,105.12841800000024,115.12841800000024,140.76904300000024,111.6665039999998,115.12841800000024,132.6923829999996,129.87158199999976,110.89746099999957,101.0258789999998,371.6665039999998
29,177.56396500000028,82.94873000000007,104.48730499999965,339.48730499999965,101.6665039999998,115.51269500000035,145.38476599999922,116.79492200000004,121.9228520000006,131.2822270000006,122.94873000000007,104.87158199999976,92.05126999999993,365.51269500000035
30,152.3076170000004,80.12841800000024,96.6665039999998,343.46142599999985,97.43603499999972,114.61523400000078,147.82031300000017,119.74365200000011,121.9228520000006,121.0258789999998,112.94873000000007,100.76904300000024,81.2822270000006,354.10253900000043
31,139.48730499999965,75.25634799999989,90.0,341.15380900000036,90.38476599999922,112.30761700000039,142.94873000000007,113.46142599999985,109.23095699999976,103.7177729999994,102.30761700000039,98.9741210000002,71.41015599999992,356.9228520000006
32,151.53857400000015,68.7177729999994,87.69238299999961,335.0,85.0,110.38476599999922,132.6923829999996,99.74365200000011,90.0,88.20507799999996,96.0258789999998,99.48730499999965,65.51269500000035,392.4360349999997
33,187.43603499999972,64.23095699999976,92.56396500000028,333.3334960000002,89.87158199999976,110.89746099999957,125.64111300000059,89.61523400000078,79.48730499999965,84.35888699999941,97.82031300000017,102.94873000000007,65.76904300000024,466.2822270000006
34,234.7436520000001,66.9228520000006,103.9741210000002,343.5898440000001,108.9741210000002,114.23095699999976,129.10253900000043,93.3334960000002,88.9741210000002,94.87158199999976,107.82031300000017,109.74365200000011,72.17968800000017,565.1284180000002
35,277.5639650000003,77.30761700000039,116.6665039999998,365.76904300000024,135.2563479999999,118.20507799999996,141.6665039999998,110.12841800000024,114.61523400000078,112.82031300000017,121.79492200000004,117.94873000000007,82.05126999999993,662.4360349999997
36,305.51269500000035,90.51269500000035,123.20507799999996,391.4101559999999,154.3588869999994,120.12841800000024,152.82031300000017,127.17968800000017,139.61523400000078,126.2822270000006,133.20507799999996,123.58984400000008,90.38476599999922,730.7690430000002
37,316.79492200000004,97.69238299999961,119.61523400000078,408.7177729999994,155.38476599999922,118.9741210000002,151.79492200000004,130.0,147.56396500000028,128.46142599999985,136.6665039999998,123.58984400000008,93.0771479999994,756.6665039999998
38,317.94873000000007,92.69238299999961,108.3334960000002,411.4101559999999,139.3588869999994,115.89746099999957,138.0771479999994,115.0,135.6411130000006,121.0258789999998,130.6411130000006,118.20507799999996,89.87158199999976,746.1538090000004
39,317.82031300000017,77.30761700000039,96.2822270000006,403.84619099999964,119.23095699999976,113.46142599999985,121.79492200000004,93.20507799999996,115.89746099999957,111.15380900000036,118.9741210000002,111.41015599999992,83.84619099999964,718.4614259999998
40,321.2822270000006,60.25634799999989,89.87158199999976,396.79492200000004,109.35888699999941,113.46142599999985,115.12841800000024,80.76904300000024,103.0771479999994,103.46142599999985,107.69238299999961,107.05126999999993,77.82031300000017,692.8203130000002
41,326.9228520000006,51.025878999999804,89.74365200000011,398.20507799999996,113.58984400000008,115.51269500000035,121.41015599999992,84.87158199999976,101.9228520000006,97.82031300000017,101.15380900000036,106.53857400000015,71.9228520000006,676.1538090000004
42,332.17968800000017,53.46142599999985,91.9228520000006,407.94873000000007,123.3334960000002,117.82031300000017,133.20507799999996,97.82031300000017,105.38476599999922,92.56396500000028,98.9741210000002,108.3334960000002,64.61523400000078,666.5385740000002
43,340.0,64.74365200000011,93.46142599999985,420.12841800000024,127.56396500000028,118.7177729999994,139.87158199999976,106.2822270000006,103.7177729999994,88.20507799999996,99.23095699999976,110.51269500000035,56.79492200000004,661.6665039999998
44,356.79492200000004,78.84619099999964,96.0258789999998,429.48730499999965,123.58984400000008,117.69238299999961,137.56396500000028,102.94873000000007,95.38476599999922,87.82031300000017,101.15380900000036,112.30761700000039,52.05126999999993,663.9741210000002
45,381.2822270000006,89.74365200000011,101.53857400000015,433.84619099999964,117.94873000000007,115.89746099999957,130.0,92.30761700000039,87.30761700000039,92.56396500000028,105.12841800000024,114.10253900000043,54.102539000000434,674.1025390000004
46,400.3847659999992,92.43603499999972,108.20507799999996,432.5639650000003,117.43603499999972,114.87158199999976,123.58984400000008,82.56396500000028,87.17968800000017,98.58984400000008,109.23095699999976,115.0,62.05126999999993,683.4614259999998
47,397.6923829999996,85.76904300000024,109.35888699999941,425.2563479999999,122.05126999999993,115.0,120.0,78.0771479999994,94.61523400000078,99.10253900000043,108.58984400000008,113.58984400000008,69.35888699999941,678.8461909999996
48,371.0258789999998,73.46142599999985,101.53857400000015,413.9741210000002,126.41015599999992,116.0258789999998,118.0771479999994,77.05126999999993,102.05126999999993,90.89746099999957,100.76904300000024,108.84619099999964,70.0,655.3847659999992
49,338.20507799999996,63.846190999999635,90.51269500000035,404.48730499999965,126.9228520000006,116.9228520000006,117.69238299999961,78.46142599999985,103.84619099999964,80.0,90.51269500000035,103.58984400000008,64.74365200000011,625.0
50,325.0,65.25634799999989,88.20507799999996,403.84619099999964,126.79492200000004,118.0771479999994,122.56396500000028,85.64111300000059,103.58984400000008,79.48730499999965,89.48730499999965,102.94873000000007,62.17968800000017,608.7177729999994
51,343.0771479999994,79.87158199999976,102.17968800000017,413.5898440000001,132.17968800000017,119.61523400000078,135.6411130000006,102.43603499999972,110.64111300000059,98.7177729999994,105.89746099999957,110.25634799999989,71.53857400000015,618.3334960000002
52,379.48730499999965,99.74365200000011,126.53857400000015,427.05126999999993,144.7436520000001,121.2822270000006,153.0771479999994,125.12841800000024,128.7177729999994,132.05126999999993,134.61523400000078,122.94873000000007,91.79492200000004,644.1025390000004
53,405.2563479999999,111.9228520000006,145.12841800000024,433.46142599999985,158.46142599999985,121.41015599999992,164.87158199999976,142.17968800000017,148.46142599999985,160.51269500000035,158.0771479999994,132.94873000000007,111.2822270000006,661.794922
54,399.6152340000008,107.82031300000017,144.23095699999976,427.05126999999993,164.10253900000043,118.84619099999964,162.3076170000004,142.3076170000004,154.7436520000001,165.38476599999922,160.0,132.94873000000007,115.76904300000024,653.5898440000001
55,365.89746099999957,89.61523400000078,123.58984400000008,411.79492200000004,156.2822270000006,113.84619099999964,145.89746099999957,124.48730499999965,139.87158199999976,142.82031300000017,138.9741210000002,122.30761700000039,99.23095699999976,623.0771479999994
56,326.53857400000015,66.6665039999998,96.53857400000015,396.53857400000015,136.6665039999998,108.58984400000008,125.25634799999989,99.35888699999941,110.89746099999957,106.15380900000036,108.7177729999994,108.0771479999994,68.7177729999994,590.3847659999992
57,304.7436520000001,50.0,78.9741210000002,388.20507799999996,113.20507799999996,105.12841800000024,112.56396500000028,81.41015599999992,85.38476599999922,76.53857400000015,86.9228520000006,99.10253900000043,40.76904300000024,574.7436520000001
58,308.0771479999994,47.30761700000039,78.20507799999996,387.6923829999996,97.82031300000017,104.61523400000078,113.3334960000002,78.20507799999996,78.3334960000002,68.7177729999994,84.23095699999976,99.87158199999976,30.384765999999217,580.6411130000006
59,327.17968800000017,60.12841800000024,90.38476599999922,391.2822270000006,99.48730499999965,107.30761700000039,124.23095699999976,87.69238299999961,92.43603499999972,82.94873000000007,98.84619099999964,108.0771479999994,41.79492200000004,598.5898440000001
60,346.53857400000015,82.69238299999961,106.53857400000015,395.76904300000024,118.7177729999994,112.17968800000017,136.41015599999992,101.9228520000006,117.30761700000039,106.9228520000006,120.76904300000024,117.43603499999972,66.53857400000015,614.6152340000008
61,355.6411130000006,103.84619099999964,118.9741210000002,399.48730499999965,145.76904300000024,116.9228520000006,142.43603499999972,113.58984400000008,137.05126999999993,126.6665039999998,137.82031300000017,122.56396500000028,89.61523400000078,620.1284180000002
62,353.0771479999994,112.05126999999993,123.58984400000008,401.2822270000006,165.0,118.84619099999964,141.15380900000036,118.58984400000008,140.2563479999999,134.3588869999994,142.3076170000004,122.05126999999993,99.10253900000043,613.7177729999994
63,342.94873000000007,103.46142599999985,120.64111300000059,399.23095699999976,166.0258789999998,116.6665039999998,136.2822270000006,116.41015599999992,127.05126999999993,130.89746099999957,134.61523400000078,117.56396500000028,92.56396500000028,599.4873049999997
64,330.0,84.48730499999965,112.94873000000007,392.6923829999996,151.41015599999992,111.79492200000004,132.05126999999993,109.61523400000078,108.0771479999994,122.43603499999972,121.2822270000006,112.56396500000028,77.82031300000017,583.3334960000002
65,318.3334960000002,68.9741210000002,105.0,384.3588869999994,135.76904300000024,107.43603499999972,130.38476599999922,103.0771479999994,96.9228520000006,115.76904300000024,110.12841800000024,109.87158199999976,66.53857400000015,570.3847659999992
66,311.4101559999999,68.3334960000002,101.2822270000006,379.87158199999976,133.7177729999994,106.6665039999998,131.79492200000004,101.0258789999998,101.0258789999998,114.23095699999976,106.15380900000036,110.38476599999922,66.41015599999992,564.1025390000004
67,310.89746099999957,81.53857400000015,103.46142599999985,381.6665039999998,146.0258789999998,109.87158199999976,135.89746099999957,104.61523400000078,116.41015599999992,116.2822270000006,108.7177729999994,112.43603499999972,74.74365200000011,564.7436520000001
68,312.3076170000004,94.74365200000011,107.69238299999961,384.3588869999994,156.9228520000006,114.61523400000078,139.87158199999976,110.0,129.7436520000001,116.0258789999998,112.82031300000017,113.46142599999985,81.0258789999998,566.6665039999998
69,306.2822270000006,92.05126999999993,107.30761700000039,377.6923829999996,147.3076170000004,117.30761700000039,140.0,110.51269500000035,128.58984400000008,108.3334960000002,111.6665039999998,111.15380900000036,75.25634799999989,561.2822270000006
70,288.0771479999994,70.89746099999957,99.48730499999965,357.94873000000007,114.61523400000078,116.15380900000036,134.3588869999994,102.94873000000007,112.30761700000039,95.12841800000024,103.0771479999994,106.53857400000015,58.7177729999994,545.7690430000002
71,266.6665039999998,47.56396500000028,89.87158199999976,334.87158199999976,79.61523400000078,113.0771479999994,127.05126999999993,92.56396500000028,93.9741210000002,86.6665039999998,93.84619099999964,103.58984400000008,44.48730499999965,528.4614259999998
72,259.48730499999965,44.61523400000078,89.23095699999976,325.51269500000035,72.05126999999993,111.79492200000004,125.51269500000035,90.64111300000059,90.76904300000024,93.46142599999985,94.23095699999976,106.15380900000036,47.43603499999972,523.4614259999998
73,275.2563479999999,70.38476599999922,102.17968800000017,337.5639650000003,103.3334960000002,114.87158199999976,133.7177729999994,103.58984400000008,108.58984400000008,115.25634799999989,108.20507799999996,113.7177729999994,70.12841800000024,536.4101559999999
74,302.17968800000017,109.10253900000043,120.38476599999922,359.48730499999965,154.23095699999976,120.76904300000024,147.3076170000004,125.38476599999922,135.51269500000035,138.20507799999996,127.05126999999993,121.2822270000006,97.82031300000017,555.5126950000003
75,314.87158199999976,131.53857400000015,127.94873000000007,367.94873000000007,187.43603499999972,124.23095699999976,155.38476599999922,139.7436520000001,150.89746099999957,144.48730499999965,134.48730499999965,122.94873000000007,108.58984400000008,560.3847659999992
76,296.9228520000006,118.46142599999985,115.12841800000024,348.46142599999985,178.0771479999994,121.41015599999992,149.3588869999994,133.58984400000008,141.2822270000006,126.79492200000004,120.38476599999922,116.15380900000036,91.2822270000006,540.1284180000002
77,255.2563479999999,77.56396500000028,88.7177729999994,308.9741210000002,135.12841800000024,112.30761700000039,131.2822270000006,109.35888699999941,112.82031300000017,96.2822270000006,91.53857400000015,104.35888699999941,56.2822270000006,505.0
78,215.51269500000035,37.94873000000007,67.56396500000028,274.87158199999976,93.0771479999994,102.43603499999972,113.7177729999994,84.48730499999965,86.2822270000006,74.87158199999976,67.69238299999961,95.25634799999989,28.333496000000196,477.5639650000003
79,200.2563479999999,25.51269500000035,66.41015599999992,267.4360349999997,80.89746099999957,98.3334960000002,109.10253900000043,77.82031300000017,80.0,76.79492200000004,65.0,94.35888699999941,26.282227000000603,473.3334960000002
80,210.0,42.82031300000017,83.20507799999996,285.76904300000024,98.0771479999994,101.79492200000004,118.7177729999994,91.9228520000006,94.87158199999976,96.0258789999998,82.05126999999993,100.51269500000035,48.0771479999994,488.0771479999994
81,226.2822270000006,69.74365200000011,101.79492200000004,309.48730499999965,119.48730499999965,109.35888699999941,132.3076170000004,112.05126999999993,115.38476599999922,113.46142599999985,102.56396500000028,106.6665039999998,74.23095699999976,503.5898440000001
82,230.38476599999922,84.35888699999941,106.41015599999992,316.9228520000006,122.43603499999972,115.76904300000024,137.94873000000007,119.35888699999941,123.84619099999964,114.35888699999941,110.76904300000024,107.05126999999993,84.35888699999941,503.46142599999985
83,219.10253900000043,80.38476599999922,96.15380900000036,303.20507799999996,107.05126999999993,117.94873000000007,132.82031300000017,109.10253900000043,115.0,100.51269500000035,105.0,102.30761700000039,74.48730499999965,486.79492200000004
84,204.61523400000078,69.23095699999976,83.7177729999994,282.17968800000017,94.87158199999976,116.41015599999992,124.61523400000078,92.94873000000007,98.84619099999964,87.30761700000039,96.6665039999998,98.58984400000008,58.333496000000196,466.53857400000015
85,201.41015599999992,67.05126999999993,83.46142599999985,273.20507799999996,105.89746099999957,114.23095699999976,123.3334960000002,88.20507799999996,90.12841800000024,89.61523400000078,98.3334960000002,101.15380900000036,54.48730499999965,457.82031300000017
86,213.46142599999985,80.25634799999989,98.7177729999994,284.3588869999994,138.84619099999964,113.7177729999994,133.20507799999996,101.53857400000015,96.6665039999998,109.10253900000043,112.30761700000039,110.12841800000024,70.12841800000024,465.89746099999957
87,230.89746099999957,100.89746099999957,119.48730499999965,305.76904300000024,171.41015599999992,115.25634799999989,148.84619099999964,123.9741210000002,113.3334960000002,133.0771479999994,130.0,120.0,96.2822270000006,480.51269500000035
88,239.23095699999976,114.48730499999965,131.15380900000036,319.10253900000043,179.87158199999976,117.43603499999972,159.48730499999965,139.10253900000043,127.43603499999972,144.10253900000043,138.46142599999985,124.23095699999976,115.89746099999957,480.89746099999957
89,230.6411130000006,112.30761700000039,125.38476599999922,312.94873000000007,158.46142599999985,118.46142599999985,156.9228520000006,135.89746099999957,128.58984400000008,133.3334960000002,131.41015599999992,120.25634799999989,118.3334960000002,448.46142599999985
90,210.6411130000006,97.30761700000039,106.53857400000015,290.89746099999957,122.69238299999961,117.82031300000017,142.05126999999993,116.41015599999992,116.15380900000036,107.17968800000017,114.10253900000043,110.89746099999957,105.64111300000059,379.10253900000043
91,192.17968800000017,79.48730499999965,86.41015599999992,265.3847659999992,93.84619099999964,116.0258789999998,122.94873000000007,93.0771479999994,97.94873000000007,81.53857400000015,97.43603499999972,102.30761700000039,88.46142599999985,285.76904300000024
92,184.23095699999976,66.9228520000006,74.35888699999941,245.6411130000006,82.69238299999961,113.84619099999964,107.69238299999961,77.82031300000017,82.56396500000028,67.94873000000007,88.3334960000002,98.20507799999996,76.2822270000006,190.89746099999957
93,187.43603499999972,61.53857400000015,71.41015599999992,232.56396500000028,85.64111300000059,111.9228520000006,99.87158199999976,74.48730499999965,74.87158199999976,66.53857400000015,85.38476599999922,98.3334960000002,72.30761700000039,114.35888699999941
94,198.20507799999996,62.30761700000039,73.3334960000002,221.9228520000006,93.9741210000002,111.41015599999992,98.9741210000002,79.10253900000043,75.0,70.89746099999957,83.9741210000002,99.61523400000078,75.12841800000024,65.25634799999989
95,216.2822270000006,68.58984400000008,77.30761700000039,211.6665039999998,103.58984400000008,112.94873000000007,103.58984400000008,86.53857400000015,81.9228520000006,76.9228520000006,85.25634799999989,100.0,82.94873000000007,40.25634799999989
96,245.6411130000006,81.15380900000036,83.84619099999964,202.6923829999996,114.61523400000078,116.15380900000036,113.58984400000008,94.35888699999941,93.7177729999994,86.9228520000006,94.10253900000043,100.25634799999989,94.61523400000078,28.589844000000085
97,287.4360349999997,98.3334960000002,93.9741210000002,196.9228520000006,126.2822270000006,119.48730499999965,127.82031300000017,102.94873000000007,106.79492200000004,103.84619099999964,113.0771479999994,102.56396500000028,108.46142599999985,19.230956999999762
98,335.6411130000006,115.12841800000024,105.76904300000024,193.84619099999964,134.48730499999965,121.0258789999998,143.0771479999994,112.43603499999972,116.79492200000004,124.61523400000078,135.38476599999922,107.69238299999961,120.64111300000059,6.153809000000365
99,377.82031300000017,125.12841800000024,114.23095699999976,191.15380900000036,134.61523400000078,119.74365200000011,153.0771479999994,120.51269500000035,119.48730499999965,138.0771479999994,149.10253900000043,113.58984400000008,126.15380900000036,-10.0
100,402.6923829999996,123.9741210000002,113.46142599999985,185.2563479999999,125.64111300000059,116.79492200000004,151.9228520000006,122.69238299999961,112.82031300000017,133.9741210000002,144.10253900000043,116.15380900000036,121.15380900000036,-24.8718259999996
101,406.0258789999998,112.17968800000017,100.76904300000024,172.43603499999972,110.89746099999957,113.84619099999964,138.3334960000002,115.12841800000024,98.20507799999996,111.15380900000036,120.25634799999989,112.69238299999961,106.15380900000036,-35.25634799999989
102,393.5898440000001,95.25634799999989,79.48730499999965,152.82031300000017,96.79492200000004,112.17968800000017,117.56396500000028,98.7177729999994,81.15380900000036,80.76904300000024,87.43603499999972,104.23095699999976,87.82031300000017,-39.74365200000011
103,377.6923829999996,81.6665039999998,59.48730499999965,131.6665039999998,89.61523400000078,112.30761700000039,99.87158199999976,81.15380900000036,70.76904300000024,59.61523400000078,61.410155999999915,95.89746099999957,76.15380900000036,-38.20507799999996
104,370.2563479999999,79.61523400000078,52.69238299999961,118.7177729999994,92.56396500000028,113.58984400000008,95.0,72.30761700000039,75.0,59.23095699999976,55.25634799999989,93.0771479999994,79.10253900000043,-29.358886999999868
105,375.2563479999999,91.41015599999992,64.23095699999976,120.12841800000024,103.3334960000002,115.38476599999922,106.0258789999998,77.69238299999961,93.46142599999985,78.84619099999964,71.53857400000015,97.56396500000028,96.6665039999998,-13.974365000000034
106,385.89746099999957,111.2822270000006,87.17968800000017,131.9228520000006,115.38476599999922,117.05126999999993,125.64111300000059,93.20507799999996,115.25634799999989,105.64111300000059,98.9741210000002,106.2822270000006,119.74365200000011,2.5639650000002803
107,388.84619099999964,127.56396500000028,106.79492200000004,141.53857400000015,121.15380900000036,117.56396500000028,141.0258789999998,107.94873000000007,125.64111300000059,122.82031300000017,119.87158199999976,113.3334960000002,134.3588869999994,10.641113000000587
108,373.9741210000002,130.12841800000024,110.12841800000024,137.82031300000017,116.41015599999992,116.53857400000015,141.79492200000004,111.41015599999992,116.79492200000004,119.87158199999976,121.53857400000015,113.9741210000002,131.2822270000006,3.9741210000001956
109,342.82031300000017,117.17968800000017,95.76904300000024,120.25634799999989,102.94873000000007,114.87158199999976,128.46142599999985,101.53857400000015,94.48730499999965,100.25634799999989,105.12841800000024,107.82031300000017,113.20507799999996,-15.256347999999889
110,307.82031300000017,97.30761700000039,74.35888699999941,99.23095699999976,88.3334960000002,113.20507799999996,111.0258789999998,85.64111300000059,73.0771479999994,78.0771479999994,83.9741210000002,99.23095699999976,92.56396500000028,-35.76928699999962
111,283.84619099999964,83.84619099999964,61.2822270000006,87.94873000000007,82.30761700000039,112.69238299999961,102.30761700000039,75.12841800000024,65.12841800000024,68.46142599999985,73.20507799999996,93.84619099999964,83.9741210000002,-45.1281740000004
112,278.84619099999964,85.51269500000035,65.51269500000035,93.84619099999964,90.25634799999989,113.58984400000008,108.20507799999996,78.0771479999994,72.69238299999961,76.0258789999998,78.9741210000002,95.38476599999922,93.58984400000008,-38.07690400000001
113,288.46142599999985,101.0258789999998,83.58984400000008,114.35888699999941,107.82031300000017,115.38476599999922,124.10253900000043,93.3334960000002,87.17968800000017,93.0771479999994,96.0258789999998,102.94873000000007,115.0,-20.0
114,299.6152340000008,119.23095699999976,102.43603499999972,137.82031300000017,122.05126999999993,117.30761700000039,138.46142599999985,110.64111300000059,97.17968800000017,106.79492200000004,112.17968800000017,112.17968800000017,133.9741210000002,-4.102538999999979
115,298.84619099999964,127.30761700000039,108.58984400000008,149.61523400000078,120.38476599999922,118.20507799999996,141.0258789999998,117.05126999999993,96.2822270000006,109.10253900000043,116.9228520000006,117.56396500000028,138.3334960000002,-1.153809000000365
116,281.4101559999999,119.74365200000011,97.82031300000017,142.56396500000028,100.89746099999957,117.43603499999972,130.12841800000024,107.05126999999993,87.05126999999993,101.0258789999998,107.82031300000017,116.41015599999992,126.53857400000015,-12.435790999999426
117,255.12841800000024,102.94873000000007,78.84619099999964,122.17968800000017,76.53857400000015,115.89746099999957,114.61523400000078,87.05126999999993,78.9741210000002,90.76904300000024,92.30761700000039,110.0,108.84619099999964,-28.71801800000003
118,234.3588869999994,90.12841800000024,66.41015599999992,103.20507799999996,65.76904300000024,115.0,106.6665039999998,71.0258789999998,81.0258789999998,86.9228520000006,81.41015599999992,103.20507799999996,98.7177729999994,-38.07690400000001
119,228.7177729999994,91.2822270000006,69.48730499999965,97.43603499999972,76.79492200000004,115.76904300000024,112.56396500000028,69.87158199999976,93.7177729999994,91.15380900000036,81.9228520000006,100.38476599999922,102.17968800000017,-35.0
120,234.87158199999976,104.74365200000011,84.48730499999965,105.38476599999922,99.48730499999965,116.9228520000006,127.05126999999993,82.17968800000017,108.84619099999964,98.3334960000002,91.0258789999998,101.6665039999998,113.46142599999985,-24.8718259999996
121,240.51269500000035,119.61523400000078,98.3334960000002,116.79492200000004,113.84619099999964,117.30761700000039,137.94873000000007,96.41015599999992,115.0,101.53857400000015,100.0,104.23095699999976,121.6665039999998,-17.179442999999992
122,236.41015599999992,126.0258789999998,100.89746099999957,120.51269500000035,108.46142599999985,116.2822270000006,136.79492200000004,102.05126999999993,107.94873000000007,98.58984400000008,102.30761700000039,105.12841800000024,120.64111300000059,-17.564209000000574
123,223.9741210000002,123.20507799999996,92.94873000000007,113.46142599999985,90.51269500000035,115.25634799999989,126.0258789999998,97.82031300000017,93.0771479999994,93.3334960000002,99.35888699999941,104.10253900000043,114.35888699999941,-23.205077999999958
124,212.56396500000028,118.46142599999985,83.84619099999964,102.05126999999993,77.82031300000017,115.64111300000059,115.89746099999957,91.79492200000004,81.53857400000015,90.64111300000059,97.17968800000017,102.94873000000007,110.64111300000059,-27.30761700000039
125,208.0771479999994,117.05126999999993,81.41015599999992,94.35888699999941,81.41015599999992,117.30761700000039,114.61523400000078,91.79492200000004,80.64111300000059,91.2822270000006,98.84619099999964,103.0771479999994,113.0771479999994,-26.538574000000153
126,207.3076170000004,117.94873000000007,84.74365200000011,93.7177729999994,94.87158199999976,117.94873000000007,120.51269500000035,97.30761700000039,87.82031300000017,91.0258789999998,101.41015599999992,103.9741210000002,117.17968800000017,-23.974365000000034
127,201.53857400000015,115.51269500000035,87.17968800000017,97.43603499999972,101.79492200000004,116.0258789999998,125.0,100.89746099999957,93.84619099999964,85.25634799999989,98.58984400000008,103.7177729999994,115.51269500000035,-25.1281740000004
128,187.05126999999993,106.53857400000015,83.7177729999994,101.79492200000004,92.05126999999993,112.17968800000017,121.6665039999998,95.89746099999957,91.15380900000036,73.9741210000002,88.84619099999964,101.79492200000004,105.89746099999957,-31.153809000000365
129,169.48730499999965,95.0,76.15380900000036,105.12841800000024,70.38476599999922,108.46142599999985,112.05126999999993,83.58984400000008,79.87158199999976,64.48730499999965,77.43603499999972,99.74365200000011,94.87158199999976,-37.948729999999614
130,159.23095699999976,87.69238299999961,70.64111300000059,108.84619099999964,52.17968800000017,107.05126999999993,103.84619099999964,72.30761700000039,68.20507799999996,65.51269500000035,72.82031300000017,99.48730499999965,92.05126999999993,-38.974365000000034
131,161.79492200000004,88.84619099999964,72.30761700000039,116.15380900000036,49.23095699999976,108.7177729999994,103.7177729999994,70.76904300000024,65.38476599999922,80.25634799999989,80.38476599999922,102.05126999999993,103.20507799999996,-30.89746100000002
132,173.20507799999996,95.89746099999957,81.15380900000036,128.58984400000008,61.410155999999915,112.69238299999961,112.05126999999993,81.2822270000006,75.51269500000035,101.9228520000006,98.0771479999994,106.0258789999998,125.51269500000035,-17.30761700000039
133,182.94873000000007,101.53857400000015,91.9228520000006,143.20507799999996,78.20507799999996,116.15380900000036,122.94873000000007,97.17968800000017,93.7177729999994,117.82031300000017,116.6665039999998,108.9741210000002,148.84619099999964,-5.897461000000021
134,181.53857400000015,99.35888699999941,98.0771479999994,152.82031300000017,87.43603499999972,116.6665039999998,128.7177729999994,107.30761700000039,109.35888699999941,118.84619099999964,126.15380900000036,109.10253900000043,161.6665039999998,-4.102538999999979
135,168.20507799999996,88.9741210000002,96.53857400000015,152.43603499999972,84.87158199999976,114.10253900000043,126.0258789999998,105.76904300000024,113.84619099999964,106.2822270000006,123.46142599999985,106.9228520000006,159.48730499999965,-12.435790999999426
136,151.79492200000004,77.30761700000039,91.0258789999998,145.51269500000035,76.79492200000004,111.41015599999992,119.48730499999965,97.56396500000028,107.82031300000017,91.79492200000004,115.0,104.74365200000011,147.43603499999972,-23.71801800000003
137,143.3334960000002,73.46142599999985,88.3334960000002,141.41015599999992,74.10253900000043,111.6665039999998,117.05126999999993,93.46142599999985,100.0,87.82031300000017,111.0258789999998,104.87158199999976,136.6665039999998,-28.846190999999635
138,146.0258789999998,80.76904300000024,91.0258789999998,146.2822270000006,81.0258789999998,114.74365200000011,121.41015599999992,99.35888699999941,97.56396500000028,97.43603499999972,115.0,107.82031300000017,134.87158199999976,-24.487060999999812
139,152.05126999999993,92.94873000000007,95.38476599999922,156.15380900000036,90.89746099999957,117.05126999999993,126.9228520000006,109.87158199999976,99.35888699999941,111.53857400000015,120.64111300000059,111.41015599999992,140.2563479999999,-16.538574000000153
140,151.0258789999998,100.12841800000024,95.64111300000059,162.17968800000017,92.43603499999972,115.38476599999922,125.89746099999957,114.48730499999965,99.35888699999941,117.82031300000017,119.23095699999976,112.94873000000007,145.12841800000024,-12.820557000000008
141,141.0258789999998,99.10253900000043,91.79492200000004,159.48730499999965,82.17968800000017,110.12841800000024,117.43603499999972,108.9741210000002,96.2822270000006,111.2822270000006,110.64111300000059,112.30761700000039,145.2563479999999,-15.1281740000004
142,130.89746099999957,95.76904300000024,90.25634799999989,152.05126999999993,67.30761700000039,105.12841800000024,109.35888699999941,100.25634799999989,95.51269500000035,98.9741210000002,103.46142599999985,111.53857400000015,143.9741210000002,-18.205077999999958
143,130.0,98.0771479999994,96.79492200000004,148.20507799999996,58.974121000000196,104.23095699999976,110.12841800000024,99.35888699999941,103.20507799999996,92.82031300000017,106.15380900000036,113.20507799999996,146.6665039999998,-15.897461000000021
144,138.9741210000002,106.6665039999998,110.0,152.56396500000028,61.53857400000015,108.3334960000002,121.0258789999998,110.25634799999989,117.69238299999961,98.58984400000008,117.82031300000017,117.17968800000017,154.10253900000043,-8.076904000000013
145,148.0771479999994,114.35888699999941,121.0258789999998,161.6665039999998,70.12841800000024,114.35888699999941,134.87158199999976,125.51269500000035,129.3588869999994,112.69238299999961,129.48730499999965,121.15380900000036,160.12841800000024,-1.0258789999998044
146,146.6665039999998,113.3334960000002,121.53857400000015,168.20507799999996,78.7177729999994,118.58984400000008,141.79492200000004,133.84619099999964,129.48730499999965,124.87158199999976,132.82031300000017,122.17968800000017,158.0771479999994,-0.6411130000005869
147,133.46142599999985,103.0771479999994,112.05126999999993,168.46142599999985,86.9228520000006,119.35888699999941,138.46142599999985,130.12841800000024,119.10253900000043,127.94873000000007,127.43603499999972,120.0,147.94873000000007,-7.051270000000386
148,116.9228520000006,91.0258789999998,101.2822270000006,165.38476599999922,98.0771479999994,117.56396500000028,130.6411130000006,120.25634799999989,109.10253900000043,123.58984400000008,120.64111300000059,116.9228520000006,136.79492200000004,-14.230713000000378
149,107.43603499999972,85.76904300000024,97.43603499999972,163.46142599999985,110.51269500000035,115.64111300000059,126.0258789999998,113.46142599999985,109.48730499999965,119.74365200000011,119.74365200000011,115.25634799999989,132.82031300000017,-16.666747999999643
150,107.82031300000017,89.35888699999941,101.15380900000036,163.58984400000008,116.2822270000006,115.12841800000024,127.56396500000028,114.10253900000043,119.61523400000078,122.30761700000039,124.10253900000043,115.38476599999922,137.3076170000004,-13.71801800000003
151,112.56396500000028,97.05126999999993,107.43603499999972,163.20507799999996,108.9741210000002,116.15380900000036,132.05126999999993,119.35888699999941,129.48730499999965,129.48730499999965,127.05126999999993,116.0258789999998,144.7436520000001,-9.230713000000378
152,114.74365200000011,102.82031300000017,111.41015599999992,159.48730499999965,92.69238299999961,117.69238299999961,135.76904300000024,124.23095699999976,130.38476599999922,133.9741210000002,123.9741210000002,116.79492200000004,148.20507799999996,-6.923095999999987
153,112.17968800000017,103.84619099999964,112.43603499999972,154.10253900000043,78.9741210000002,118.58984400000008,137.56396500000028,127.30761700000039,122.43603499999972,130.2563479999999,117.17968800000017,118.20507799999996,145.2563479999999,-7.692382999999609
154,106.79492200000004,101.9228520000006,112.43603499999972,151.6665039999998,76.6665039999998,118.3334960000002,138.46142599999985,129.48730499999965,113.7177729999994,120.25634799999989,113.20507799999996,119.74365200000011,139.10253900000043,-9.743652000000111
155,101.79492200000004,99.23095699999976,112.69238299999961,155.51269500000035,85.51269500000035,117.43603499999972,138.58984400000008,130.89746099999957,112.17968800000017,112.05126999999993,115.89746099999957,120.12841800000024,135.51269500000035,-10.641113000000132
156,98.9741210000002,97.43603499999972,113.0771479999994,164.48730499999965,98.0771479999994,117.05126999999993,137.17968800000017,130.2563479999999,119.10253900000043,112.94873000000007,122.56396500000028,118.0771479999994,137.43603499999972,-9.743652000000111
157,96.6665039999998,96.15380900000036,111.79492200000004,171.2822270000006,105.76904300000024,117.30761700000039,133.20507799999996,126.15380900000036,128.7177729999994,122.69238299999961,126.6665039999998,113.84619099999964,142.94873000000007,-8.076904000000013
158,92.56396500000028,94.23095699999976,107.43603499999972,168.9741210000002,103.58984400000008,117.69238299999961,127.56396500000028,118.9741210000002,132.6923829999996,134.10253900000043,123.0771479999994,109.10253900000043,146.2822270000006,-8.205077999999958
159,85.89746099999957,91.2822270000006,101.0258789999998,156.9228520000006,93.46142599999985,117.69238299999961,122.43603499999972,111.15380900000036,127.17968800000017,137.6923829999996,113.58984400000008,106.15380900000036,142.6923829999996,-10.38452099999995
160,80.12841800000024,88.84619099999964,96.15380900000036,142.56396500000028,83.3334960000002,117.69238299999961,120.51269500000035,106.79492200000004,116.41015599999992,130.51269500000035,105.64111300000059,106.6665039999998,133.7177729999994,-12.564209000000574
161,79.35888699999941,89.61523400000078,96.41015599999992,136.0258789999998,82.05126999999993,118.0771479999994,123.0771479999994,108.3334960000002,108.20507799999996,117.56396500000028,105.64111300000059,110.51269500000035,125.38476599999922,-12.051270000000386
162,83.7177729999994,94.10253900000043,101.2822270000006,140.51269500000035,90.38476599999922,118.20507799999996,127.17968800000017,113.3334960000002,106.6665039999998,105.76904300000024,112.69238299999961,115.25634799999989,122.69238299999961,-8.846190999999635
163,88.0771479999994,98.58984400000008,105.51269500000035,148.46142599999985,99.35888699999941,117.56396500000028,128.58984400000008,116.15380900000036,109.48730499999965,98.46142599999985,119.10253900000043,117.82031300000017,124.74365200000011,-6.025634999999966
164,87.56396500000028,98.84619099999964,105.64111300000059,150.0,99.23095699999976,116.41015599999992,125.12841800000024,113.20507799999996,111.53857400000015,95.0,118.58984400000008,116.6665039999998,127.43603499999972,-5.897461000000021
165,83.3334960000002,95.0,103.20507799999996,141.9228520000006,90.38476599999922,116.15380900000036,120.38476599999922,107.17968800000017,111.6665039999998,95.25634799999989,112.69238299999961,113.84619099999964,128.20507799999996,-6.153809000000365
166,81.15380900000036,91.79492200000004,103.9741210000002,132.43603499999972,83.58984400000008,117.17968800000017,120.25634799999989,105.12841800000024,112.17968800000017,101.0258789999998,109.35888699999941,112.94873000000007,128.3334960000002,-2.8203119999998307
167,85.38476599999922,94.74365200000011,111.41015599999992,132.3076170000004,88.9741210000002,118.9741210000002,127.56396500000028,112.17968800000017,115.64111300000059,113.20507799999996,114.10253900000043,115.38476599999922,130.89746099999957,5.256347999999889
168,93.84619099999964,103.84619099999964,122.30761700000039,144.23095699999976,104.23095699999976,119.87158199999976,138.20507799999996,125.12841800000024,120.89746099999957,127.56396500000028,124.35888699999941,119.35888699999941,136.53857400000015,13.461425999999847
169,98.3334960000002,112.69238299999961,127.56396500000028,159.48730499999965,116.15380900000036,118.58984400000008,143.7177729999994,134.10253900000043,123.9741210000002,136.0258789999998,131.0258789999998,120.76904300000024,141.41015599999992,15.128418000000238
170,92.43603499999972,112.94873000000007,121.2822270000006,165.6411130000006,112.43603499999972,115.38476599999922,137.82031300000017,130.89746099999957,121.79492200000004,132.82031300000017,126.2822270000006,117.82031300000017,141.0258789999998,7.307617000000391
171,78.0771479999994,102.69238299999961,106.6665039999998,159.10253900000043,94.61523400000078,112.43603499999972,123.20507799999996,116.9228520000006,115.89746099999957,120.0,110.64111300000059,112.17968800000017,134.23095699999976,-5.38452099999995
172,65.89746099999957,89.23095699999976,94.35888699999941,148.3334960000002,77.05126999999993,111.79492200000004,110.51269500000035,102.82031300000017,111.6665039999998,107.69238299999961,94.35888699999941,108.0771479999994,125.76904300000024,-13.71801800000003
173,66.2822270000006,83.84619099999964,94.74365200000011,147.17968800000017,75.25634799999989,114.35888699999941,110.12841800000024,99.74365200000011,113.0771479999994,106.15380900000036,90.0,108.9741210000002,122.30761700000039,-10.769286999999622
174,80.51269500000035,92.56396500000028,108.7177729999994,161.53857400000015,92.82031300000017,118.58984400000008,123.46142599999985,110.64111300000059,120.12841800000024,117.43603499999972,101.9228520000006,114.48730499999965,127.82031300000017,2.6923829999996087
175,99.61523400000078,110.51269500000035,127.56396500000028,184.10253900000043,118.58984400000008,121.9228520000006,141.53857400000015,128.3334960000002,128.46142599999985,133.3334960000002,122.82031300000017,120.64111300000059,140.0,18.461425999999847
176,110.38476599999922,125.38476599999922,138.46142599999985,198.84619099999964,133.9741210000002,121.9228520000006,152.3076170000004,141.2822270000006,132.94873000000007,140.76904300000024,138.58984400000008,123.58984400000008,151.41015599999992,26.410155999999915
177,105.0,126.15380900000036,133.46142599999985,193.9741210000002,127.05126999999993,118.7177729999994,148.7177729999994,141.53857400000015,130.2563479999999,132.17968800000017,138.7177729999994,121.6665039999998,153.7177729999994,21.282227000000603
178,86.15380900000036,111.79492200000004,115.25634799999989,172.17968800000017,101.53857400000015,114.87158199999976,133.7177729999994,129.3588869999994,121.53857400000015,112.69238299999961,123.7177729999994,116.41015599999992,144.3588869999994,6.794922000000042
179,65.89746099999957,92.82031300000017,95.64111300000059,148.7177729999994,76.0258789999998,113.84619099999964,117.82031300000017,113.3334960000002,112.30761700000039,96.6665039999998,104.74365200000011,111.41015599999992,129.7436520000001,-6.923095999999987
180,58.20507799999996,84.61523400000078,88.20507799999996,139.61523400000078,71.15380900000036,116.79492200000004,112.69238299999961,105.12841800000024,109.23095699999976,97.05126999999993,95.38476599999922,109.87158199999976,121.2822270000006,-10.256347999999889
181,68.0771479999994,94.23095699999976,97.94873000000007,148.7177729999994,93.0771479999994,120.64111300000059,122.56396500000028,111.41015599999992,115.38476599999922,115.0,101.9228520000006,112.82031300000017,126.53857400000015,-1.2822270000006029
182,87.30761700000039,114.10253900000043,116.6665039999998,164.3588869999994,126.41015599999992,120.76904300000024,140.38476599999922,127.17968800000017,126.15380900000036,136.9228520000006,118.7177729999994,118.20507799999996,141.6665039999998,12.82031300000017
183,100.25634799999989,127.05126999999993,128.9741210000002,169.10253900000043,146.15380900000036,115.0,152.6923829999996,139.48730499999965,132.43603499999972,145.2563479999999,132.82031300000017,121.53857400000015,153.7177729999994,21.153809000000365
184,96.53857400000015,121.2822270000006,124.87158199999976,154.87158199999976,137.94873000000007,106.15380900000036,149.3588869999994,138.0771479999994,128.20507799999996,133.20507799999996,134.61523400000078,120.12841800000024,151.53857400000015,18.461425999999847
185,79.87158199999976,100.51269500000035,108.9741210000002,130.2563479999999,108.3334960000002,100.12841800000024,132.82031300000017,124.23095699999976,117.30761700000039,109.48730499999965,125.12841800000024,115.38476599999922,136.53857400000015,8.077147999999397
186,63.846190999999635,80.76904300000024,95.0,112.94873000000007,77.56396500000028,101.41015599999992,115.64111300000059,109.10253900000043,109.61523400000078,91.15380900000036,113.9741210000002,112.05126999999993,121.41015599999992,-0.12841800000023795
187,59.48730499999965,76.15380900000036,93.58984400000008,114.48730499999965,63.589844000000085,108.84619099999964,109.35888699999941,104.10253900000043,111.9228520000006,88.9741210000002,110.25634799999989,112.82031300000017,118.20507799999996,0.0
188,66.2822270000006,86.9228520000006,103.58984400000008,130.0,70.12841800000024,116.41015599999992,115.0,111.0258789999998,121.0258789999998,100.89746099999957,113.9741210000002,116.0258789999998,127.69238299999961,7.051269999999931
189,73.58984400000008,100.25634799999989,112.82031300000017,143.58984400000008,86.0258789999998,117.94873000000007,123.20507799999996,120.38476599999922,125.64111300000059,114.61523400000078,117.05126999999993,117.30761700000039,138.20507799999996,12.692382999999609
190,71.41015599999992,102.43603499999972,110.64111300000059,142.05126999999993,96.15380900000036,112.17968800000017,123.58984400000008,120.38476599999922,117.17968800000017,118.58984400000008,111.53857400000015,113.84619099999964,137.56396500000028,10.512695000000349
191,60.38476599999922,92.17968800000017,97.82031300000017,127.05126999999993,92.56396500000028,103.46142599999985,115.64111300000059,108.7177729999994,98.3334960000002,111.15380900000036,99.23095699999976,107.30761700000039,125.0,2.0512699999999313
192,50.897460999999566,80.38476599999922,85.51269500000035,111.79492200000004,80.51269500000035,98.58984400000008,108.58984400000008,94.74365200000011,82.05126999999993,102.05126999999993,89.74365200000011,102.69238299999961,111.6665039999998,-4.61547900000005
193,53.20507799999996,79.35888699999941,85.51269500000035,109.87158199999976,72.56396500000028,100.64111300000059,111.9228520000006,91.0258789999998,80.64111300000059,102.17968800000017,92.69238299999961,104.35888699999941,110.0,-2.0512699999999313
194,67.94873000000007,91.6665039999998,99.48730499999965,123.7177729999994,77.94873000000007,107.94873000000007,126.0258789999998,102.05126999999993,96.15380900000036,114.48730499999965,107.94873000000007,112.30761700000039,123.0771479999994,9.358886999999413
195,85.25634799999989,109.61523400000078,117.94873000000007,143.84619099999964,96.2822270000006,115.64111300000059,141.53857400000015,119.87158199999976,119.35888699999941,131.0258789999998,126.53857400000015,121.6665039999998,142.43603499999972,22.30761700000039
196,93.20507799999996,121.53857400000015,128.0771479999994,156.2822270000006,117.17968800000017,119.48730499999965,147.43603499999972,131.41015599999992,135.6411130000006,140.38476599999922,137.3076170000004,126.6665039999998,155.2563479999999,28.461425999999847
197,85.89746099999957,120.64111300000059,123.3334960000002,153.20507799999996,127.69238299999961,118.3334960000002,139.48730499999965,127.94873000000007,136.15380900000036,135.6411130000006,134.87158199999976,124.48730499999965,153.46142599999985,23.974121000000196
198,68.58984400000008,109.35888699999941,108.46142599999985,138.3334960000002,122.05126999999993,114.61523400000078,123.7177729999994,113.0771479999994,122.94873000000007,119.48730499999965,123.20507799999996,117.56396500000028,140.2563479999999,12.948730000000069
199,52.69238299999961,97.30761700000039,95.64111300000059,124.35888699999941,105.89746099999957,112.05126999999993,112.05126999999993,98.7177729999994,107.17968800000017,102.43603499999972,111.53857400000015,111.53857400000015,126.79492200000004,3.846190999999635
200,47.17968800000017,93.0771479999994,93.84619099999964,121.79492200000004,91.2822270000006,112.94873000000007,112.05126999999993,96.41015599999992,99.35888699999941,93.7177729999994,108.0771479999994,110.76904300000024,122.30761700000039,3.3334960000001956
201,51.410155999999915,97.56396500000028,101.0258789999998,131.41015599999992,85.89746099999957,115.51269500000035,121.9228520000006,106.6665039999998,101.6665039999998,95.0,113.20507799999996,114.48730499999965,126.9228520000006,10.128418000000238
202,56.53857400000015,102.94873000000007,107.56396500000028,144.10253900000043,87.69238299999961,116.6665039999998,132.05126999999993,120.0,108.20507799999996,100.76904300000024,120.51269500000035,117.94873000000007,132.56396500000028,16.922852000000603
203,55.38476599999922,101.79492200000004,106.53857400000015,150.38476599999922,88.0771479999994,114.61523400000078,135.12841800000024,125.12841800000024,112.43603499999972,105.12841800000024,122.30761700000039,117.43603499999972,132.6923829999996,17.82031300000017
204,49.61523400000078,95.0,100.89746099999957,148.58984400000008,82.56396500000028,110.76904300000024,131.2822270000006,120.12841800000024,113.3334960000002,108.20507799999996,117.17968800000017,113.84619099999964,128.7177729999994,13.589844000000085
205,47.17968800000017,90.38476599999922,99.61523400000078,144.61523400000078,75.89746099999957,108.0771479999994,127.17968800000017,112.69238299999961,114.87158199999976,114.87158199999976,111.2822270000006,111.41015599999992,128.0771479999994,10.769043000000238
206,53.846190999999635,95.76904300000024,107.82031300000017,146.6665039999998,78.58984400000008,108.3334960000002,128.20507799999996,112.94873000000007,120.51269500000035,127.94873000000007,112.69238299999961,113.84619099999964,135.38476599999922,14.871581999999762
207,66.6665039999998,111.0258789999998,122.05126999999993,156.2822270000006,96.0258789999998,110.89746099999957,133.7177729999994,123.58984400000008,128.58984400000008,143.84619099999964,123.46142599999985,120.38476599999922,148.0771479999994,25.0
208,76.6665039999998,127.30761700000039,132.94873000000007,166.9228520000006,121.53857400000015,112.82031300000017,137.94873000000007,136.9228520000006,133.58984400000008,153.7177729999994,136.2822270000006,126.9228520000006,157.6923829999996,34.23095699999976
209,75.51269500000035,132.6923829999996,132.05126999999993,169.87158199999976,139.48730499999965,111.2822270000006,135.76904300000024,141.41015599999992,130.89746099999957,149.87158199999976,140.76904300000024,128.7177729999994,156.9228520000006,35.0
210,62.30761700000039,121.6665039999998,118.7177729999994,161.53857400000015,136.79492200000004,105.76904300000024,127.05126999999993,131.2822270000006,120.76904300000024,131.53857400000015,132.05126999999993,124.35888699999941,144.3588869999994,25.25634799999989
211,44.102539000000434,99.35888699999941,100.64111300000059,147.56396500000028,115.0,98.84619099999964,116.6665039999998,111.9228520000006,108.46142599999985,107.30761700000039,114.74365200000011,116.0258789999998,125.89746099999957,10.256347999999889
212,31.282227000000603,78.84619099999964,88.58984400000008,138.58984400000008,88.0771479999994,94.35888699999941,110.76904300000024,95.89746099999957,101.0258789999998,90.25634799999989,99.61523400000078,108.7177729999994,110.76904300000024,-1.0258789999998044
213,30.0,71.53857400000015,89.23095699999976,141.15380900000036,72.56396500000028,94.61523400000078,111.79492200000004,92.82031300000017,101.79492200000004,89.61523400000078,95.0,106.41015599999992,105.89746099999957,-2.0512699999999313
214,38.333496000000196,79.23095699999976,100.0,153.46142599999985,75.64111300000059,98.7177729999994,117.43603499999972,102.43603499999972,108.7177729999994,102.82031300000017,101.41015599999992,109.10253900000043,111.79492200000004,6.538574000000153
215,48.0771479999994,94.35888699999941,112.05126999999993,166.9228520000006,92.43603499999972,103.58984400000008,123.20507799999996,116.79492200000004,115.76904300000024,118.46142599999985,112.69238299999961,113.9741210000002,122.56396500000028,17.69238299999961
216,52.05126999999993,105.12841800000024,117.69238299999961,172.6923829999996,110.38476599999922,106.0258789999998,125.89746099999957,127.05126999999993,118.58984400000008,124.74365200000011,120.64111300000059,118.0771479999994,130.89746099999957,23.846190999999635
217,48.46142599999985,104.74365200000011,114.87158199999976,167.56396500000028,117.69238299999961,105.25634799999989,124.87158199999976,128.84619099999964,117.05126999999993,118.20507799999996,121.6665039999998,119.61523400000078,132.05126999999993,21.666503999999804
218,40.76904300000024,94.35888699999941,106.53857400000015,155.51269500000035,110.12841800000024,102.17968800000017,121.41015599999992,122.94873000000007,115.12841800000024,105.51269500000035,116.9228520000006,118.84619099999964,126.6665039999998,14.230956999999762
219,33.7177729999994,82.30761700000039,97.69238299999961,144.10253900000043,92.94873000000007,99.35888699999941,117.17968800000017,114.10253900000043,115.64111300000059,96.15380900000036,111.6665039999998,116.15380900000036,118.58984400000008,7.43603499999972
220,30.769043000000238,76.53857400000015,92.17968800000017,138.84619099999964,77.82031300000017,97.94873000000007,114.10253900000043,107.43603499999972,117.56396500000028,95.38476599999922,109.61523400000078,112.17968800000017,112.05126999999993,5.512695000000349
221,32.17968800000017,79.61523400000078,91.6665039999998,141.2822270000006,75.0,98.20507799999996,113.7177729999994,106.15380900000036,117.56396500000028,102.17968800000017,111.2822270000006,108.3334960000002,109.74365200000011,9.102539000000434
222,37.05126999999993,89.10253900000043,96.0258789999998,148.58984400000008,87.56396500000028,99.61523400000078,116.79492200000004,110.64111300000059,114.74365200000011,112.82031300000017,114.74365200000011,106.6665039999998,112.69238299999961,15.512695000000349
223,44.35888699999941,100.51269500000035,103.84619099999964,156.9228520000006,110.0,102.43603499999972,123.0771479999994,118.9741210000002,112.05126999999993,124.35888699999941,117.82031300000017,108.58984400000008,120.64111300000059,22.17968800000017
224,52.05126999999993,109.35888699999941,111.41015599999992,162.3076170000004,131.15380900000036,106.0258789999998,130.2563479999999,127.17968800000017,112.94873000000007,133.3334960000002,120.12841800000024,113.58984400000008,130.38476599999922,27.17968800000017
225,55.51269500000035,111.2822270000006,113.58984400000008,161.15380900000036,139.23095699999976,108.58984400000008,133.84619099999964,130.12841800000024,116.6665039999998,134.87158199999976,120.12841800000024,118.0771479999994,135.2563479999999,27.82031300000017
226,49.87158199999976,103.3334960000002,106.41015599999992,152.05126999999993,128.3334960000002,107.94873000000007,129.7436520000001,123.20507799999996,117.82031300000017,125.25634799999989,114.74365200000011,117.56396500000028,129.61523400000078,22.56396500000028
227,35.897460999999566,88.3334960000002,91.79492200000004,138.3334960000002,103.58984400000008,104.10253900000043,118.7177729999994,107.82031300000017,112.17968800000017,106.41015599999992,103.3334960000002,110.64111300000059,114.35888699999941,12.56396500000028
228,21.922852000000603,75.25634799999989,78.46142599999985,127.94873000000007,80.0,99.35888699999941,107.56396500000028,92.82031300000017,101.9228520000006,88.0771479999994,91.15380900000036,101.0258789999998,98.58984400000008,3.3334960000001956
229,17.82031300000017,73.20507799999996,75.89746099999957,129.10253900000043,72.82031300000017,97.05126999999993,104.35888699999941,88.58984400000008,94.74365200000011,80.89746099999957,86.41015599999992,95.0,92.69238299999961,1.0258789999998044
230,27.05126999999993,84.23095699999976,86.9228520000006,143.7177729999994,85.89746099999957,99.35888699999941,111.6665039999998,98.7177729999994,97.69238299999961,88.0771479999994,93.20507799999996,96.79492200000004,99.74365200000011,7.43603499999972
231,43.7177729999994,101.41015599999992,105.0,164.48730499999965,108.3334960000002,105.0,124.48730499999965,115.89746099999957,109.87158199999976,103.9741210000002,107.43603499999972,104.87158199999976,113.9741210000002,19.102539000000434
232,56.9228520000006,114.87158199999976,119.23095699999976,180.6411130000006,124.10253900000043,111.53857400000015,134.87158199999976,128.3334960000002,124.10253900000043,118.58984400000008,120.51269500000035,113.58984400000008,126.53857400000015,29.358886999999413
233,59.23095699999976,117.82031300000017,122.17968800000017,184.48730499999965,123.9741210000002,116.2822270000006,137.3076170000004,128.9741210000002,131.6665039999998,124.35888699999941,127.05126999999993,117.56396500000028,131.2822270000006,32.94873000000007
234,50.51269500000035,111.15380900000036,114.61523400000078,176.9228520000006,111.6665039999998,118.0771479999994,131.79492200000004,119.87158199999976,128.9741210000002,119.23095699999976,127.17968800000017,115.64111300000059,128.20507799999996,29.48730499999965
235,37.05126999999993,101.15380900000036,103.0771479999994,165.12841800000024,98.46142599999985,117.30761700000039,123.46142599999985,108.7177729999994,118.3334960000002,106.53857400000015,124.10253900000043,110.25634799999989,121.9228520000006,22.69238299999961
236,26.410155999999915,94.61523400000078,95.12841800000024,156.2822270000006,95.0,115.51269500000035,117.56396500000028,102.82031300000017,106.2822270000006,94.10253900000043,120.64111300000059,105.38476599999922,117.56396500000028,17.94873000000007
237,22.43603499999972,94.48730499999965,93.58984400000008,154.10253900000043,103.58984400000008,114.23095699999976,116.6665039999998,103.3334960000002,98.9741210000002,90.0,117.43603499999972,102.94873000000007,116.79492200000004,18.077147999999397
238,23.974121000000196,98.7177729999994,95.76904300000024,157.56396500000028,116.53857400000015,113.84619099999964,118.46142599999985,105.89746099999957,98.0771479999994,97.05126999999993,113.46142599999985,102.94873000000007,117.69238299999961,21.538574000000153
239,27.30761700000039,102.56396500000028,97.43603499999972,163.9741210000002,123.7177729999994,114.48730499999965,119.23095699999976,106.41015599999992,101.2822270000006,110.38476599999922,108.0771479999994,103.9741210000002,117.82031300000017,24.358886999999413
240,29.74365200000011,103.3334960000002,96.79492200000004,170.51269500000035,120.76904300000024,115.51269500000035,117.30761700000039,104.35888699999941,105.0,121.53857400000015,102.94873000000007,104.87158199999976,117.30761700000039,25.0
241,31.282227000000603,101.41015599999992,95.0,174.7436520000001,111.53857400000015,116.53857400000015,114.61523400000078,103.0771479999994,108.20507799999996,124.61523400000078,101.53857400000015,105.76904300000024,117.94873000000007,24.615234000000783
242,32.94873000000007,99.74365200000011,94.74365200000011,174.61523400000078,103.58984400000008,117.17968800000017,113.58984400000008,104.61523400000078,111.2822270000006,120.89746099999957,105.64111300000059,107.17968800000017,121.41015599999992,26.025878999999804
243,36.153809000000365,100.64111300000059,97.56396500000028,170.6411130000006,102.17968800000017,117.30761700000039,115.38476599999922,107.69238299999961,114.61523400000078,115.64111300000059,113.0771479999994,108.58984400000008,126.79492200000004,30.384765999999217
244,40.76904300000024,104.23095699999976,102.56396500000028,166.6665039999998,107.30761700000039,117.56396500000028,118.9741210000002,109.35888699999941,117.56396500000028,113.58984400000008,119.87158199999976,109.87158199999976,131.79492200000004,36.666503999999804
245,46.025878999999804,108.0771479999994,108.0771479999994,166.53857400000015,113.46142599999985,118.0771479999994,122.17968800000017,107.94873000000007,119.35888699999941,114.61523400000078,122.56396500000028,111.15380900000036,134.61523400000078,41.79492200000004
246,50.51269500000035,109.10253900000043,112.05126999999993,171.41015599999992,114.10253900000043,117.94873000000007,123.3334960000002,105.0,118.84619099999964,115.25634799999989,121.53857400000015,112.94873000000007,134.48730499999965,43.333496000000196
247,52.30761700000039,106.53857400000015,113.46142599999985,178.46142599999985,107.30761700000039,116.9228520000006,122.43603499999972,103.20507799999996,115.12841800000024,111.9228520000006,119.10253900000043,114.87158199999976,131.6665039999998,40.25634799999989
248,49.35888699999941,101.53857400000015,112.05126999999993,183.0771479999994,97.30761700000039,115.25634799999989,120.38476599999922,103.7177729999994,108.84619099999964,104.23095699999976,117.56396500000028,115.64111300000059,127.17968800000017,34.61523400000078
249,41.53857400000015,96.2822270000006,107.43603499999972,181.15380900000036,91.0258789999998,114.35888699999941,117.82031300000017,104.61523400000078,101.53857400000015,95.51269500000035,116.15380900000036,113.9741210000002,122.17968800000017,28.846190999999635
250,31.410155999999915,92.30761700000039,100.51269500000035,172.82031300000017,92.17968800000017,114.87158199999976,115.0,103.3334960000002,95.89746099999957,90.38476599999922,113.46142599999985,110.25634799999989,118.20507799999996,25.641113000000587
251,24.615234000000783,91.41015599999992,94.87158199999976,164.23095699999976,99.48730499999965,116.53857400000015,112.94873000000007,100.89746099999957,95.25634799999989,91.53857400000015,111.15380900000036,106.79492200000004,116.9228520000006,26.282227000000603
252,26.794922000000042,94.74365200000011,95.51269500000035,163.7177729999994,108.58984400000008,118.46142599999985,114.61523400000078,101.53857400000015,101.53857400000015,98.3334960000002,113.7177729999994,106.9228520000006,120.25634799999989,31.410155999999915
253,37.56396500000028,101.6665039999998,104.23095699999976,173.84619099999964,114.35888699999941,119.61523400000078,120.64111300000059,107.82031300000017,113.0771479999994,106.41015599999992,122.82031300000017,111.2822270000006,126.79492200000004,38.7177729999994
254,50.25634799999989,108.46142599999985,116.15380900000036,187.6923829999996,113.84619099999964,119.35888699999941,128.58984400000008,116.53857400000015,123.9741210000002,111.15380900000036,133.46142599999985,116.79492200000004,132.05126999999993,44.102539000000434
255,55.64111300000059,110.38476599999922,122.56396500000028,194.10253900000043,107.43603499999972,117.82031300000017,134.23095699999976,121.6665039999998,128.3334960000002,111.0258789999998,136.9228520000006,118.7177729999994,131.79492200000004,44.23095699999976
256,49.87158199999976,105.51269500000035,117.56396500000028,186.6665039999998,99.61523400000078,115.89746099999957,134.3588869999994,119.10253900000043,122.82031300000017,108.0771479999994,128.84619099999964,114.61523400000078,125.0,38.20507799999996
257,36.025878999999804,95.38476599999922,103.3334960000002,168.20507799999996,95.0,114.87158199999976,129.3588869999994,110.12841800000024,109.23095699999976,105.12841800000024,112.82031300000017,106.15380900000036,114.61523400000078,28.589844000000085
258,21.794922000000042,84.48730499999965,87.56396500000028,148.20507799999996,95.64111300000059,115.0,121.79492200000004,100.0,93.3334960000002,102.69238299999961,97.82031300000017,97.82031300000017,104.48730499999965,20.0
259,13.846190999999635,77.43603499999972,78.20507799999996,136.0258789999998,101.41015599999992,116.0258789999998,115.38476599999922,93.58984400000008,81.79492200000004,100.76904300000024,91.0258789999998,93.58984400000008,98.0771479999994,16.153809000000365
260,14.871581999999762,77.43603499999972,78.7177729999994,135.89746099999957,110.89746099999957,116.9228520000006,113.0771479999994,93.20507799999996,80.0,99.61523400000078,94.74365200000011,95.0,96.53857400000015,18.077147999999397
261,22.56396500000028,84.23095699999976,87.43603499999972,145.2563479999999,120.51269500000035,117.43603499999972,115.64111300000059,98.0771479999994,88.3334960000002,100.89746099999957,105.12841800000024,100.89746099999957,100.0,24.230956999999762
262,31.922852000000603,94.35888699999941,98.84619099999964,157.17968800000017,125.38476599999922,117.56396500000028,121.79492200000004,105.51269500000035,102.43603499999972,104.61523400000078,115.76904300000024,107.82031300000017,106.79492200000004,31.282227000000603
263,38.20507799999996,102.94873000000007,107.05126999999993,164.87158199999976,122.56396500000028,117.30761700000039,129.10253900000043,113.20507799999996,115.0,108.9741210000002,121.15380900000036,112.05126999999993,114.10253900000043,36.2822270000006
264,38.589844000000085,106.41015599999992,108.7177729999994,165.12841800000024,115.12841800000024,116.15380900000036,134.87158199999976,118.9741210000002,120.38476599999922,110.51269500000035,119.87158199999976,111.53857400000015,119.23095699999976,37.94873000000007
265,32.94873000000007,104.10253900000043,104.74365200000011,158.46142599999985,109.61523400000078,113.84619099999964,136.6665039999998,120.25634799999989,117.82031300000017,107.82031300000017,114.87158199999976,107.05126999999993,120.25634799999989,36.666503999999804
266,24.230956999999762,98.84619099999964,99.23095699999976,148.58984400000008,110.89746099999957,111.79492200000004,133.46142599999985,116.2822270000006,110.76904300000024,101.79492200000004,110.89746099999957,101.6665039999998,117.43603499999972,34.23095699999976
267,16.922852000000603,95.25634799999989,96.0258789999998,141.79492200000004,118.46142599999985,112.17968800000017,127.30761700000039,108.84619099999964,105.25634799999989,96.0258789999998,110.64111300000059,98.84619099999964,113.46142599999985,32.82031300000017
268,15.384765999999217,96.79492200000004,96.9228520000006,142.43603499999972,126.53857400000015,115.51269500000035,122.17968800000017,102.94873000000007,106.41015599999992,94.61523400000078,114.10253900000043,100.76904300000024,111.41015599999992,34.23095699999976
269,20.897460999999566,102.69238299999961,100.89746099999957,149.7436520000001,128.20507799999996,119.23095699999976,121.15380900000036,103.3334960000002,114.87158199999976,99.10253900000043,118.9741210000002,106.53857400000015,113.20507799999996,38.20507799999996
270,30.769043000000238,108.58984400000008,105.64111300000059,158.46142599999985,120.76904300000024,119.74365200000011,124.35888699999941,109.61523400000078,125.38476599999922,108.20507799999996,122.56396500000028,112.82031300000017,117.94873000000007,42.30761700000039
271,38.974121000000196,108.84619099999964,107.69238299999961,162.82031300000017,107.69238299999961,115.64111300000059,128.0771479999994,116.15380900000036,129.23095699999976,117.69238299999961,121.6665039999998,115.38476599999922,121.6665039999998,42.82031300000017
272,40.897460999999566,101.9228520000006,105.51269500000035,161.2822270000006,96.9228520000006,108.46142599999985,128.46142599999985,117.30761700000039,121.9228520000006,123.3334960000002,116.41015599999992,112.94873000000007,121.15380900000036,38.974121000000196
273,36.79492200000004,91.41015599999992,101.15380900000036,156.41015599999992,95.38476599999922,102.30761700000039,125.25634799999989,113.20507799999996,107.82031300000017,123.7177729999994,110.25634799999989,107.94873000000007,116.2822270000006,33.7177729999994
274,32.05126999999993,84.35888699999941,98.9741210000002,153.20507799999996,103.7177729999994,100.89746099999957,121.53857400000015,109.48730499999965,97.17968800000017,121.41015599999992,108.7177729999994,105.38476599999922,110.0,31.922852000000603
275,32.05126999999993,85.51269500000035,102.17968800000017,154.3588869999994,115.25634799999989,105.51269500000035,120.76904300000024,111.53857400000015,97.94873000000007,119.74365200000011,113.58984400000008,107.94873000000007,106.53857400000015,35.64111300000059
276,38.20507799999996,94.23095699999976,110.0,158.58984400000008,122.30761700000039,113.58984400000008,124.23095699999976,119.35888699999941,109.48730499999965,120.64111300000059,122.17968800000017,113.46142599999985,108.58984400000008,42.94873000000007
277,47.69238299999961,106.15380900000036,119.10253900000043,162.3076170000004,122.17968800000017,120.51269500000035,130.0,128.3334960000002,124.87158199999976,124.35888699999941,130.12841800000024,117.94873000000007,115.89746099999957,49.35888699999941
278,55.38476599999922,116.0258789999998,125.64111300000059,163.7177729999994,119.35888699999941,121.79492200000004,135.2563479999999,133.0771479999994,136.6665039999998,130.12841800000024,134.3588869999994,119.35888699999941,126.15380900000036,52.30761700000039
279,57.69238299999961,119.23095699999976,127.56396500000028,164.3588869999994,118.9741210000002,117.17968800000017,137.3076170000004,130.6411130000006,139.87158199999976,135.0,134.3588869999994,118.20507799999996,135.6411130000006,51.666503999999804
280,53.0771479999994,113.7177729999994,124.35888699999941,165.6411130000006,121.41015599999992,109.87158199999976,135.38476599999922,122.30761700000039,133.3334960000002,134.48730499999965,130.2563479999999,116.15380900000036,140.0,48.589844000000085
281,44.102539000000434,102.05126999999993,117.43603499999972,167.82031300000017,121.79492200000004,104.48730499999965,130.12841800000024,112.30761700000039,120.25634799999989,126.15380900000036,122.82031300000017,114.23095699999976,136.6665039999998,44.48730499999965
282,35.76904300000024,90.51269500000035,110.0,169.48730499999965,116.41015599999992,103.7177729999994,124.35888699999941,105.12841800000024,107.30761700000039,113.0771479999994,114.48730499999965,112.56396500000028,127.69238299999961,40.897460999999566
283,32.94873000000007,85.89746099999957,105.0,170.12841800000024,107.17968800000017,108.46142599999985,120.51269500000035,102.94873000000007,101.2822270000006,102.30761700000039,109.23095699999976,110.64111300000059,119.35888699999941,39.48730499999965
284,36.2822270000006,89.74365200000011,103.9741210000002,170.0,99.61523400000078,115.89746099999957,119.10253900000043,104.23095699999976,103.84619099999964,99.61523400000078,109.87158199999976,108.20507799999996,116.9228520000006,40.64111300000059
285,41.53857400000015,97.30761700000039,105.12841800000024,168.46142599999985,97.30761700000039,121.6665039999998,118.7177729999994,104.74365200000011,110.0,104.23095699999976,114.61523400000078,105.51269500000035,120.0,42.56396500000028
286,42.94873000000007,100.38476599999922,104.35888699999941,164.10253900000043,97.82031300000017,121.79492200000004,118.0771479999994,101.15380900000036,112.30761700000039,109.87158199999976,117.82031300000017,103.46142599999985,122.30761700000039,42.30761700000039
287,37.94873000000007,93.46142599999985,98.84619099999964,156.41015599999992,96.15380900000036,116.0258789999998,116.6665039999998,93.84619099999964,106.53857400000015,110.25634799999989,114.35888699999941,102.56396500000028,117.82031300000017,37.69238299999961
288,28.333496000000196,77.30761700000039,89.74365200000011,146.15380900000036,89.87158199999976,107.56396500000028,115.25634799999989,86.0258789999998,94.87158199999976,103.7177729999994,103.20507799999996,102.56396500000028,105.38476599999922,29.615234000000783
289,19.230956999999762,59.61523400000078,81.79492200000004,135.76904300000024,82.30761700000039,101.79492200000004,113.7177729999994,81.0258789999998,82.82031300000017,93.46142599999985,89.61523400000078,102.30761700000039,90.89746099999957,21.410155999999915
290,15.769043000000238,50.51269500000035,79.35888699999941,129.61523400000078,80.51269500000035,102.17968800000017,112.69238299999961,81.0258789999998,76.2822270000006,86.2822270000006,81.15380900000036,101.15380900000036,83.0771479999994,17.56396500000028
291,20.384765999999217,56.025878999999804,84.10253900000043,131.41015599999992,88.9741210000002,108.3334960000002,112.69238299999961,86.15380900000036,77.94873000000007,87.94873000000007,83.58984400000008,100.25634799999989,87.05126999999993,21.025878999999804
292,30.897460999999566,73.7177729999994,93.58984400000008,140.89746099999957,104.74365200000011,116.41015599999992,114.87158199999976,94.10253900000043,87.30761700000039,98.58984400000008,96.79492200000004,100.51269500000035,101.0258789999998,30.51269500000035
293,41.9228520000006,93.46142599999985,102.30761700000039,151.79492200000004,118.84619099999964,121.53857400000015,118.46142599999985,100.89746099999957,99.74365200000011,110.76904300000024,113.3334960000002,101.79492200000004,116.41015599999992,41.153809000000365
294,47.30761700000039,103.9741210000002,105.64111300000059,156.41015599999992,121.9228520000006,121.6665039999998,121.41015599999992,103.0771479999994,108.46142599999985,114.61523400000078,123.3334960000002,103.20507799999996,123.58984400000008,46.79492200000004
295,45.38476599999922,101.15380900000036,102.82031300000017,151.79492200000004,113.46142599999985,118.7177729999994,121.9228520000006,100.25634799999989,109.48730499999965,106.6665039999998,121.79492200000004,103.84619099999964,119.10253900000043,44.87158199999976
296,39.48730499999965,90.38476599999922,97.56396500000028,142.56396500000028,102.30761700000039,115.89746099999957,119.74365200000011,96.0258789999998,104.61523400000078,94.87158199999976,112.17968800000017,103.3334960000002,108.46142599999985,39.23095699999976
297,35.38476599999922,81.6665039999998,94.74365200000011,135.89746099999957,99.10253900000043,115.12841800000024,116.53857400000015,94.48730499999965,99.10253900000043,91.2822270000006,103.58984400000008,102.82031300000017,101.41015599999992,35.12841800000024
298,35.12841800000024,80.0,95.51269500000035,135.76904300000024,104.87158199999976,116.2822270000006,113.84619099999964,96.15380900000036,97.30761700000039,99.48730499999965,100.89746099999957,102.56396500000028,102.94873000000007,35.51269500000035
299,36.79492200000004,83.0771479999994,97.82031300000017,139.48730499999965,110.38476599999922,117.56396500000028,113.20507799999996,97.94873000000007,98.84619099999964,111.6665039999998,101.79492200000004,102.56396500000028,110.12841800000024,38.333496000000196
300,37.94873000000007,85.38476599999922,99.61523400000078,142.56396500000028,106.2822270000006,117.94873000000007,115.38476599999922,97.94873000000007,101.15380900000036,116.41015599999992,102.43603499999972,102.82031300000017,116.2822270000006,40.64111300000059
301,39.74365200000011,85.51269500000035,101.53857400000015,142.82031300000017,93.3334960000002,117.43603499999972,120.25634799999989,98.20507799999996,104.10253900000043,110.76904300000024,101.9228520000006,104.10253900000043,117.56396500000028,41.79492200000004
302,45.0,85.51269500000035,105.51269500000035,141.53857400000015,82.69238299999961,117.30761700000039,126.15380900000036,101.41015599999992,108.3334960000002,102.94873000000007,103.3334960000002,107.30761700000039,115.89746099999957,43.7177729999994
303,53.846190999999635,87.43603499999972,111.15380900000036,141.41015599999992,85.38476599999922,118.0771479999994,130.51269500000035,107.69238299999961,113.3334960000002,103.3334960000002,107.82031300000017,111.41015599999992,114.87158199999976,46.79492200000004
304,63.20507799999996,91.6665039999998,116.0258789999998,144.7436520000001,103.58984400000008,119.10253900000043,132.05126999999993,115.0,117.17968800000017,114.87158199999976,113.9741210000002,114.87158199999976,116.53857400000015,50.51269500000035
305,69.48730499999965,97.82031300000017,118.58984400000008,152.05126999999993,129.23095699999976,118.9741210000002,132.56396500000028,121.2822270000006,119.10253900000043,131.2822270000006,119.61523400000078,116.2822270000006,120.12841800000024,53.846190999999635
306,70.89746099999957,104.48730499999965,119.61523400000078,160.89746099999957,149.87158199999976,117.82031300000017,134.23095699999976,125.76904300000024,120.25634799999989,140.89746099999957,123.58984400000008,115.89746099999957,123.3334960000002,56.2822270000006
307,67.43603499999972,108.58984400000008,120.0,167.17968800000017,154.61523400000078,116.41015599999992,136.0258789999998,126.9228520000006,121.41015599999992,136.2822270000006,124.87158199999976,114.23095699999976,123.20507799999996,56.9228520000006
308,60.25634799999989,106.2822270000006,118.3334960000002,167.3076170000004,141.0258789999998,115.76904300000024,134.48730499999965,121.79492200000004,120.89746099999957,119.35888699999941,121.2822270000006,111.41015599999992,117.56396500000028,53.846190999999635
309,50.897460999999566,96.9228520000006,112.17968800000017,160.89746099999957,115.38476599999922,115.89746099999957,126.9228520000006,108.84619099999964,115.64111300000059,99.74365200000011,111.41015599999992,107.56396500000028,106.79492200000004,46.410155999999915
310,41.666503999999804,83.58984400000008,101.15380900000036,151.6665039999998,89.74365200000011,116.0258789999998,115.0,90.64111300000059,104.23095699999976,86.41015599999992,96.0258789999998,102.94873000000007,94.35888699999941,36.53857400000015
311,34.48730499999965,71.53857400000015,89.10253900000043,145.76904300000024,75.38476599999922,115.76904300000024,103.84619099999964,74.23095699999976,89.74365200000011,82.30761700000039,80.51269500000035,98.84619099999964,84.87158199999976,28.077147999999397
312,31.538574000000153,66.2822270000006,82.05126999999993,147.56396500000028,77.30761700000039,115.51269500000035,99.35888699999941,66.79492200000004,78.9741210000002,84.23095699999976,70.76904300000024,96.79492200000004,81.79492200000004,25.0
313,33.333496000000196,69.74365200000011,83.0771479999994,156.41015599999992,90.89746099999957,115.76904300000024,103.9741210000002,71.79492200000004,77.69238299999961,87.30761700000039,70.51269500000035,97.69238299999961,84.74365200000011,28.589844000000085
314,38.20507799999996,79.35888699999941,90.0,166.6665039999998,105.25634799999989,116.41015599999992,114.35888699999941,85.12841800000024,86.41015599999992,88.9741210000002,77.43603499999972,100.38476599999922,90.64111300000059,36.025878999999804
315,42.30761700000039,88.0771479999994,96.53857400000015,171.79492200000004,109.35888699999941,116.9228520000006,123.3334960000002,97.56396500000028,98.7177729999994,89.48730499999965,85.0,102.94873000000007,94.48730499999965,41.79492200000004
316,42.43603499999972,89.48730499999965,96.6665039999998,168.84619099999964,100.51269500000035,116.53857400000015,124.61523400000078,100.38476599999922,106.6665039999998,90.76904300000024,86.79492200000004,103.3334960000002,93.9741210000002,41.666503999999804
317,38.7177729999994,83.20507799999996,90.51269500000035,161.9228520000006,86.0258789999998,115.0,118.3334960000002,92.30761700000039,105.89746099999957,93.46142599999985,82.82031300000017,101.41015599999992,90.51269500000035,36.9228520000006
318,35.76904300000024,75.76904300000024,83.58984400000008,158.9741210000002,78.9741210000002,113.3334960000002,111.0258789999998,81.41015599999992,99.74365200000011,97.43603499999972,79.23095699999976,98.7177729999994,89.35888699999941,32.94873000000007
319,38.20507799999996,75.38476599999922,82.82031300000017,164.61523400000078,88.0771479999994,113.20507799999996,110.0,78.58984400000008,95.38476599999922,102.94873000000007,83.9741210000002,97.94873000000007,94.74365200000011,35.12841800000024
320,46.79492200000004,84.87158199999976,90.12841800000024,175.6411130000006,110.51269500000035,115.38476599999922,117.43603499999972,89.23095699999976,97.82031300000017,110.12841800000024,98.3334960000002,100.0,105.0,43.333496000000196
321,56.9228520000006,98.58984400000008,100.38476599999922,183.20507799999996,132.82031300000017,118.9741210000002,128.46142599999985,107.82031300000017,105.89746099999957,117.69238299999961,115.0,103.7177729999994,114.35888699999941,52.43603499999972
322,61.2822270000006,107.30761700000039,105.51269500000035,180.38476599999922,140.2563479999999,122.05126999999993,135.6411130000006,122.56396500000028,114.48730499999965,123.0771479999994,123.0771479999994,106.53857400000015,117.30761700000039,55.76904300000024
323,55.76904300000024,105.0,101.53857400000015,167.56396500000028,128.84619099999964,122.56396500000028,134.23095699999976,124.74365200000011,119.35888699999941,124.10253900000043,116.9228520000006,106.6665039999998,113.46142599999985,51.2822270000006
324,44.102539000000434,94.10253900000043,91.15380900000036,152.05126999999993,107.94873000000007,120.25634799999989,125.64111300000059,114.74365200000011,119.48730499999965,121.15380900000036,100.25634799999989,104.10253900000043,106.9228520000006,42.05126999999993
325,33.7177729999994,82.82031300000017,81.0258789999998,141.41015599999992,92.17968800000017,117.05126999999993,115.76904300000024,101.15380900000036,116.15380900000036,117.05126999999993,83.58984400000008,100.76904300000024,103.46142599999985,34.102539000000434
326,31.153809000000365,79.10253900000043,77.56396500000028,138.0771479999994,89.74365200000011,114.74365200000011,111.0258789999998,93.20507799999996,112.43603499999972,114.23095699999976,76.6665039999998,98.3334960000002,105.51269500000035,32.30761700000039
327,36.53857400000015,84.61523400000078,82.05126999999993,139.61523400000078,97.30761700000039,114.35888699999941,114.48730499999965,95.64111300000059,111.15380900000036,112.82031300000017,82.05126999999993,97.94873000000007,111.6665039999998,36.9228520000006
328,45.51269500000035,94.48730499999965,90.51269500000035,142.17968800000017,105.51269500000035,115.12841800000024,123.58984400000008,105.64111300000059,114.10253900000043,112.17968800000017,94.48730499999965,99.74365200000011,118.46142599999985,44.48730499999965
329,52.94873000000007,101.15380900000036,97.69238299999961,144.7436520000001,107.82031300000017,116.15380900000036,132.3076170000004,116.2822270000006,120.12841800000024,112.30761700000039,106.6665039999998,102.30761700000039,123.20507799999996,50.76904300000024
330,56.53857400000015,101.0258789999998,100.76904300000024,148.0771479999994,104.87158199999976,117.17968800000017,135.6411130000006,122.05126999999993,125.76904300000024,115.0,114.74365200000011,104.35888699999941,125.76904300000024,53.333496000000196
331,57.30761700000039,96.41015599999992,99.61523400000078,150.89746099999957,101.6665039999998,118.0771479999994,133.0771479999994,122.05126999999993,127.30761700000039,121.53857400000015,118.9741210000002,105.12841800000024,126.79492200000004,52.43603499999972
332,56.9228520000006,91.9228520000006,95.51269500000035,149.61523400000078,101.2822270000006,118.20507799999996,127.56396500000028,119.10253900000043,123.46142599999985,130.51269500000035,120.64111300000059,104.61523400000078,126.41015599999992,49.35888699999941
333,55.64111300000059,90.0,90.0,140.12841800000024,102.43603499999972,116.53857400000015,122.30761700000039,115.64111300000059,115.89746099999957,136.53857400000015,119.48730499999965,103.0771479999994,123.0771479999994,45.12841800000024
334,52.69238299999961,88.9741210000002,84.48730499999965,123.9741210000002,100.12841800000024,113.46142599999985,118.7177729999994,112.30761700000039,108.20507799999996,133.9741210000002,114.48730499999965,101.0258789999998,116.15380900000036,40.51269500000035
335,49.102539000000434,86.9228520000006,81.15380900000036,110.0,91.9228520000006,110.76904300000024,117.17968800000017,109.10253900000043,103.9741210000002,123.0771479999994,107.05126999999993,99.48730499999965,108.9741210000002,37.43603499999972
336,47.94873000000007,84.87158199999976,82.05126999999993,108.84619099999964,81.2822270000006,110.25634799999989,118.3334960000002,107.69238299999961,105.76904300000024,111.9228520000006,101.9228520000006,99.87158199999976,107.30761700000039,38.46142599999985
337,51.9228520000006,87.05126999999993,88.0771479999994,124.48730499999965,76.15380900000036,112.05126999999993,122.94873000000007,110.76904300000024,113.46142599999985,110.51269500000035,103.7177729999994,102.43603499999972,114.74365200000011,44.74365200000011
338,59.74365200000011,95.25634799999989,96.79492200000004,148.0771479999994,81.0258789999998,114.48730499999965,130.0,117.56396500000028,123.0771479999994,120.51269500000035,111.53857400000015,106.2822270000006,127.82031300000017,52.94873000000007
339,64.61523400000078,104.61523400000078,102.82031300000017,164.23095699999976,91.15380900000036,115.25634799999989,135.0,122.17968800000017,128.46142599999985,132.17968800000017,118.0771479999994,109.10253900000043,136.53857400000015,56.666503999999804
340,60.25634799999989,106.2822270000006,101.0258789999998,163.0771479999994,97.17968800000017,113.58984400000008,133.0771479999994,117.69238299999961,124.74365200000011,132.94873000000007,115.0,108.3334960000002,131.79492200000004,51.53857400000015
341,47.30761700000039,95.89746099999957,91.9228520000006,149.48730499999965,92.94873000000007,110.12841800000024,124.23095699999976,103.0771479999994,112.05126999999993,118.3334960000002,101.15380900000036,103.7177729999994,113.9741210000002,39.87158199999976
342,34.23095699999976,78.58984400000008,81.6665039999998,138.46142599999985,82.56396500000028,107.94873000000007,113.7177729999994,86.15380900000036,96.53857400000015,95.25634799999989,84.35888699999941,97.69238299999961,94.10253900000043,29.358886999999413
343,31.282227000000603,66.41015599999992,78.0771479999994,142.05126999999993,76.53857400000015,109.61523400000078,109.10253900000043,78.0771479999994,87.30761700000039,77.30761700000039,76.2822270000006,94.61523400000078,85.12841800000024,26.922852000000603
344,41.53857400000015,68.7177729999994,84.74365200000011,160.0,82.56396500000028,115.12841800000024,114.10253900000043,85.89746099999957,90.76904300000024,75.38476599999922,83.46142599999985,97.05126999999993,92.17968800000017,34.61523400000078
345,58.846190999999635,85.76904300000024,98.3334960000002,181.0258789999998,98.9741210000002,121.15380900000036,127.17968800000017,106.53857400000015,106.79492200000004,90.64111300000059,102.56396500000028,104.10253900000043,110.38476599999922,48.0771479999994
346,72.94873000000007,107.94873000000007,111.53857400000015,193.0771479999994,115.38476599999922,122.94873000000007,142.3076170000004,129.87158199999976,127.69238299999961,114.10253900000043,122.82031300000017,111.2822270000006,128.84619099999964,60.12841800000024
347,76.9228520000006,122.43603499999972,117.94873000000007,191.9228520000006,120.64111300000059,118.84619099999964,152.6923829999996,144.61523400000078,142.05126999999993,132.82031300000017,133.7177729999994,114.35888699999941,137.82031300000017,64.74365200000011
348,70.51269500000035,122.30761700000039,115.51269500000035,182.56396500000028,111.0258789999998,112.17968800000017,154.48730499999965,145.2563479999999,141.0258789999998,138.3334960000002,131.15380900000036,111.79492200000004,134.61523400000078,60.51269500000035
349,58.974121000000196,110.89746099999957,106.41015599999992,173.7177729999994,93.58984400000008,107.94873000000007,147.56396500000028,134.7436520000001,125.51269500000035,131.53857400000015,119.10253900000043,105.51269500000035,123.84619099999964,50.897460999999566
350,49.23095699999976,98.3334960000002,95.64111300000059,171.2822270000006,81.15380900000036,109.10253900000043,136.15380900000036,120.64111300000059,105.51269500000035,119.87158199999976,105.38476599999922,99.74365200000011,113.58984400000008,41.9228520000006
351,45.0,93.3334960000002,87.43603499999972,174.61523400000078,83.20507799999996,113.3334960000002,125.25634799999989,110.25634799999989,93.84619099999964,111.0258789999998,96.53857400000015,97.69238299999961,108.58984400000008,38.0771479999994
352,45.25634799999989,96.6665039999998,83.84619099999964,178.0771479999994,98.0771479999994,116.0258789999998,118.46142599999985,105.12841800000024,95.76904300000024,107.05126999999993,93.58984400000008,99.10253900000043,107.94873000000007,39.48730499999965
353,46.53857400000015,102.69238299999961,84.10253900000043,176.2822270000006,112.69238299999961,113.7177729999994,116.2822270000006,102.94873000000007,105.76904300000024,104.48730499999965,94.35888699999941,101.41015599999992,107.43603499999972,42.05126999999993
354,46.410155999999915,104.61523400000078,86.6665039999998,168.84619099999964,113.9741210000002,107.17968800000017,118.0771479999994,100.38476599999922,113.58984400000008,100.0,95.76904300000024,101.9228520000006,104.23095699999976,42.69238299999961
355,45.76904300000024,100.89746099999957,90.51269500000035,160.89746099999957,99.61523400000078,100.89746099999957,122.82031300000017,97.94873000000007,112.94873000000007,93.3334960000002,96.53857400000015,100.38476599999922,99.74365200000011,41.025878999999804
356,47.43603499999972,95.12841800000024,95.25634799999989,158.3334960000002,81.53857400000015,99.35888699999941,129.23095699999976,97.56396500000028,105.89746099999957,87.69238299999961,96.41015599999992,98.20507799999996,97.43603499999972,39.74365200000011
357,52.17968800000017,93.3334960000002,100.25634799999989,163.0771479999994,75.0,103.58984400000008,135.0,100.12841800000024,99.48730499999965,86.15380900000036,96.0258789999998,97.43603499999972,98.84619099999964,41.025878999999804
358,57.69238299999961,97.82031300000017,103.46142599999985,170.38476599999922,85.64111300000059,111.41015599999992,137.56396500000028,103.58984400000008,99.61523400000078,89.23095699999976,96.2822270000006,98.46142599999985,102.30761700000039,44.87158199999976
359,59.61523400000078,105.64111300000059,103.20507799999996,174.23095699999976,105.12841800000024,118.3334960000002,135.12841800000024,104.61523400000078,105.51269500000035,94.48730499999965,98.3334960000002,100.38476599999922,104.61523400000078,48.846190999999635
360,56.153809000000365,110.38476599999922,98.7177729999994,171.41015599999992,118.20507799999996,120.76904300000024,128.46142599999985,101.6665039999998,110.12841800000024,98.0771479999994,101.6665039999998,101.53857400000015,103.84619099999964,49.87158199999976
361,48.974121000000196,107.30761700000039,92.05126999999993,164.48730499999965,115.25634799999989,118.0771479999994,120.76904300000024,95.76904300000024,106.6665039999998,96.41015599999992,104.23095699999976,100.76904300000024,100.0,46.153809000000365
362,42.82031300000017,97.94873000000007,86.79492200000004,158.58984400000008,98.9741210000002,113.3334960000002,115.89746099999957,90.12841800000024,94.61523400000078,89.23095699999976,103.58984400000008,99.23095699999976,95.25634799999989,40.0
363,42.43603499999972,88.84619099999964,86.15380900000036,158.58984400000008,81.6665039999998,111.0258789999998,116.53857400000015,88.0771479999994,81.15380900000036,80.38476599999922,99.48730499999965,98.3334960000002,92.30761700000039,36.2822270000006
364,50.25634799999989,87.05126999999993,91.53857400000015,165.89746099999957,76.2822270000006,113.0771479999994,122.43603499999972,91.2822270000006,75.89746099999957,76.79492200000004,95.38476599999922,99.48730499999965,93.3334960000002,39.61523400000078
365,63.974121000000196,95.51269500000035,100.76904300000024,177.94873000000007,87.05126999999993,117.30761700000039,130.38476599999922,98.0771479999994,82.69238299999961,82.56396500000028,94.87158199999976,102.17968800000017,98.9741210000002,49.48730499999965
366,76.53857400000015,109.10253900000043,108.3334960000002,187.94873000000007,105.76904300000024,118.84619099999964,135.38476599999922,103.9741210000002,96.6665039999998,95.0,98.7177729999994,104.74365200000011,106.41015599999992,59.48730499999965
367,79.74365200000011,118.0771479999994,107.82031300000017,189.23095699999976,116.9228520000006,115.25634799999989,132.6923829999996,103.58984400000008,107.69238299999961,105.64111300000059,103.20507799999996,105.12841800000024,110.25634799999989,61.9228520000006
368,70.76904300000024,115.51269500000035,97.94873000000007,179.61523400000078,110.0,108.7177729999994,122.30761700000039,95.38476599999922,108.46142599999985,107.56396500000028,103.46142599999985,102.94873000000007,107.05126999999993,54.23095699999976
369,56.2822270000006,103.84619099999964,84.23095699999976,165.89746099999957,90.12841800000024,104.61523400000078,110.12841800000024,84.10253900000043,101.15380900000036,101.53857400000015,98.84619099999964,99.61523400000078,99.23095699999976,42.56396500000028
370,48.846190999999635,93.58984400000008,76.2822270000006,158.7177729999994,73.7177729999994,106.2822270000006,105.38476599999922,78.20507799999996,95.12841800000024,95.64111300000059,94.48730499999965,97.30761700000039,94.61523400000078,36.53857400000015
371,55.64111300000059,93.7177729999994,79.74365200000011,163.46142599999985,74.87158199999976,112.30761700000039,112.17968800000017,82.69238299999961,98.84619099999964,96.9228520000006,96.15380900000036,97.94873000000007,99.35888699999941,41.53857400000015
372,71.9228520000006,103.3334960000002,91.6665039999998,175.89746099999957,92.82031300000017,116.9228520000006,125.38476599999922,94.48730499999965,111.6665039999998,105.12841800000024,104.74365200000011,101.15380900000036,111.15380900000036,53.589844000000085
373,85.51269500000035,112.82031300000017,102.94873000000007,186.2822270000006,113.20507799999996,115.76904300000024,135.0,104.87158199999976,124.74365200000011,113.84619099999964,115.38476599999922,104.48730499999965,121.6665039999998,63.0771479999994
374,87.56396500000028,113.9741210000002,106.79492200000004,187.94873000000007,121.53857400000015,110.12841800000024,134.23095699999976,107.69238299999961,127.94873000000007,115.76904300000024,121.79492200000004,106.15380900000036,124.23095699999976,63.7177729999994
375,79.87158199999976,107.17968800000017,103.46142599999985,182.43603499999972,115.12841800000024,105.38476599999922,125.38476599999922,104.23095699999976,118.7177729999994,109.87158199999976,121.0258789999998,105.51269500000035,119.10253900000043,57.17968800000017
376,71.9228520000006,99.87158199999976,98.9741210000002,176.53857400000015,102.17968800000017,107.05126999999993,116.6665039999998,100.76904300000024,103.9741210000002,101.53857400000015,115.12841800000024,103.7177729999994,113.58984400000008,50.76904300000024
377,72.30761700000039,99.48730499999965,98.46142599999985,176.79492200000004,94.35888699999941,115.38476599999922,114.61523400000078,102.43603499999972,95.51269500000035,100.0,109.87158199999976,102.30761700000039,114.48730499999965,50.25634799999989
378,82.17968800000017,106.9228520000006,103.0771479999994,184.7436520000001,96.41015599999992,125.51269500000035,120.12841800000024,108.84619099999964,99.87158199999976,109.74365200000011,110.51269500000035,102.17968800000017,122.82031300000017,56.153809000000365
379,94.61523400000078,116.41015599999992,109.23095699999976,196.0258789999998,103.9741210000002,130.76904300000024,127.43603499999972,115.25634799999989,113.0771479999994,126.41015599999992,117.05126999999993,103.0771479999994,132.3076170000004,63.46142599999985
380,100.76904300000024,120.38476599999922,111.41015599999992,202.82031300000017,108.20507799999996,127.69238299999961,129.87158199999976,116.2822270000006,124.23095699999976,138.3334960000002,123.9741210000002,103.84619099999964,134.7436520000001,66.2822270000006
381,96.0258789999998,114.74365200000011,105.64111300000059,199.10253900000043,103.84619099999964,118.3334960000002,124.10253900000043,110.0,124.61523400000078,135.51269500000035,124.23095699999976,103.46142599999985,126.53857400000015,61.9228520000006
382,84.10253900000043,102.43603499999972,93.3334960000002,185.6411130000006,93.58984400000008,108.84619099999964,113.3334960000002,99.61523400000078,114.10253900000043,118.46142599999985,116.6665039999998,101.53857400000015,111.9228520000006,53.0771479999994
383,74.48730499999965,91.53857400000015,80.89746099999957,171.2822270000006,85.25634799999989,104.61523400000078,104.74365200000011,91.15380900000036,100.25634799999989,97.17968800000017,105.89746099999957,99.35888699999941,100.64111300000059,45.897460999999566
