,EEG.AF3,EEG.F7,EEG.F3,EEG.FC5,EEG.T7,EEG.P7,EEG.O1,EEG.O2,EEG.P8,EEG.T8,EEG.FC6,EEG.F4,EEG.F8,EEG.AF4
0,111.6665039999998,76.2822270000006,130.6411130000006,87.82031300000017,155.89746099999957,121.79492200000004,122.17968800000017,124.61523400000078,123.46142599999985,123.20507799999996,110.89746099999957,115.0,74.74365200000011,124.61523400000078
1,120.25634799999989,82.82031300000017,138.3334960000002,97.82031300000017,190.38476599999922,123.9741210000002,127.56396500000028,135.2563479999999,128.9741210000002,127.94873000000007,121.41015599999992,120.0,78.58984400000008,133.3334960000002
2,120.38476599999922,74.74365200000011,139.3588869999994,102.94873000000007,186.15380900000036,121.53857400000015,127.94873000000007,132.43603499999972,127.05126999999993,130.2563479999999,124.35888699999941,120.51269500000035,77.30761700000039,130.76904300000024
3,110.76904300000024,57.94873000000007,133.0771479999994,97.43603499999972,145.12841800000024,115.51269500000035,122.69238299999961,117.30761700000039,118.0771479999994,131.0258789999998,117.82031300000017,116.2822270000006,71.0258789999998,118.0771479999994
4,96.9228520000006,44.35888699999941,123.58984400000008,83.58984400000008,95.51269500000035,109.35888699999941,113.58984400000008,99.87158199999976,106.0258789999998,129.87158199999976,105.25634799999989,109.74365200000011,62.94873000000007,103.20507799999996
5,86.6665039999998,43.333496000000196,116.2822270000006,68.7177729999994,67.94873000000007,105.51269500000035,104.74365200000011,90.89746099999957,95.76904300000024,126.53857400000015,92.30761700000039,103.84619099999964,56.9228520000006,93.58984400000008
6,83.3334960000002,53.20507799999996,113.7177729999994,59.48730499999965,71.0258789999998,103.84619099999964,99.35888699999941,92.82031300000017,89.74365200000011,121.15380900000036,83.46142599999985,100.38476599999922,54.23095699999976,91.53857400000015
7,85.38476599999922,64.87158199999976,114.87158199999976,59.102539000000434,91.2822270000006,102.69238299999961,98.9741210000002,99.35888699999941,88.3334960000002,115.89746099999957,80.76904300000024,99.10253900000043,54.35888699999941,93.9741210000002
8,89.48730499999965,70.12841800000024,117.94873000000007,66.2822270000006,110.76904300000024,101.41015599999992,103.3334960000002,103.84619099999964,91.41015599999992,113.46142599999985,85.12841800000024,99.61523400000078,57.05126999999993,97.82031300000017
9,93.84619099999964,68.7177729999994,121.15380900000036,76.41015599999992,121.41015599999992,100.64111300000059,110.25634799999989,105.38476599999922,98.46142599999985,114.61523400000078,95.25634799999989,101.6665039999998,62.56396500000028,102.43603499999972
10,98.46142599999985,66.0258789999998,122.43603499999972,83.46142599999985,122.43603499999972,101.2822270000006,116.2822270000006,106.79492200000004,106.0258789999998,115.89746099999957,106.79492200000004,104.74365200000011,70.12841800000024,107.94873000000007
11,102.56396500000028,66.79492200000004,121.0258789999998,83.7177729999994,116.0258789999998,103.46142599999985,117.82031300000017,109.61523400000078,110.0,112.43603499999972,114.87158199999976,107.30761700000039,76.6665039999998,112.30761700000039
12,105.12841800000024,71.41015599999992,118.0771479999994,79.74365200000011,106.9228520000006,106.53857400000015,114.74365200000011,112.17968800000017,108.20507799999996,104.48730499999965,116.53857400000015,108.9741210000002,79.87158199999976,113.9741210000002
13,105.38476599999922,77.69238299999961,115.64111300000059,77.94873000000007,102.43603499999972,109.35888699999941,110.0,111.41015599999992,102.94873000000007,100.25634799999989,112.94873000000007,109.87158199999976,78.46142599999985,112.82031300000017
14,102.17968800000017,81.2822270000006,113.58984400000008,80.51269500000035,107.30761700000039,110.25634799999989,105.38476599999922,104.48730499999965,97.30761700000039,107.30761700000039,105.76904300000024,110.12841800000024,72.05126999999993,108.46142599999985
15,93.84619099999964,77.05126999999993,109.48730499999965,81.41015599999992,119.61523400000078,107.30761700000039,100.76904300000024,90.76904300000024,91.6665039999998,123.3334960000002,96.2822270000006,108.20507799999996,61.53857400000015,99.87158199999976
16,80.25634799999989,64.23095699999976,101.53857400000015,73.3334960000002,131.9228520000006,101.9228520000006,95.0,73.58984400000008,83.0771479999994,136.53857400000015,85.76904300000024,102.56396500000028,50.76904300000024,87.05126999999993
17,66.2822270000006,50.64111300000059,92.05126999999993,57.30761700000039,137.56396500000028,97.30761700000039,88.7177729999994,60.12841800000024,70.12841800000024,136.15380900000036,77.43603499999972,94.74365200000011,46.025878999999804,74.23095699999976
18,58.7177729999994,48.846190999999635,86.2822270000006,43.589844000000085,135.38476599999922,96.6665039999998,84.35888699999941,56.666503999999804,56.410155999999915,121.9228520000006,74.23095699999976,88.46142599999985,51.025878999999804,67.30761700000039
19,62.56396500000028,64.61523400000078,87.82031300000017,42.82031300000017,130.0,99.61523400000078,83.7177729999994,63.46142599999985,48.46142599999985,106.0258789999998,77.82031300000017,87.30761700000039,63.589844000000085,70.64111300000059
20,77.56396500000028,89.87158199999976,95.89746099999957,56.9228520000006,128.9741210000002,103.84619099999964,87.69238299999961,74.48730499999965,51.79492200000004,104.74365200000011,87.30761700000039,92.05126999999993,77.56396500000028,83.46142599999985
21,100.64111300000059,108.9741210000002,108.3334960000002,79.23095699999976,140.89746099999957,108.58984400000008,96.15380900000036,85.76904300000024,68.7177729999994,129.3588869999994,102.56396500000028,100.76904300000024,89.61523400000078,104.10253900000043
22,128.7177729999994,112.94873000000007,123.46142599999985,101.41015599999992,169.61523400000078,115.76904300000024,109.35888699999941,100.0,97.43603499999972,176.53857400000015,124.61523400000078,111.0258789999998,101.0258789999998,131.53857400000015
23,156.79492200000004,105.76904300000024,138.3334960000002,117.43603499999972,206.79492200000004,125.12841800000024,125.51269500000035,120.64111300000059,130.2563479999999,226.2822270000006,150.89746099999957,120.0,112.82031300000017,161.6665039999998
24,175.12841800000024,98.9741210000002,147.56396500000028,121.79492200000004,231.41015599999992,131.41015599999992,138.46142599999985,142.17968800000017,153.46142599999985,250.89746099999957,171.9228520000006,125.25634799999989,120.38476599999922,182.82031300000017
25,174.10253900000043,100.51269500000035,145.12841800000024,110.64111300000059,224.7436520000001,127.82031300000017,141.0258789999998,151.0258789999998,154.23095699999976,235.2563479999999,174.87158199999976,124.74365200000011,114.23095699999976,182.05126999999993
26,152.43603499999972,108.20507799999996,131.0258789999998,87.69238299999961,186.41015599999992,113.20507799999996,130.76904300000024,137.56396500000028,131.0258789999998,190.12841800000024,153.20507799999996,118.7177729999994,88.7177729999994,156.2822270000006
27,121.0258789999998,112.94873000000007,112.30761700000039,64.48730499999965,137.43603499999972,94.74365200000011,113.46142599999985,106.6665039999998,96.2822270000006,145.38476599999922,114.10253900000043,110.25634799999989,51.153809000000365,119.10253900000043
28,97.56396500000028,108.9741210000002,99.61523400000078,52.94873000000007,105.89746099999957,84.10253900000043,99.87158199999976,77.30761700000039,68.46142599999985,127.43603499999972,76.15380900000036,103.7177729999994,19.615234000000783,92.05126999999993
29,94.61523400000078,102.17968800000017,99.87158199999976,56.410155999999915,109.23095699999976,87.69238299999961,97.94873000000007,68.58984400000008,61.2822270000006,139.3588869999994,58.20507799999996,101.9228520000006,10.641113000000587,90.89746099999957
30,111.6665039999998,105.89746099999957,112.56396500000028,69.48730499999965,145.38476599999922,102.82031300000017,108.20507799999996,86.0258789999998,76.79492200000004,161.6665039999998,67.56396500000028,105.38476599999922,27.56396500000028,114.35888699999941
31,136.0258789999998,131.2822270000006,130.2563479999999,83.0771479999994,196.9228520000006,119.10253900000043,123.20507799999996,118.58984400000008,106.6665039999998,172.82031300000017,95.51269500000035,111.9228520000006,60.25634799999989,145.6411130000006
32,151.41015599999992,178.3334960000002,142.56396500000028,90.51269500000035,236.9228520000006,125.64111300000059,132.6923829999996,146.0258789999998,136.0258789999998,167.3076170000004,122.94873000000007,117.94873000000007,92.69238299999961,164.61523400000078
33,147.6923829999996,235.12841800000024,142.43603499999972,88.3334960000002,241.6665039999998,118.20507799999996,130.12841800000024,152.56396500000028,150.38476599999922,156.53857400000015,132.6923829999996,119.61523400000078,111.53857400000015,160.38476599999922
34,127.69238299999961,284.48730499999965,131.15380900000036,77.05126999999993,206.6665039999998,102.17968800000017,117.30761700000039,136.79492200000004,143.20507799999996,153.84619099999964,122.05126999999993,115.51269500000035,113.46142599999985,137.6923829999996
35,105.89746099999957,316.15380900000036,118.0771479999994,61.79492200000004,156.0258789999998,89.87158199999976,103.0771479999994,112.05126999999993,122.17968800000017,162.56396500000028,103.7177729999994,107.94873000000007,106.79492200000004,113.9741210000002
36,95.89746099999957,333.46142599999985,113.46142599999985,47.94873000000007,126.6665039999998,90.38476599999922,95.76904300000024,95.25634799999989,102.94873000000007,175.76904300000024,94.74365200000011,101.6665039999998,105.51269500000035,105.0
37,98.9741210000002,347.6923829999996,118.7177729999994,36.153809000000365,135.6411130000006,101.6665039999998,96.53857400000015,92.94873000000007,97.05126999999993,184.23095699999976,100.0,99.74365200000011,116.53857400000015,113.0771479999994
38,103.0771479999994,369.6152340000008,126.6665039999998,22.17968800000017,166.15380900000036,112.30761700000039,99.35888699999941,98.3334960000002,102.56396500000028,182.56396500000028,109.87158199999976,101.15380900000036,135.6411130000006,126.0258789999998
39,96.9228520000006,406.2822270000006,130.0,5.128418000000238,186.15380900000036,112.30761700000039,100.0,102.30761700000039,110.0,172.43603499999972,112.17968800000017,103.20507799999996,155.6411130000006,131.79492200000004
40,83.3334960000002,463.9741210000002,129.7436520000001,-7.692382999999609,181.53857400000015,103.58984400000008,100.64111300000059,105.12841800000024,114.23095699999976,162.17968800000017,107.17968800000017,104.74365200000011,177.17968800000017,132.05126999999993
41,76.41015599999992,546.6665039999998,133.7177729999994,-6.923095999999987,166.79492200000004,96.79492200000004,107.30761700000039,114.74365200000011,119.10253900000043,160.76904300000024,105.25634799999989,107.69238299999961,206.15380900000036,141.0258789999998
42,86.15380900000036,646.9228520000006,146.41015599999992,6.794922000000042,165.51269500000035,100.38476599999922,121.41015599999992,134.7436520000001,130.0,170.6411130000006,113.84619099999964,112.82031300000017,245.12841800000024,169.10253900000043
43,106.2822270000006,742.5639650000003,163.3334960000002,20.0,185.89746099999957,112.43603499999972,136.53857400000015,156.0258789999998,144.87158199999976,186.15380900000036,128.20507799999996,118.46142599999985,289.10253900000043,211.79492200000004
44,120.38476599999922,807.9487300000001,175.2563479999999,16.794922000000042,217.05126999999993,123.7177729999994,144.10253900000043,164.7436520000001,154.3588869999994,199.48730499999965,136.41015599999992,120.38476599999922,329.48730499999965,254.87158199999976
45,116.2822270000006,833.8461909999996,176.2822270000006,-7.564209000000574,238.9741210000002,126.15380900000036,140.0,153.84619099999964,151.41015599999992,206.15380900000036,130.12841800000024,116.41015599999992,359.3588869999994,287.82031300000017
46,94.35888699999941,835.7690430000002,169.10253900000043,-42.69238299999961,234.61523400000078,118.20507799999996,126.41015599999992,129.10253900000043,136.6665039999998,204.3588869999994,111.2822270000006,108.0771479999994,377.05126999999993,309.23095699999976
47,65.64111300000059,841.0258789999998,161.2822270000006,-70.51293900000019,199.3588869999994,106.2822270000006,110.25634799999989,102.69238299999961,116.6665039999998,191.2822270000006,88.84619099999964,99.87158199999976,384.7436520000001,323.84619099999964
48,44.35888699999941,867.6923829999996,160.2563479999999,-77.17944299999999,149.23095699999976,99.35888699999941,98.58984400000008,86.2822270000006,98.58984400000008,165.51269500000035,72.56396500000028,96.15380900000036,388.7177729999994,336.0258789999998
49,39.35888699999941,911.9228520000006,168.9741210000002,-58.58984399999963,114.10253900000043,102.94873000000007,96.15380900000036,85.25634799999989,87.94873000000007,134.23095699999976,67.43603499999972,98.46142599999985,396.79492200000004,348.84619099999964
50,49.61523400000078,957.0512699999999,184.23095699999976,-20.641113000000132,114.61523400000078,114.61523400000078,103.20507799999996,97.05126999999993,87.43603499999972,112.94873000000007,71.53857400000015,105.0,414.7436520000001,362.4360349999997
51,66.15380900000036,991.9228520000006,198.9741210000002,24.230956999999762,146.15380900000036,126.2822270000006,115.0,113.7177729999994,96.2822270000006,116.79492200000004,78.20507799999996,111.79492200000004,443.7177729999994,375.6411130000006
52,79.87158199999976,1020.1284180000002,207.05126999999993,63.974121000000196,184.7436520000001,130.76904300000024,125.89746099999957,127.30761700000039,111.15380900000036,147.05126999999993,81.41015599999992,115.89746099999957,478.20507799999996,386.79492200000004
53,87.94873000000007,1052.3076170000004,207.43603499999972,91.2822270000006,209.3588869999994,128.3334960000002,131.79492200000004,133.7177729999994,128.20507799999996,187.94873000000007,79.61523400000078,116.9228520000006,509.10253900000043,395.3847659999992
54,91.6665039999998,1088.4614259999998,203.46142599999985,104.61523400000078,212.56396500000028,124.35888699999941,131.53857400000015,132.6923829999996,141.9228520000006,215.6411130000006,73.9741210000002,116.53857400000015,526.9228520000006,399.7436520000001
55,91.2822270000006,1113.205078,198.3334960000002,103.46142599999985,199.23095699999976,123.7177729999994,125.51269500000035,124.87158199999976,145.51269500000035,214.23095699999976,64.61523400000078,115.51269500000035,527.4360349999997,396.6665039999998
56,84.87158199999976,1110.3847659999992,193.58984400000008,88.3334960000002,181.6665039999998,126.41015599999992,115.64111300000059,112.56396500000028,134.87158199999976,185.38476599999922,50.897460999999566,113.3334960000002,517.1796880000002,384.87158199999976
57,72.30761700000039,1082.6923829999996,189.87158199999976,65.25634799999989,175.51269500000035,128.58984400000008,105.38476599999922,100.0,113.58984400000008,145.76904300000024,35.25634799999989,110.12841800000024,509.7436520000001,367.6923829999996
58,59.102539000000434,1055.6411130000006,189.48730499999965,47.17968800000017,189.3588869999994,126.2822270000006,99.48730499999965,92.94873000000007,92.30761700000039,115.51269500000035,23.717772999999397,107.56396500000028,517.6923829999996,353.84619099999964
59,53.7177729999994,1058.7177729999994,194.7436520000001,46.79492200000004,214.3588869999994,120.0,100.25634799999989,94.23095699999976,83.0771479999994,107.43603499999972,21.666503999999804,107.43603499999972,543.0771479999994,350.89746099999957
60,60.76904300000024,1100.1284180000002,205.38476599999922,65.89746099999957,227.3076170000004,113.46142599999985,106.53857400000015,102.69238299999961,90.89746099999957,124.10253900000043,30.128418000000238,110.64111300000059,577.5639650000003,360.6411130000006
61,77.05126999999993,1158.0771479999994,218.3334960000002,93.9741210000002,211.79492200000004,111.15380900000036,114.35888699999941,113.84619099999964,110.25634799999989,158.84619099999964,45.0,115.64111300000059,607.9487300000001,377.3076170000004
62,93.0771479999994,1198.9741210000002,228.20507799999996,116.79492200000004,178.20507799999996,113.9741210000002,120.76904300000024,124.10253900000043,129.48730499999965,197.17968800000017,59.61523400000078,119.61523400000078,625.3847659999992,391.53857400000015
63,100.0,1206.410156,230.89746099999957,126.9228520000006,158.3334960000002,119.23095699999976,123.46142599999985,130.51269500000035,137.94873000000007,221.15380900000036,67.30761700000039,120.51269500000035,628.8461909999996,395.6411130000006
64,95.25634799999989,1189.743652,225.76904300000024,125.51269500000035,174.7436520000001,122.94873000000007,121.53857400000015,130.38476599999922,132.6923829999996,217.17968800000017,64.10253900000043,118.20507799999996,623.9741210000002,388.46142599999985
65,84.23095699999976,1170.3847659999992,216.6665039999998,117.43603499999972,217.43603499999972,122.94873000000007,115.64111300000059,122.69238299999961,120.0,187.05126999999993,51.2822270000006,114.48730499999965,618.5898440000001,375.51269500000035
66,76.2822270000006,1162.1796880000002,210.0,106.79492200000004,252.94873000000007,120.38476599999922,110.64111300000059,112.30761700000039,111.2822270000006,151.0258789999998,37.17968800000017,112.82031300000017,619.8715819999998,366.15380900000036
67,78.84619099999964,1164.6152340000008,211.0258789999998,97.82031300000017,258.9741210000002,119.35888699999941,112.43603499999972,109.48730499999965,115.89746099999957,135.6411130000006,33.846190999999635,115.89746099999957,632.9487300000001,368.7177729999994
68,92.17968800000017,1171.0258789999998,219.23095699999976,93.3334960000002,244.23095699999976,123.0771479999994,122.94873000000007,121.2822270000006,133.9741210000002,153.58984400000008,47.17968800000017,123.58984400000008,656.1538090000004,383.0771479999994
69,106.6665039999998,1176.6665039999998,227.6923829999996,92.94873000000007,231.9228520000006,130.2563479999999,136.0258789999998,142.43603499999972,155.12841800000024,191.0258789999998,68.58984400000008,131.53857400000015,678.7177729999994,398.84619099999964
70,109.35888699999941,1180.7690430000002,226.6665039999998,91.15380900000036,231.9228520000006,136.2822270000006,141.41015599999992,156.79492200000004,164.48730499999965,218.46142599999985,79.87158199999976,133.7177729999994,686.9228520000006,401.53857400000015
71,93.84619099999964,1183.205078,212.56396500000028,82.43603499999972,233.46142599999985,137.3076170000004,132.56396500000028,149.48730499999965,153.0771479999994,213.58984400000008,66.53857400000015,127.30761700000039,674.3588869999994,383.0771479999994
72,65.0,1181.1538090000004,190.38476599999922,66.53857400000015,223.84619099999964,132.43603499999972,113.0771479999994,119.87158199999976,123.3334960000002,177.3076170000004,30.769043000000238,115.0,647.1796880000002,348.5898440000001
73,36.2822270000006,1172.05127,171.2822270000006,49.61523400000078,204.10253900000043,124.23095699999976,93.20507799999996,82.69238299999961,87.94873000000007,131.6665039999998,-8.974365000000034,102.82031300000017,619.6152340000008,313.20507799999996
74,20.897460999999566,1160.256348,163.84619099999964,38.7177729999994,188.0771479999994,116.41015599999992,83.0771479999994,58.0771479999994,62.94873000000007,102.94873000000007,-31.025634999999966,96.79492200000004,605.6411130000006,292.17968800000017
75,24.74365200000011,1156.6665039999998,169.61523400000078,37.82031300000017,188.7177729999994,112.56396500000028,86.79492200000004,59.23095699999976,59.61523400000078,106.2822270000006,-25.0,100.0,612.1796880000002,291.9228520000006
76,43.46142599999985,1168.589844,182.56396500000028,45.12841800000024,207.6923829999996,114.61523400000078,100.89746099999957,83.84619099999964,78.58984400000008,137.43603499999972,2.3076170000003913,109.61523400000078,636.1538090000004,306.9228520000006
77,64.74365200000011,1188.8461909999996,193.46142599999985,55.12841800000024,233.7177729999994,121.41015599999992,116.53857400000015,116.0258789999998,109.10253900000043,176.53857400000015,31.282227000000603,119.61523400000078,664.2309569999998,323.7177729999994
78,75.51269500000035,1198.8461909999996,195.38476599999922,60.51269500000035,249.23095699999976,128.84619099999964,125.38476599999922,136.9228520000006,134.7436520000001,200.0,43.0771479999994,124.10253900000043,680.0,329.6152340000008
79,70.25634799999989,1185.1284180000002,187.94873000000007,57.94873000000007,245.6411130000006,132.82031300000017,124.74365200000011,137.3076170000004,144.7436520000001,196.15380900000036,31.538574000000153,121.41015599999992,674.8715819999998,320.3847659999992
80,55.25634799999989,1154.4873049999997,177.6923829999996,50.12841800000024,231.9228520000006,131.53857400000015,118.7177729999994,123.58984400000008,139.10253900000043,173.0771479999994,7.56396500000028,115.25634799999989,656.2822270000006,302.82031300000017
81,42.69238299999961,1131.0258789999998,172.3076170000004,44.61523400000078,226.9228520000006,126.6665039999998,114.10253900000043,110.38476599999922,126.2822270000006,151.0258789999998,-10.1281740000004,110.89746099999957,641.5385740000002,289.23095699999976
82,41.2822270000006,1133.589844,174.23095699999976,45.64111300000059,238.3334960000002,121.41015599999992,114.74365200000011,107.94873000000007,115.89746099999957,145.38476599999922,-10.641113000000132,111.15380900000036,641.794922,287.4360349999997
83,50.12841800000024,1156.5385740000002,180.0,48.974121000000196,254.10253900000043,118.9741210000002,118.84619099999964,115.12841800000024,112.30761700000039,155.6411130000006,2.6923829999996087,114.61523400000078,653.9741210000002,295.89746099999957
84,60.64111300000059,1172.3076170000004,183.46142599999985,46.79492200000004,255.38476599999922,120.89746099999957,121.53857400000015,123.46142599999985,115.0,168.9741210000002,16.538574000000153,118.3334960000002,665.5126950000003,305.76904300000024
85,63.974121000000196,1155.8974609999996,181.53857400000015,37.30761700000039,236.6665039999998,125.25634799999989,119.35888699999941,124.87158199999976,120.0,171.6665039999998,18.461425999999847,119.48730499999965,664.4873049999997,308.3334960000002
86,57.82031300000017,1110.0,175.76904300000024,27.43603499999972,212.82031300000017,128.7177729999994,113.46142599999985,118.7177729999994,122.82031300000017,159.23095699999976,5.3847659999992175,117.43603499999972,649.3588869999994,300.6411130000006
87,49.23095699999976,1065.256348,170.76904300000024,27.94873000000007,206.53857400000015,130.12841800000024,108.7177729999994,112.30761700000039,123.0771479999994,139.23095699999976,-12.307617000000391,114.35888699999941,631.2822270000006,289.10253900000043
88,48.846190999999635,1053.3334960000002,171.6665039999998,42.56396500000028,228.58984400000008,131.53857400000015,110.64111300000059,114.35888699999941,123.46142599999985,126.6665039999998,-19.10253899999998,113.9741210000002,626.1538090000004,284.23095699999976
89,59.87158199999976,1078.7177729999994,178.3334960000002,63.0771479999994,267.4360349999997,134.7436520000001,119.87158199999976,126.53857400000015,125.51269500000035,132.82031300000017,-6.923095999999987,117.82031300000017,640.3847659999992,290.6411130000006
90,72.56396500000028,1114.743652,185.0,74.74365200000011,294.87158199999976,137.82031300000017,129.61523400000078,138.7177729999994,125.38476599999922,155.38476599999922,15.512695000000349,122.56396500000028,663.4614259999998,300.76904300000024
91,72.43603499999972,1127.6923829999996,183.58984400000008,68.58984400000008,287.3076170000004,135.2563479999999,131.0258789999998,137.56396500000028,116.9228520000006,178.58984400000008,28.846190999999635,122.94873000000007,674.7436520000001,300.76904300000024
92,55.0,1104.743652,172.94873000000007,49.23095699999976,243.46142599999985,124.61523400000078,121.6665039999998,119.23095699999976,100.38476599999922,185.38476599999922,20.51269500000035,116.9228520000006,661.9228520000006,283.84619099999964
93,31.922852000000603,1062.94873,160.51269500000035,31.153809000000365,187.6923829999996,110.89746099999957,108.46142599999985,94.87158199999976,86.0258789999998,170.89746099999957,-3.077147999999397,108.46142599999985,633.205078,258.84619099999964
94,22.43603499999972,1032.8203130000002,156.41015599999992,28.077147999999397,156.79492200000004,104.48730499999965,102.30761700000039,83.46142599999985,87.05126999999993,148.0771479999994,-20.641113000000132,104.74365200000011,611.5385740000002,244.48730499999965
95,37.17968800000017,1034.6152340000008,164.87158199999976,44.87158199999976,176.53857400000015,112.17968800000017,109.48730499999965,96.9228520000006,108.58984400000008,136.41015599999992,-13.076904000000013,109.48730499999965,616.5385740000002,253.46142599999985
96,69.48730499999965,1062.94873,181.9228520000006,74.61523400000078,242.94873000000007,131.0258789999998,127.17968800000017,130.51269500000035,142.43603499999972,146.15380900000036,20.51269500000035,120.51269500000035,647.5639650000003,282.4360349999997
97,100.89746099999957,1092.3076170000004,197.6923829999996,103.58984400000008,321.4101559999999,150.0,145.76904300000024,166.2822270000006,171.9228520000006,169.61523400000078,62.17968800000017,131.2822270000006,684.1025390000004,313.7177729999994
98,113.9741210000002,1096.9228520000006,203.9741210000002,118.7177729999994,368.46142599999985,157.6923829999996,155.2563479999999,185.0,183.20507799999996,187.56396500000028,87.82031300000017,135.6411130000006,701.6665039999998,327.94873000000007
99,103.20507799999996,1069.8715819999998,197.6923829999996,115.12841800000024,358.3334960000002,150.76904300000024,151.15380900000036,177.82031300000017,173.0771479999994,185.12841800000024,84.35888699999941,131.53857400000015,690.0,316.4101559999999
100,77.30761700000039,1025.7690430000002,182.82031300000017,98.46142599999985,300.6411130000006,135.6411130000006,136.41015599999992,151.15380900000036,149.10253900000043,162.17968800000017,58.20507799999996,121.79492200000004,658.205078,286.15380900000036
101,52.43603499999972,987.9487300000001,166.79492200000004,80.89746099999957,233.0771479999994,123.3334960000002,119.48730499999965,120.76904300000024,123.20507799999996,131.0258789999998,28.717772999999397,112.30761700000039,625.6411130000006,254.48730499999965
102,41.53857400000015,971.2822270000006,156.6665039999998,74.74365200000011,194.3588869999994,121.15380900000036,108.20507799999996,101.0258789999998,105.12841800000024,106.9228520000006,14.102539000000434,108.3334960000002,606.6665039999998,237.82031300000017
103,47.17968800000017,975.3847659999992,155.12841800000024,85.89746099999957,199.3588869999994,127.82031300000017,105.38476599999922,96.79492200000004,98.0771479999994,99.87158199999976,19.74365200000011,111.53857400000015,602.9487300000001,240.89746099999957
104,62.30761700000039,988.205078,160.51269500000035,110.38476599999922,234.23095699999976,135.89746099999957,108.46142599999985,103.0771479999994,100.51269500000035,110.25634799999989,37.94873000000007,118.0771479999994,606.4101559999999,256.4101559999999
105,77.05126999999993,997.1796880000002,168.46142599999985,137.43603499999972,271.9228520000006,138.58984400000008,113.58984400000008,111.9228520000006,107.56396500000028,129.23095699999976,56.2822270000006,123.3334960000002,607.1796880000002,272.05126999999993
106,85.76904300000024,997.8203130000002,174.87158199999976,155.51269500000035,292.3076170000004,134.7436520000001,117.43603499999972,117.94873000000007,114.87158199999976,144.23095699999976,66.9228520000006,124.48730499999965,601.2822270000006,279.48730499999965
107,88.3334960000002,995.0,177.82031300000017,160.76904300000024,291.15380900000036,129.87158199999976,119.23095699999976,120.0,119.10253900000043,147.82031300000017,70.0,122.69238299999961,591.0258789999998,277.94873000000007
108,87.17968800000017,998.3334960000002,177.82031300000017,158.20507799999996,275.51269500000035,129.61523400000078,118.84619099999964,119.23095699999976,119.35888699999941,142.56396500000028,70.0,120.76904300000024,579.8715819999998,271.53857400000015
109,84.87158199999976,1014.3588869999994,177.43603499999972,157.05126999999993,255.12841800000024,135.51269500000035,117.69238299999961,117.56396500000028,117.69238299999961,135.76904300000024,71.41015599999992,120.12841800000024,569.2309569999998,265.2563479999999
110,83.3334960000002,1041.410156,179.87158199999976,162.43603499999972,235.76904300000024,143.7177729999994,116.9228520000006,116.41015599999992,117.69238299999961,132.43603499999972,75.51269500000035,121.2822270000006,557.6923829999996,262.3076170000004
111,83.7177729999994,1068.8461909999996,186.41015599999992,171.9228520000006,218.84619099999964,148.9741210000002,117.43603499999972,116.79492200000004,121.79492200000004,132.05126999999993,81.6665039999998,123.58984400000008,543.5898440000001,263.0771479999994
112,85.76904300000024,1083.0771479999994,194.48730499999965,178.46142599999985,203.9741210000002,148.46142599999985,118.84619099999964,117.30761700000039,127.43603499999972,130.0,87.56396500000028,125.25634799999989,525.3847659999992,265.2563479999999
113,87.30761700000039,1076.5385740000002,199.61523400000078,176.41015599999992,191.53857400000015,143.0771479999994,118.84619099999964,115.25634799999989,127.82031300000017,122.43603499999972,89.74365200000011,124.35888699999941,501.79492200000004,264.3588869999994
114,86.79492200000004,1053.8461909999996,199.3588869999994,167.17968800000017,185.12841800000024,136.9228520000006,115.25634799999989,108.84619099999964,118.0771479999994,110.0,86.79492200000004,120.25634799999989,473.84619099999964,257.4360349999997
115,85.64111300000059,1030.0,197.3076170000004,159.61523400000078,189.23095699999976,134.61523400000078,109.10253900000043,100.76904300000024,102.94873000000007,99.87158199999976,81.9228520000006,116.0258789999998,446.2822270000006,246.79492200000004
116,88.0771479999994,1021.0258789999998,199.48730499999965,163.7177729999994,204.61523400000078,138.20507799999996,105.0,96.6665039999998,92.94873000000007,100.51269500000035,81.79492200000004,115.64111300000059,426.0258789999998,239.7436520000001
117,96.15380900000036,1032.6923829999996,208.7177729999994,182.6923829999996,224.10253900000043,145.38476599999922,106.79492200000004,100.12841800000024,95.64111300000059,113.3334960000002,90.76904300000024,120.25634799999989,416.53857400000015,241.53857400000015
118,107.69238299999961,1057.3076170000004,221.15380900000036,210.12841800000024,236.6665039999998,151.0258789999998,114.10253900000043,109.48730499999965,108.20507799999996,130.0,106.6665039999998,127.05126999999993,414.10253900000043,249.3588869999994
119,118.7177729999994,1079.8715819999998,229.48730499999965,235.0,235.89746099999957,151.0258789999998,123.58984400000008,120.12841800000024,122.05126999999993,140.0,122.69238299999961,131.15380900000036,409.7436520000001,254.3588869999994
120,126.2822270000006,1088.9741210000002,228.58984400000008,250.0,226.41015599999992,145.0,131.15380900000036,128.7177729999994,130.89746099999957,139.61523400000078,133.3334960000002,129.61523400000078,396.0258789999998,248.46142599999985
121,129.7436520000001,1082.3076170000004,218.7177729999994,255.0,218.20507799999996,136.79492200000004,134.87158199999976,133.46142599999985,133.84619099999964,132.82031300000017,137.05126999999993,124.10253900000043,371.6665039999998,229.7436520000001
122,127.94873000000007,1065.3847659999992,203.9741210000002,254.61523400000078,215.12841800000024,131.15380900000036,133.3334960000002,133.7177729999994,131.6665039999998,125.64111300000059,134.7436520000001,118.46142599999985,340.0,200.6411130000006
123,119.74365200000011,1044.1025390000004,188.3334960000002,253.3334960000002,209.48730499999965,129.7436520000001,126.15380900000036,128.0771479999994,122.82031300000017,118.3334960000002,126.9228520000006,115.38476599999922,305.76904300000024,165.6411130000006
124,106.15380900000036,1022.4360349999997,175.51269500000035,254.7436520000001,191.9228520000006,131.53857400000015,115.89746099999957,117.43603499999972,106.6665039999998,108.0771479999994,115.76904300000024,114.87158199999976,273.9741210000002,130.51269500000035
125,94.10253900000043,1003.4614259999998,168.84619099999964,262.82031300000017,165.12841800000024,134.48730499999965,107.82031300000017,106.2822270000006,88.84619099999964,94.35888699999941,107.30761700000039,115.38476599999922,251.15380900000036,103.3334960000002
126,92.82031300000017,989.2309569999998,170.76904300000024,280.51269500000035,142.82031300000017,137.3076170000004,107.30761700000039,101.9228520000006,80.12841800000024,82.43603499999972,108.84619099999964,116.6665039999998,242.17968800000017,91.6665039999998
127,106.0258789999998,979.1025390000004,180.12841800000024,305.76904300000024,136.79492200000004,139.7436520000001,115.25634799999989,108.0771479999994,87.94873000000007,78.0771479999994,122.82031300000017,119.48730499999965,246.53857400000015,95.0
128,126.41015599999992,968.5898440000001,191.0258789999998,330.0,144.87158199999976,140.6411130000006,126.2822270000006,120.89746099999957,107.94873000000007,81.53857400000015,142.43603499999972,123.58984400000008,255.2563479999999,103.58984400000008
129,140.38476599999922,952.0512699999999,195.89746099999957,343.5898440000001,153.3334960000002,138.0771479999994,132.3076170000004,129.48730499999965,125.0,85.89746099999957,155.38476599999922,126.9228520000006,256.79492200000004,105.25634799999989
130,138.46142599999985,927.6923829999996,191.0258789999998,345.12841800000024,150.12841800000024,132.6923829999996,128.3334960000002,125.0,125.0,84.48730499999965,153.58984400000008,126.79492200000004,245.51269500000035,94.74365200000011
131,123.9741210000002,899.8715819999998,180.6411130000006,344.23095699999976,134.87158199999976,128.0771479999994,116.79492200000004,108.9741210000002,107.30761700000039,77.94873000000007,140.6411130000006,123.20507799999996,226.53857400000015,78.46142599999985
132,111.2822270000006,877.1796880000002,173.9741210000002,354.3588869999994,119.48730499999965,128.9741210000002,106.79492200000004,94.10253900000043,87.69238299999961,73.84619099999964,129.7436520000001,119.35888699999941,211.2822270000006,68.3334960000002
133,113.58984400000008,864.2309569999998,178.0771479999994,379.7436520000001,117.30761700000039,136.79492200000004,106.79492200000004,94.48730499999965,85.0,78.84619099999964,133.20507799999996,119.23095699999976,207.94873000000007,71.15380900000036
134,131.2822270000006,857.5639650000003,191.0258789999998,410.6411130000006,131.79492200000004,146.9228520000006,117.30761700000039,111.6665039999998,104.48730499999965,90.51269500000035,151.53857400000015,123.58984400000008,216.41015599999992,81.0258789999998
135,151.9228520000006,845.6411130000006,203.20507799999996,431.15380900000036,152.94873000000007,152.17968800000017,130.12841800000024,133.3334960000002,132.43603499999972,100.64111300000059,172.82031300000017,129.87158199999976,228.7177729999994,84.48730499999965
136,160.89746099999957,818.8461909999996,205.38476599999922,431.2822270000006,167.05126999999993,148.46142599999985,135.51269500000035,142.94873000000007,147.94873000000007,102.17968800000017,183.58984400000008,133.58984400000008,236.15380900000036,71.9228520000006
137,153.84619099999964,776.5385740000002,196.15380900000036,413.3334960000002,168.20507799999996,138.9741210000002,129.10253900000043,133.84619099999964,140.38476599999922,94.87158199999976,179.48730499999965,131.9228520000006,235.89746099999957,46.410155999999915
138,138.9741210000002,727.9487300000001,182.56396500000028,389.23095699999976,161.41015599999992,130.6411130000006,115.38476599999922,113.84619099999964,116.53857400000015,85.0,167.94873000000007,126.0258789999998,231.6665039999998,21.025878999999804
139,129.10253900000043,685.2563479999999,173.7177729999994,370.6411130000006,154.61523400000078,129.23095699999976,102.82031300000017,97.05126999999993,94.74365200000011,78.58984400000008,161.2822270000006,120.38476599999922,228.84619099999964,8.589844000000085
140,130.76904300000024,654.4873049999997,174.48730499999965,362.3076170000004,150.51269500000035,134.10253900000043,98.0771479999994,93.46142599999985,89.48730499999965,77.69238299999961,166.2822270000006,118.7177729999994,229.7436520000001,12.948730000000069
141,141.2822270000006,632.9487300000001,182.94873000000007,361.0258789999998,145.76904300000024,140.76904300000024,102.30761700000039,102.30761700000039,101.9228520000006,79.48730499999965,180.6411130000006,121.79492200000004,232.17968800000017,27.05126999999993
142,152.05126999999993,613.4614259999998,193.58984400000008,361.0258789999998,136.6665039999998,143.9741210000002,110.51269500000035,115.64111300000059,120.51269500000035,79.74365200000011,195.6411130000006,126.6665039999998,231.41015599999992,39.48730499999965
143,156.6665039999998,589.7436520000001,202.05126999999993,358.9741210000002,123.7177729999994,142.05126999999993,116.9228520000006,124.74365200000011,132.17968800000017,76.53857400000015,203.20507799999996,129.87158199999976,223.84619099999964,43.46142599999985
144,154.87158199999976,560.7690430000002,207.56396500000028,354.87158199999976,112.56396500000028,137.05126999999993,118.84619099999964,125.89746099999957,131.15380900000036,71.41015599999992,201.6665039999998,130.38476599999922,210.2563479999999,40.25634799999989
145,150.89746099999957,529.6152340000008,211.9228520000006,350.2563479999999,107.56396500000028,132.17968800000017,117.05126999999993,121.2822270000006,122.05126999999993,67.69238299999961,195.0,128.9741210000002,192.94873000000007,35.51269500000035
146,148.46142599999985,500.2563479999999,216.0258789999998,345.6411130000006,108.9741210000002,129.61523400000078,114.10253900000043,115.76904300000024,113.20507799999996,67.30761700000039,188.58984400000008,127.30761700000039,174.87158199999976,33.20507799999996
147,148.46142599999985,474.23095699999976,219.87158199999976,340.12841800000024,112.69238299999961,129.10253900000043,112.05126999999993,112.69238299999961,110.64111300000059,70.12841800000024,185.12841800000024,126.53857400000015,158.20507799999996,32.30761700000039
148,149.87158199999976,451.79492200000004,223.0771479999994,333.9741210000002,115.38476599999922,130.0,111.53857400000015,112.56396500000028,115.0,76.79492200000004,184.61523400000078,126.6665039999998,145.2563479999999,30.51269500000035
149,152.6923829999996,432.05126999999993,226.15380900000036,328.9741210000002,115.76904300000024,131.9228520000006,112.30761700000039,114.10253900000043,123.84619099999964,87.69238299999961,186.6665039999998,127.69238299999961,139.23095699999976,28.846190999999635
150,157.6923829999996,413.7177729999994,229.3588869999994,326.4101559999999,114.10253900000043,135.38476599999922,113.9741210000002,116.9228520000006,133.20507799999996,101.15380900000036,190.89746099999957,129.23095699999976,142.6923829999996,30.897460999999566
151,164.10253900000043,394.87158199999976,231.0258789999998,325.51269500000035,111.53857400000015,139.3588869999994,116.2822270000006,120.64111300000059,138.7177729999994,111.6665039999998,196.6665039999998,131.0258789999998,153.9741210000002,37.82031300000017
152,167.94873000000007,373.3334960000002,228.0771479999994,324.23095699999976,110.12841800000024,141.9228520000006,118.7177729999994,124.10253900000043,137.43603499999972,112.17968800000017,201.41015599999992,131.79492200000004,166.53857400000015,45.64111300000059
153,164.61523400000078,348.3334960000002,218.0771479999994,320.51269500000035,110.76904300000024,141.15380900000036,120.25634799999989,125.12841800000024,129.7436520000001,100.76904300000024,201.2822270000006,129.61523400000078,173.0771479999994,48.20507799999996
154,153.46142599999985,321.0258789999998,201.9228520000006,314.3588869999994,111.53857400000015,137.17968800000017,119.61523400000078,121.6665039999998,119.35888699999941,82.56396500000028,194.7436520000001,124.35888699999941,170.2563479999999,42.56396500000028
155,139.10253900000043,294.23095699999976,184.87158199999976,306.53857400000015,108.46142599999985,132.94873000000007,116.6665039999998,115.76904300000024,112.30761700000039,67.43603499999972,184.10253900000043,118.0771479999994,161.15380900000036,31.922852000000603
156,128.9741210000002,270.51269500000035,173.3334960000002,297.94873000000007,100.0,131.79492200000004,113.58984400000008,111.6665039999998,112.43603499999972,62.05126999999993,174.48730499999965,114.10253900000043,152.3076170000004,23.333496000000196
157,127.56396500000028,250.89746099999957,170.76904300000024,289.7436520000001,90.51269500000035,133.9741210000002,113.20507799999996,112.17968800000017,117.82031300000017,65.0,170.12841800000024,114.10253900000043,148.58984400000008,21.410155999999915
158,133.0771479999994,234.48730499999965,174.3588869999994,282.6923829999996,87.94873000000007,136.2822270000006,116.15380900000036,115.51269500000035,122.30761700000039,69.74365200000011,171.15380900000036,116.2822270000006,150.12841800000024,25.384765999999217
159,139.3588869999994,220.12841800000024,178.58984400000008,277.82031300000017,97.56396500000028,136.0258789999998,120.38476599999922,117.94873000000007,121.0258789999998,71.2822270000006,174.61523400000078,118.3334960000002,153.7177729999994,31.282227000000603
160,141.53857400000015,207.82031300000017,179.3588869999994,274.23095699999976,117.05126999999993,133.58984400000008,123.58984400000008,117.82031300000017,114.87158199999976,69.87158199999976,176.9228520000006,118.9741210000002,155.51269500000035,35.64111300000059
161,139.23095699999976,198.58984400000008,176.6665039999998,269.7436520000001,137.6923829999996,131.9228520000006,125.38476599999922,117.30761700000039,109.87158199999976,68.58984400000008,177.56396500000028,118.7177729999994,154.10253900000043,38.333496000000196
162,135.6411130000006,192.17968800000017,172.6923829999996,261.79492200000004,148.0771479999994,133.20507799999996,125.76904300000024,119.23095699999976,111.0258789999998,69.35888699999941,177.3076170000004,118.20507799999996,151.0258789999998,40.38476599999922
163,132.17968800000017,183.9741210000002,167.82031300000017,249.3588869999994,140.6411130000006,135.12841800000024,124.23095699999976,122.56396500000028,116.15380900000036,69.10253900000043,176.2822270000006,117.43603499999972,147.3076170000004,41.2822270000006
164,126.6665039999998,167.6923829999996,160.38476599999922,233.9741210000002,115.51269500000035,133.7177729999994,119.48730499999965,122.17968800000017,117.56396500000028,63.46142599999985,171.41015599999992,115.25634799999989,140.89746099999957,37.82031300000017
165,116.0258789999998,139.87158199999976,150.38476599999922,218.9741210000002,82.30761700000039,127.17968800000017,111.79492200000004,114.48730499999965,109.23095699999976,51.153809000000365,159.87158199999976,110.38476599999922,128.9741210000002,27.43603499999972
166,101.6665039999998,104.74365200000011,140.38476599999922,208.7177729999994,56.2822270000006,118.58984400000008,103.84619099999964,101.79492200000004,93.58984400000008,37.30761700000039,143.7177729999994,103.9741210000002,112.94873000000007,12.307617000000391
167,89.61523400000078,73.20507799999996,135.2563479999999,205.51269500000035,50.12841800000024,114.10253900000043,100.12841800000024,91.9228520000006,81.0258789999998,31.794922000000042,129.7436520000001,99.35888699999941,99.10253900000043,-0.38476599999921746
168,86.9228520000006,55.51269500000035,138.0771479999994,208.46142599999985,65.38476599999922,117.56396500000028,103.0771479999994,92.05126999999993,81.6665039999998,41.79492200000004,125.76904300000024,99.61523400000078,94.23095699999976,-2.6923829999996087
169,96.15380900000036,54.61523400000078,147.17968800000017,213.9741210000002,91.15380900000036,126.41015599999992,112.30761700000039,103.46142599999985,97.30761700000039,64.61523400000078,133.84619099999964,105.0,99.35888699999941,8.077147999999397
170,112.17968800000017,63.333496000000196,156.6665039999998,218.46142599999985,111.53857400000015,134.10253900000043,123.84619099999964,120.76904300000024,118.7177729999994,87.82031300000017,148.7177729999994,112.43603499999972,108.7177729999994,25.897460999999566
171,125.76904300000024,68.20507799999996,160.2563479999999,219.87158199999976,116.79492200000004,135.12841800000024,132.3076170000004,135.0,132.94873000000007,97.82031300000017,160.89746099999957,117.69238299999961,112.69238299999961,40.64111300000059
172,129.3588869999994,58.46142599999985,156.0258789999998,218.0771479999994,109.48730499999965,129.48730499999965,134.10253900000043,140.12841800000024,132.43603499999972,90.51269500000035,163.7177729999994,118.46142599999985,104.74365200000011,44.35888699999941
173,122.05126999999993,34.102539000000434,147.17968800000017,214.48730499999965,101.41015599999992,122.43603499999972,129.87158199999976,136.2822270000006,120.89746099999957,72.43603499999972,156.9228520000006,115.76904300000024,86.41015599999992,36.2822270000006
174,109.48730499999965,4.743652000000111,140.2563479999999,210.51269500000035,103.3334960000002,120.51269500000035,124.10253900000043,129.7436520000001,109.48730499999965,56.153809000000365,146.15380900000036,112.82031300000017,67.43603499999972,23.717772999999397
175,99.74365200000011,-17.69238299999961,139.10253900000043,206.53857400000015,116.53857400000015,125.64111300000059,121.15380900000036,127.17968800000017,108.0771479999994,51.53857400000015,138.3334960000002,111.79492200000004,57.94873000000007,16.025878999999804
176,97.69238299999961,-28.333252000000357,143.0771479999994,202.17968800000017,130.6411130000006,134.10253900000043,122.94873000000007,131.15380900000036,117.30761700000039,59.48730499999965,136.9228520000006,112.69238299999961,60.64111300000059,17.69238299999961
177,101.9228520000006,-32.17944299999999,148.0771479999994,197.3076170000004,131.79492200000004,138.84619099999964,127.05126999999993,137.3076170000004,129.23095699999976,73.20507799999996,140.0,113.7177729999994,69.35888699999941,25.128418000000238
178,106.79492200000004,-38.71801800000003,149.7436520000001,192.56396500000028,114.23095699999976,135.76904300000024,128.9741210000002,138.84619099999964,133.84619099999964,82.94873000000007,141.9228520000006,113.7177729999994,73.9741210000002,31.153809000000365
179,106.6665039999998,-53.71801800000003,146.6665039999998,188.7177729999994,86.15380900000036,126.2822270000006,126.0258789999998,132.56396500000028,127.43603499999972,82.17968800000017,138.7177729999994,112.56396500000028,69.23095699999976,30.0
180,101.41015599999992,-74.35888699999987,141.0258789999998,186.2822270000006,65.51269500000035,117.17968800000017,119.35888699999941,121.0258789999998,114.61523400000078,71.41015599999992,131.0258789999998,110.89746099999957,57.82031300000017,23.077147999999397
181,95.89746099999957,-91.28198199999997,137.3076170000004,186.0258789999998,69.23095699999976,114.48730499999965,113.0771479999994,111.15380900000036,104.87158199999976,58.0771479999994,124.61523400000078,110.12841800000024,47.94873000000007,17.05126999999993
182,96.2822270000006,-97.17944299999999,138.46142599999985,188.58984400000008,98.46142599999985,119.48730499999965,110.51269500000035,108.9741210000002,105.12841800000024,52.05126999999993,125.25634799999989,111.41015599999992,46.025878999999804,18.974121000000196
183,104.23095699999976,-92.69238299999961,143.84619099999964,192.3076170000004,134.48730499999965,127.94873000000007,112.05126999999993,114.35888699999941,114.10253900000043,58.0771479999994,133.3334960000002,114.35888699999941,51.410155999999915,29.48730499999965
184,114.61523400000078,-86.66674799999964,148.9741210000002,193.84619099999964,150.2563479999999,133.7177729999994,115.64111300000059,121.6665039999998,123.46142599999985,71.15380900000036,143.0771479999994,116.79492200000004,56.410155999999915,41.666503999999804
185,119.87158199999976,-89.48706099999981,149.61523400000078,190.2563479999999,130.89746099999957,132.56396500000028,118.3334960000002,123.58984400000008,125.0,81.53857400000015,146.9228520000006,116.79492200000004,52.82031300000017,46.2822270000006
186,115.76904300000024,-104.74365200000011,144.48730499999965,182.17968800000017,86.2822270000006,125.38476599999922,118.7177729999994,117.30761700000039,116.6665039999998,83.0771479999994,140.51269500000035,113.58984400000008,38.46142599999985,39.23095699999976
187,104.61523400000078,-127.05127000000039,137.05126999999993,173.0771479999994,45.25634799999989,116.15380900000036,117.56396500000028,106.15380900000036,103.84619099999964,76.79492200000004,126.79492200000004,109.10253900000043,18.846190999999635,25.384765999999217
188,94.10253900000043,-145.76928699999962,132.43603499999972,166.9228520000006,33.846190999999635,110.25634799999989,116.9228520000006,97.05126999999993,94.74365200000011,69.10253900000043,113.7177729999994,106.0258789999998,3.717772999999397,14.487304999999651
189,91.53857400000015,-152.43579099999943,134.3588869999994,165.2563479999999,58.589844000000085,110.25634799999989,117.56396500000028,95.25634799999989,94.10253900000043,65.25634799999989,110.0,106.2822270000006,0.256347999999889,14.230956999999762
190,98.20507799999996,-146.79492200000004,141.9228520000006,167.6923829999996,102.94873000000007,115.0,118.58984400000008,100.51269500000035,99.74365200000011,65.89746099999957,118.3334960000002,109.48730499999965,8.333496000000196,24.48730499999965
191,108.20507799999996,-137.43579099999943,150.0,171.9228520000006,140.51269500000035,120.38476599999922,117.82031300000017,107.17968800000017,104.74365200000011,67.05126999999993,132.6923829999996,113.20507799999996,20.769043000000238,38.0771479999994
192,112.69238299999961,-135.76928699999962,152.43603499999972,175.0,151.15380900000036,121.6665039999998,114.61523400000078,109.10253900000043,103.3334960000002,64.23095699999976,141.6665039999998,113.9741210000002,27.94873000000007,45.38476599999922
193,106.79492200000004,-148.46142599999985,146.2822270000006,173.58984400000008,132.05126999999993,117.56396500000028,110.51269500000035,105.12841800000024,94.87158199999976,56.153809000000365,136.9228520000006,110.12841800000024,23.717772999999397,41.153809000000365
194,92.82031300000017,-172.43579099999943,134.23095699999976,166.2822270000006,97.43603499999972,111.2822270000006,107.69238299999961,98.84619099999964,85.0,47.56396500000028,120.0,103.46142599999985,9.871581999999762,28.077147999999397
195,80.0,-196.02563499999997,123.20507799999996,154.87158199999976,70.89746099999957,108.84619099999964,107.94873000000007,96.2822270000006,82.30761700000039,45.897460999999566,102.30761700000039,97.56396500000028,-5.0,15.128418000000238
196,77.17968800000017,-206.15380900000036,120.38476599999922,144.7436520000001,69.74365200000011,113.46142599999985,111.0258789999998,100.89746099999957,92.17968800000017,55.25634799999989,96.41015599999992,96.53857400000015,-10.38452099999995,10.769043000000238
197,86.79492200000004,-198.71801800000003,127.30761700000039,141.15380900000036,92.82031300000017,123.58984400000008,115.64111300000059,111.15380900000036,112.05126999999993,72.56396500000028,106.53857400000015,101.41015599999992,-2.4360349999997197,17.94873000000007
198,102.30761700000039,-181.02563499999997,138.7177729999994,144.87158199999976,122.05126999999993,133.58984400000008,119.48730499999965,121.6665039999998,131.9228520000006,89.61523400000078,125.51269500000035,109.35888699999941,13.205077999999958,31.410155999999915
199,113.58984400000008,-167.0512700000004,146.2822270000006,152.3076170000004,136.79492200000004,137.43603499999972,121.2822270000006,126.9228520000006,141.41015599999992,98.46142599999985,140.76904300000024,115.89746099999957,25.25634799999989,42.69238299999961
200,114.48730499999965,-166.15380900000036,145.76904300000024,158.46142599999985,128.58984400000008,132.56396500000028,120.38476599999922,125.38476599999922,136.6665039999998,96.6665039999998,144.3588869999994,118.3334960000002,25.25634799999989,45.76904300000024
201,106.79492200000004,-177.820557,139.10253900000043,160.38476599999922,104.61523400000078,121.41015599999992,117.82031300000017,119.35888699999941,122.30761700000039,88.20507799999996,137.17968800000017,116.6665039999998,14.230956999999762,41.2822270000006
202,97.82031300000017,-192.820557,132.3076170000004,157.43603499999972,80.51269500000035,110.76904300000024,115.38476599999922,113.3334960000002,107.56396500000028,80.25634799999989,127.05126999999993,113.7177729999994,0.512695000000349,35.0
203,94.74365200000011,-201.02563499999997,130.6411130000006,151.0258789999998,69.61523400000078,107.30761700000039,115.0,110.76904300000024,100.0,77.82031300000017,122.43603499999972,112.05126999999993,-6.41015600000037,33.589844000000085
204,100.25634799999989,-198.46142599999985,135.38476599999922,144.48730499999965,76.6665039999998,113.58984400000008,117.17968800000017,112.56396500000028,102.30761700000039,81.15380900000036,126.15380900000036,113.0771479999994,-3.077147999999397,39.35888699999941
205,110.89746099999957,-189.35888699999987,143.46142599999985,142.3076170000004,97.94873000000007,125.38476599999922,121.15380900000036,116.79492200000004,111.2822270000006,86.15380900000036,134.7436520000001,116.0258789999998,5.897460999999566,49.35888699999941
206,120.38476599999922,-182.9487299999996,149.87158199999976,147.43603499999972,122.17968800000017,134.3588869999994,124.87158199999976,120.25634799999989,120.51269500000035,87.69238299999961,140.89746099999957,118.9741210000002,11.922852000000603,57.69238299999961
207,122.30761700000039,-186.66674799999964,150.51269500000035,157.05126999999993,136.53857400000015,133.9741210000002,125.89746099999957,119.48730499999965,123.58984400000008,82.43603499999972,139.23095699999976,119.35888699999941,9.743652000000111,58.846190999999635
208,115.76904300000024,-200.5129390000002,146.15380900000036,163.84619099999964,135.0,125.25634799999989,123.3334960000002,113.46142599999985,118.7177729999994,72.82031300000017,130.2563479999999,116.2822270000006,0.256347999999889,52.30761700000039
209,106.0258789999998,-216.15380900000036,140.89746099999957,162.43603499999972,123.3334960000002,115.38476599999922,118.46142599999985,105.76904300000024,108.84619099999964,65.38476599999922,121.0258789999998,111.41015599999992,-8.974365000000034,42.82031300000017
210,101.0258789999998,-223.97436500000003,139.10253900000043,153.58984400000008,112.30761700000039,111.79492200000004,114.61523400000078,102.05126999999993,99.87158199999976,65.89746099999957,119.35888699999941,108.3334960000002,-10.641113000000132,38.0771479999994
211,104.48730499999965,-220.1281740000004,141.6665039999998,142.56396500000028,107.82031300000017,116.53857400000015,114.48730499999965,106.15380900000036,95.76904300000024,73.20507799999996,127.05126999999993,109.35888699999941,-3.2050779999999577,42.43603499999972
212,113.58984400000008,-209.7436520000001,145.51269500000035,134.48730499999965,107.43603499999972,125.12841800000024,117.82031300000017,115.38476599999922,96.2822270000006,81.2822270000006,138.46142599999985,113.7177729999994,7.56396500000028,53.20507799999996
213,120.89746099999957,-202.0512700000004,146.79492200000004,131.79492200000004,106.79492200000004,130.6411130000006,121.41015599999992,123.3334960000002,98.7177729999994,84.23095699999976,145.2563479999999,118.0771479999994,13.589844000000085,62.43603499999972
214,120.38476599999922,-203.46142599999985,144.10253900000043,133.0771479999994,104.10253900000043,129.48730499999965,122.43603499999972,124.61523400000078,100.89746099999957,81.0258789999998,142.3076170000004,119.23095699999976,10.512695000000349,63.589844000000085
215,112.05126999999993,-212.9487299999996,139.48730499999965,134.7436520000001,100.12841800000024,122.94873000000007,120.0,119.35888699999941,102.69238299999961,74.61523400000078,131.2822270000006,116.79492200000004,-0.12841800000023795,56.153809000000365
216,101.2822270000006,-224.61547900000005,135.76904300000024,134.10253900000043,94.10253900000043,115.64111300000059,116.2822270000006,112.30761700000039,105.64111300000059,69.61523400000078,118.58984400000008,113.46142599999985,-12.948729999999614,44.74365200000011
217,95.12841800000024,-231.923096,134.61523400000078,131.0258789999998,85.76904300000024,112.05126999999993,114.10253900000043,108.84619099999964,110.25634799999989,69.87158199999976,111.2822270000006,111.9228520000006,-22.435790999999426,36.53857400000015
218,96.9228520000006,-231.79492200000004,135.6411130000006,128.20507799999996,78.20507799999996,113.7177729999994,115.64111300000059,110.38476599999922,116.2822270000006,76.9228520000006,112.56396500000028,112.94873000000007,-26.41015600000037,35.51269500000035
219,104.10253900000043,-226.41015600000037,137.3076170000004,127.05126999999993,75.76904300000024,118.3334960000002,120.0,114.48730499999965,121.9228520000006,88.46142599999985,119.87158199999976,115.64111300000059,-25.1281740000004,40.897460999999566
220,109.87158199999976,-222.56420900000057,137.56396500000028,125.0,76.9228520000006,121.41015599999992,123.58984400000008,115.89746099999957,123.46142599999985,97.56396500000028,126.0258789999998,117.30761700000039,-22.179442999999992,46.53857400000015
221,107.43603499999972,-227.0512700000004,134.7436520000001,117.94873000000007,73.9741210000002,120.25634799999989,122.30761700000039,110.0,117.05126999999993,96.2822270000006,123.7177729999994,115.89746099999957,-22.435790999999426,45.64111300000059
222,96.79492200000004,-240.38452099999995,129.10253900000043,106.79492200000004,62.69238299999961,116.2822270000006,115.38476599999922,98.84619099999964,102.82031300000017,82.30761700000039,112.30761700000039,111.41015599999992,-27.564209000000574,36.666503999999804
223,85.76904300000024,-255.76928699999962,124.35888699999941,98.84619099999964,48.7177729999994,113.3334960000002,106.53857400000015,90.64111300000059,87.82031300000017,62.56396500000028,100.0,106.79492200000004,-34.35888699999987,25.51269500000035
224,83.3334960000002,-263.58984399999963,124.10253900000043,101.15380900000036,44.23095699999976,113.58984400000008,101.41015599999992,92.69238299999961,81.6665039999998,49.74365200000011,96.79492200000004,105.89746099999957,-36.92309599999999,21.410155999999915
225,91.6665039999998,-259.61547900000005,128.7177729999994,112.05126999999993,55.64111300000059,116.2822270000006,103.3334960000002,104.10253900000043,88.58984400000008,53.0771479999994,106.15380900000036,109.35888699999941,-33.20507799999996,28.077147999999397
226,104.10253900000043,-248.58984399999963,134.3588869999994,120.64111300000059,78.0771479999994,118.0771479999994,110.76904300000024,116.0258789999998,102.94873000000007,71.79492200000004,121.53857400000015,114.48730499999965,-26.41015600000037,40.51269500000035
227,110.76904300000024,-239.8718259999996,136.41015599999992,116.53857400000015,98.20507799999996,117.17968800000017,118.3334960000002,119.35888699999941,113.46142599999985,95.0,132.05126999999993,117.17968800000017,-23.205077999999958,49.48730499999965
228,107.56396500000028,-239.35888699999987,133.9741210000002,99.61523400000078,104.35888699999941,114.87158199999976,121.6665039999998,112.05126999999993,112.69238299999961,109.10253900000043,130.76904300000024,115.76904300000024,-27.435790999999426,48.846190999999635
229,98.20507799999996,-246.28198199999997,129.61523400000078,81.15380900000036,95.89746099999957,113.46142599999985,119.74365200000011,100.0,101.2822270000006,106.41015599999992,119.35888699999941,111.53857400000015,-37.69238299999961,40.25634799999989
230,91.15380900000036,-254.4870609999998,127.17968800000017,74.10253900000043,83.3334960000002,113.58984400000008,115.25634799999989,91.15380900000036,87.05126999999993,90.0,107.17968800000017,107.94873000000007,-48.71801800000003,31.153809000000365
231,92.17968800000017,-258.076904,128.3334960000002,83.58984400000008,78.20507799999996,114.48730499999965,112.05126999999993,89.61523400000078,78.84619099999964,72.30761700000039,103.0771479999994,107.30761700000039,-54.35888699999987,28.333496000000196
232,101.15380900000036,-254.35888699999987,132.05126999999993,102.30761700000039,84.23095699999976,114.61523400000078,111.41015599999992,94.23095699999976,81.2822270000006,66.41015599999992,110.12841800000024,109.87158199999976,-51.92309599999999,33.46142599999985
233,112.94873000000007,-245.5129390000002,136.41015599999992,117.43603499999972,94.87158199999976,112.56396500000028,113.20507799999996,100.51269500000035,92.30761700000039,77.17968800000017,123.7177729999994,114.10253900000043,-42.948729999999614,43.0771479999994
234,120.89746099999957,-236.923096,139.10253900000043,119.87158199999976,100.25634799999989,108.3334960000002,115.64111300000059,104.61523400000078,105.0,96.79492200000004,135.6411130000006,117.82031300000017,-31.794922000000042,51.79492200000004
235,121.79492200000004,-234.61547900000005,140.0,110.12841800000024,96.79492200000004,103.20507799999996,117.43603499999972,106.0258789999998,112.56396500000028,111.53857400000015,139.48730499999965,118.9741210000002,-23.974365000000034,55.76904300000024
236,117.17968800000017,-240.0,140.12841800000024,96.9228520000006,89.74365200000011,99.23095699999976,117.82031300000017,106.79492200000004,113.58984400000008,112.69238299999961,135.89746099999957,117.43603499999972,-22.051270000000386,54.74365200000011
237,111.79492200000004,-248.58984399999963,141.0258789999998,90.51269500000035,86.9228520000006,98.46142599999985,116.9228520000006,110.25634799999989,111.9228520000006,103.0771479999994,131.0258789999998,114.87158199999976,-24.74365200000011,51.53857400000015
238,109.48730499999965,-253.84619099999964,142.3076170000004,94.23095699999976,89.35888699999941,100.89746099999957,114.87158199999976,117.30761700000039,112.94873000000007,92.94873000000007,130.2563479999999,113.0771479999994,-28.71801800000003,48.974121000000196
239,110.12841800000024,-253.46142599999985,142.05126999999993,101.9228520000006,89.35888699999941,104.23095699999976,111.0258789999998,124.74365200000011,118.0771479999994,90.25634799999989,132.56396500000028,112.94873000000007,-31.794922000000042,47.30761700000039
240,110.38476599999922,-250.5129390000002,138.46142599999985,104.61523400000078,80.64111300000059,105.76904300000024,105.12841800000024,127.17968800000017,122.69238299999961,94.87158199999976,132.6923829999996,113.46142599999985,-34.35888699999987,44.35888699999941
241,107.69238299999961,-250.2563479999999,133.0771479999994,98.0771479999994,66.53857400000015,104.87158199999976,99.48730499999965,122.30761700000039,121.79492200000004,101.15380900000036,127.05126999999993,113.0771479999994,-37.564209000000574,39.87158199999976
242,102.30761700000039,-255.38452099999995,128.84619099999964,85.64111300000059,58.589844000000085,102.17968800000017,97.43603499999972,113.84619099999964,114.87158199999976,103.58984400000008,118.46142599999985,111.2822270000006,-41.66674799999964,35.897460999999566
243,97.56396500000028,-263.20507799999996,128.46142599999985,75.38476599999922,64.48730499999965,99.35888699999941,100.76904300000024,108.84619099999964,106.79492200000004,101.6665039999998,113.46142599999985,109.61523400000078,-45.38452099999995,35.897460999999566
244,97.30761700000039,-268.20507799999996,132.17968800000017,72.82031300000017,80.25634799999989,97.82031300000017,107.82031300000017,111.0258789999998,104.35888699999941,99.23095699999976,116.41015599999992,109.74365200000011,-47.564209000000574,40.64111300000059
245,102.82031300000017,-265.897461,137.43603499999972,79.10253900000043,94.23095699999976,98.0771479999994,115.12841800000024,118.58984400000008,110.38476599999922,99.87158199999976,125.51269500000035,112.17968800000017,-47.30761700000039,47.94873000000007
246,111.53857400000015,-257.179443,140.89746099999957,90.0,97.30761700000039,99.35888699999941,119.48730499999965,126.15380900000036,120.64111300000059,103.7177729999994,135.12841800000024,115.38476599999922,-44.8718259999996,54.102539000000434
247,118.20507799999996,-247.3076170000004,140.51269500000035,99.48730499999965,89.61523400000078,101.0258789999998,119.61523400000078,128.9741210000002,127.17968800000017,107.05126999999993,139.48730499999965,117.43603499999972,-41.66674799999964,56.53857400000015
248,118.84619099999964,-241.923096,137.17968800000017,103.46142599999985,77.94873000000007,101.79492200000004,116.41015599999992,126.0258789999998,124.87158199999976,105.89746099999957,137.17968800000017,117.05126999999993,-39.10253899999998,55.25634799999989
249,113.7177729999994,-242.820557,133.84619099999964,103.0771479999994,70.12841800000024,101.0258789999998,112.69238299999961,120.12841800000024,115.25634799999989,100.51269500000035,132.05126999999993,115.38476599999922,-38.07690400000001,52.56396500000028
250,107.30761700000039,-247.43579099999943,133.20507799999996,102.05126999999993,68.7177729999994,99.10253900000043,110.89746099999957,115.51269500000035,105.51269500000035,96.15380900000036,129.61523400000078,114.35888699999941,-38.20507799999996,51.53857400000015
251,104.48730499999965,-251.79492200000004,135.6411130000006,102.69238299999961,70.64111300000059,97.56396500000028,112.30761700000039,114.35888699999941,102.30761700000039,98.84619099999964,131.79492200000004,115.25634799999989,-38.20507799999996,53.20507799999996
252,106.0258789999998,-254.23071300000038,138.46142599999985,103.3334960000002,71.79492200000004,98.0771479999994,115.38476599999922,115.38476599999922,106.53857400000015,108.9741210000002,136.15380900000036,116.9228520000006,-38.20507799999996,55.38476599999922
253,107.94873000000007,-256.53857400000015,137.94873000000007,99.61523400000078,71.15380900000036,100.0,117.30761700000039,113.58984400000008,111.79492200000004,120.12841800000024,136.6665039999998,116.53857400000015,-40.1281740000004,54.23095699999976
254,105.12841800000024,-261.15380900000036,132.05126999999993,90.0,70.0,101.15380900000036,115.64111300000059,105.76904300000024,109.74365200000011,122.94873000000007,129.61523400000078,113.0771479999994,-46.92309599999999,47.05126999999993
255,96.15380900000036,-267.820557,122.82031300000017,77.56396500000028,68.84619099999964,99.87158199999976,109.74365200000011,93.46142599999985,98.20507799999996,112.43603499999972,116.9228520000006,107.69238299999961,-57.948729999999614,36.2822270000006
256,86.15380900000036,-272.0512700000004,115.64111300000059,68.20507799999996,68.3334960000002,97.43603499999972,102.17968800000017,83.46142599999985,84.23095699999976,93.0771479999994,106.0258789999998,103.46142599999985,-67.43579099999943,28.077147999999397
257,82.17968800000017,-269.35888699999987,115.38476599999922,67.17968800000017,71.15380900000036,96.9228520000006,96.6665039999998,82.82031300000017,78.9741210000002,76.0258789999998,103.3334960000002,102.69238299999961,-68.20507799999996,28.717772999999397
258,88.0771479999994,-259.61547900000005,122.82031300000017,75.0,80.51269500000035,100.64111300000059,95.64111300000059,92.05126999999993,87.82031300000017,71.0258789999998,109.74365200000011,105.25634799999989,-58.846190999999635,38.846190999999635
259,100.25634799999989,-248.71801800000003,133.0771479999994,87.30761700000039,93.9741210000002,107.30761700000039,98.84619099999964,105.64111300000059,105.25634799999989,78.9741210000002,120.38476599999922,108.7177729999994,-45.38452099999995,52.94873000000007
260,110.64111300000059,-243.46142599999985,139.10253900000043,96.2822270000006,101.41015599999992,112.82031300000017,103.7177729999994,115.38476599999922,120.0,92.56396500000028,128.20507799999996,110.51269500000035,-37.30761700000039,62.94873000000007
261,112.05126999999993,-246.79492200000004,136.9228520000006,95.25634799999989,92.43603499999972,113.9741210000002,107.17968800000017,116.6665039999998,122.43603499999972,102.43603499999972,129.3588869999994,110.0,-40.0,63.20507799999996
262,102.94873000000007,-255.5129390000002,127.94873000000007,84.10253900000043,67.56396500000028,109.87158199999976,107.17968800000017,110.25634799999989,111.79492200000004,103.9741210000002,124.23095699999976,108.58984400000008,-51.66674799999964,53.846190999999635
263,88.58984400000008,-263.84619099999964,117.94873000000007,69.48730499999965,40.76904300000024,103.3334960000002,104.10253900000043,100.89746099999957,96.0258789999998,99.23095699999976,116.0258789999998,107.56396500000028,-64.23071300000038,40.51269500000035
264,77.56396500000028,-267.179443,112.69238299999961,60.38476599999922,29.358886999999413,98.58984400000008,100.38476599999922,93.9741210000002,85.64111300000059,94.23095699999976,109.35888699999941,106.2822270000006,-69.61547900000005,31.025878999999804
265,75.51269500000035,-265.2563479999999,114.23095699999976,61.025878999999804,39.74365200000011,98.9741210000002,99.48730499999965,93.58984400000008,86.41015599999992,93.7177729999994,107.82031300000017,103.58984400000008,-64.74365200000011,31.153809000000365
266,83.0771479999994,-260.0,120.89746099999957,69.23095699999976,64.87158199999976,104.10253900000043,103.58984400000008,100.0,96.53857400000015,98.7177729999994,112.43603499999972,100.12841800000024,-52.948729999999614,40.897460999999566
267,96.41015599999992,-252.9487299999996,129.23095699999976,79.35888699999941,91.6665039999998,111.15380900000036,111.53857400000015,110.51269500000035,109.87158199999976,108.58984400000008,121.53857400000015,98.84619099999964,-41.153809000000365,55.25634799999989
268,109.61523400000078,-244.61547900000005,135.89746099999957,86.53857400000015,110.0,116.2822270000006,119.61523400000078,119.74365200000011,119.35888699999941,120.25634799999989,132.05126999999993,101.79492200000004,-34.8718259999996,67.30761700000039
269,116.15380900000036,-236.41015600000037,138.0771479999994,87.56396500000028,115.76904300000024,117.30761700000039,122.94873000000007,122.30761700000039,120.64111300000059,128.3334960000002,139.10253900000043,107.82031300000017,-36.28198199999997,71.6665039999998
270,112.30761700000039,-232.0512700000004,134.23095699999976,82.17968800000017,109.74365200000011,114.87158199999976,119.10253900000043,115.89746099999957,113.0771479999994,126.53857400000015,138.3334960000002,112.30761700000039,-43.974365000000034,66.53857400000015
271,100.0,-234.61547900000005,126.41015599999992,73.9741210000002,97.69238299999961,112.43603499999972,110.25634799999989,103.9741210000002,100.64111300000059,113.46142599999985,128.9741210000002,112.30761700000039,-53.58984399999963,55.25634799999989
272,88.0771479999994,-241.923096,120.12841800000024,69.35888699999941,87.69238299999961,112.30761700000039,102.30761700000039,94.48730499999965,91.53857400000015,95.38476599999922,117.05126999999993,108.3334960000002,-59.74365200000011,45.897460999999566
273,85.51269500000035,-248.20507799999996,120.76904300000024,72.05126999999993,84.61523400000078,114.10253900000043,100.25634799999989,93.7177729999994,91.79492200000004,83.0771479999994,111.0258789999998,104.87158199999976,-58.974365000000034,45.38476599999922
274,93.20507799999996,-249.7436520000001,127.30761700000039,78.3334960000002,85.0,114.48730499999965,103.3334960000002,99.48730499999965,99.48730499999965,82.69238299999961,114.10253900000043,105.51269500000035,-53.20507799999996,53.333496000000196
275,102.69238299999961,-248.46142599999985,133.20507799999996,80.12841800000024,81.6665039999998,111.15380900000036,105.76904300000024,103.20507799999996,105.12841800000024,91.15380900000036,120.64111300000059,109.23095699999976,-49.35888699999987,62.17968800000017
276,104.10253900000043,-248.97436500000003,131.79492200000004,73.58984400000008,71.6665039999998,105.0,102.69238299999961,97.56396500000028,100.89746099999957,99.48730499999965,122.30761700000039,112.43603499999972,-52.30761700000039,63.333496000000196
277,95.51269500000035,-252.820557,123.58984400000008,63.333496000000196,59.61523400000078,100.0,94.61523400000078,83.9741210000002,86.41015599999992,101.0258789999998,115.64111300000059,112.05126999999993,-61.41015600000037,55.51269500000035
278,83.3334960000002,-256.79492200000004,115.38476599999922,57.30761700000039,53.0771479999994,99.74365200000011,87.43603499999972,71.2822270000006,69.61523400000078,93.9741210000002,105.38476599999922,109.10253900000043,-70.51293900000019,45.64111300000059
279,77.94873000000007,-255.76928699999962,115.0,60.25634799999989,56.9228520000006,105.38476599999922,88.3334960000002,69.23095699999976,60.76904300000024,83.58984400000008,100.51269500000035,107.17968800000017,-72.56420900000057,43.46142599999985
280,85.38476599999922,-246.79492200000004,125.12841800000024,70.64111300000059,70.51269500000035,114.48730499999965,99.23095699999976,81.79492200000004,66.15380900000036,78.46142599999985,107.69238299999961,109.10253900000043,-64.35888699999987,53.589844000000085
281,102.56396500000028,-231.66674799999964,140.38476599999922,83.3334960000002,88.0771479999994,122.43603499999972,115.12841800000024,103.3334960000002,84.48730499999965,85.64111300000059,125.25634799999989,114.48730499999965,-49.10253899999998,71.53857400000015
282,120.0,-217.43579099999943,151.6665039999998,92.94873000000007,101.41015599999992,125.64111300000059,126.9228520000006,122.69238299999961,106.9228520000006,104.61523400000078,143.84619099999964,120.25634799999989,-34.8718259999996,87.17968800000017
283,128.3334960000002,-211.41015600000037,152.3076170000004,96.41015599999992,104.87158199999976,123.20507799999996,128.84619099999964,131.15380900000036,124.10253900000043,126.6665039999998,153.20507799999996,122.43603499999972,-28.461425999999847,91.9228520000006
284,125.0,-215.89746100000002,142.94873000000007,92.05126999999993,100.12841800000024,116.9228520000006,122.05126999999993,127.69238299999961,131.53857400000015,139.61523400000078,148.9741210000002,119.74365200000011,-31.41015600000037,85.25634799999989
285,113.84619099999964,-226.79492200000004,130.2563479999999,81.2822270000006,94.10253900000043,110.0,112.56396500000028,118.3334960000002,129.48730499999965,137.05126999999993,134.87158199999976,114.10253900000043,-40.38452099999995,72.94873000000007
286,100.38476599999922,-237.6923829999996,120.89746099999957,68.20507799999996,91.2822270000006,104.61523400000078,105.51269500000035,109.48730499999965,120.51269500000035,121.53857400000015,118.7177729999994,108.58984400000008,-51.025634999999966,61.2822270000006
287,87.94873000000007,-245.1281740000004,116.9228520000006,57.82031300000017,88.0771479999994,101.2822270000006,101.6665039999998,103.0771479999994,105.89746099999957,101.15380900000036,106.0258789999998,104.87158199999976,-61.41015600000037,52.69238299999961
288,77.82031300000017,-249.4870609999998,115.76904300000024,53.333496000000196,77.05126999999993,100.0,98.7177729999994,96.79492200000004,87.69238299999961,83.58984400000008,98.0771479999994,102.56396500000028,-71.53857400000015,45.897460999999566
289,70.51269500000035,-252.820557,114.23095699999976,54.23095699999976,58.0771479999994,100.76904300000024,95.25634799999989,88.9741210000002,70.64111300000059,73.0771479999994,93.84619099999964,100.64111300000059,-80.51293900000019,40.38476599999922
290,68.58984400000008,-254.8718259999996,112.69238299999961,58.974121000000196,43.0771479999994,103.84619099999964,93.20507799999996,82.43603499999972,62.43603499999972,71.15380900000036,93.46142599999985,100.0,-84.35888699999987,38.20507799999996
291,74.61523400000078,-252.6923829999996,114.61523400000078,66.53857400000015,47.82031300000017,108.9741210000002,96.15380900000036,82.17968800000017,68.7177729999994,78.0771479999994,98.7177729999994,102.43603499999972,-79.10253899999998,42.56396500000028
292,87.43603499999972,-244.23071300000038,121.41015599999992,76.0258789999998,75.12841800000024,115.0,104.61523400000078,89.48730499999965,87.17968800000017,92.17968800000017,109.35888699999941,108.20507799999996,-65.25634799999989,53.333496000000196
293,101.15380900000036,-231.53857400000015,130.6411130000006,84.61523400000078,109.48730499999965,119.74365200000011,114.48730499999965,100.51269500000035,107.30761700000039,108.20507799999996,120.51269500000035,114.48730499999965,-50.1281740000004,65.51269500000035
294,108.3334960000002,-220.5129390000002,136.9228520000006,88.7177729999994,128.84619099999964,121.41015599999992,120.0,108.7177729999994,117.56396500000028,119.35888699999941,126.41015599999992,117.82031300000017,-42.948729999999614,72.69238299999961
295,106.2822270000006,-216.41015600000037,137.43603499999972,86.9228520000006,122.30761700000039,119.48730499999965,118.7177729999994,110.38476599999922,114.74365200000011,121.6665039999998,124.48730499999965,116.79492200000004,-47.30761700000039,71.41015599999992
296,99.74365200000011,-218.84619099999964,133.9741210000002,81.15380900000036,97.94873000000007,115.25634799999989,113.9741210000002,107.43603499999972,105.12841800000024,116.41015599999992,118.58984400000008,114.10253900000043,-58.20507799999996,65.25634799999989
297,95.89746099999957,-223.33325200000036,130.76904300000024,75.12841800000024,74.61523400000078,110.25634799999989,110.64111300000059,104.61523400000078,98.9741210000002,107.94873000000007,115.12841800000024,113.20507799999996,-65.51293900000019,60.76904300000024
298,97.56396500000028,-225.0,130.76904300000024,71.2822270000006,67.43603499999972,105.89746099999957,111.41015599999992,105.0,100.12841800000024,101.41015599999992,117.30761700000039,115.25634799999989,-63.33325200000036,62.30761700000039
299,101.79492200000004,-223.33325200000036,132.82031300000017,69.61523400000078,76.79492200000004,103.0771479999994,114.35888699999941,107.56396500000028,104.61523400000078,99.35888699999941,121.79492200000004,117.94873000000007,-54.48706099999981,68.0771479999994
300,103.0771479999994,-221.66674799999964,134.61523400000078,68.7177729999994,89.74365200000011,102.05126999999993,114.87158199999976,108.58984400000008,104.35888699999941,100.12841800000024,123.3334960000002,118.0771479999994,-46.66674799999964,72.82031300000017
301,99.35888699999941,-222.9487299999996,134.7436520000001,68.3334960000002,90.89746099999957,102.30761700000039,109.61523400000078,105.38476599999922,95.64111300000059,98.9741210000002,119.35888699999941,114.23095699999976,-46.153809000000365,72.69238299999961
302,92.94873000000007,-227.820557,133.46142599999985,68.9741210000002,75.25634799999989,102.56396500000028,100.38476599999922,98.20507799999996,83.0771479999994,92.56396500000028,112.56396500000028,108.20507799999996,-52.051270000000386,68.46142599999985
303,88.84619099999964,-233.20507799999996,131.9228520000006,70.0,52.30761700000039,101.53857400000015,93.20507799999996,91.0258789999998,76.41015599999992,84.23095699999976,108.3334960000002,103.58984400000008,-58.07690400000001,64.48730499999965
304,90.0,-234.61547900000005,130.6411130000006,70.76904300000024,38.846190999999635,99.87158199999976,93.9741210000002,88.3334960000002,82.82031300000017,82.56396500000028,110.64111300000059,103.46142599999985,-57.69238299999961,64.23095699999976
305,95.51269500000035,-229.8718259999996,130.0,70.64111300000059,45.38476599999922,99.74365200000011,103.0771479999994,92.17968800000017,99.87158199999976,93.9741210000002,118.20507799999996,108.20507799999996,-50.64111300000013,67.82031300000017
306,101.2822270000006,-220.64111300000013,129.48730499999965,68.9741210000002,68.9741210000002,102.43603499999972,114.48730499999965,100.64111300000059,117.05126999999993,115.51269500000035,125.38476599999922,113.9741210000002,-42.69238299999961,71.6665039999998
307,103.9741210000002,-211.79492200000004,128.7177729999994,65.89746099999957,97.30761700000039,106.9228520000006,121.15380900000036,109.23095699999976,124.61523400000078,136.79492200000004,126.6665039999998,116.2822270000006,-40.0,73.0771479999994
308,103.20507799999996,-206.41015600000037,127.69238299999961,62.43603499999972,118.20507799999996,109.48730499999965,119.87158199999976,113.9741210000002,120.64111300000059,146.9228520000006,121.2822270000006,113.7177729999994,-43.974365000000034,72.05126999999993
309,101.0258789999998,-205.2563479999999,126.6665039999998,60.897460999999566,126.15380900000036,107.30761700000039,113.0771479999994,113.46142599999985,111.15380900000036,142.17968800000017,114.10253900000043,109.10253900000043,-50.64111300000013,70.64111300000059
310,99.10253900000043,-207.0512700000004,125.51269500000035,62.56396500000028,121.79492200000004,100.76904300000024,105.64111300000059,108.58984400000008,103.58984400000008,126.79492200000004,110.25634799999989,106.0258789999998,-55.25634799999989,69.74365200000011
311,97.05126999999993,-211.66674799999964,123.20507799999996,65.25634799999989,109.61523400000078,93.58984400000008,101.2822270000006,100.38476599999922,100.25634799999989,107.94873000000007,110.25634799999989,105.89746099999957,-57.17944299999999,67.82031300000017
312,93.0771479999994,-218.46142599999985,119.74365200000011,64.48730499999965,95.0,90.38476599999922,100.64111300000059,90.51269500000035,98.20507799999996,92.17968800000017,110.0,106.6665039999998,-58.58984399999963,63.46142599999985
313,87.30761700000039,-224.61547900000005,115.89746099999957,57.69238299999961,83.20507799999996,93.20507799999996,102.17968800000017,82.43603499999972,93.84619099999964,83.3334960000002,106.15380900000036,106.2822270000006,-61.025634999999966,57.30761700000039
314,82.05126999999993,-226.15380900000036,113.3334960000002,47.69238299999961,76.53857400000015,99.23095699999976,103.7177729999994,79.48730499999965,86.79492200000004,82.56396500000028,98.9741210000002,104.74365200000011,-62.69238299999961,52.69238299999961
315,80.51269500000035,-221.923096,112.56396500000028,41.410155999999915,73.46142599999985,103.0771479999994,103.7177729999994,82.56396500000028,80.76904300000024,88.46142599999985,91.9228520000006,103.46142599999985,-61.153809000000365,52.05126999999993
316,83.46142599999985,-214.4870609999998,113.20507799999996,43.7177729999994,71.79492200000004,100.64111300000059,102.05126999999993,88.46142599999985,79.10253900000043,96.9228520000006,89.10253900000043,103.58984400000008,-56.153809000000365,55.25634799999989
317,89.10253900000043,-208.20507799999996,114.35888699999941,53.589844000000085,72.05126999999993,92.43603499999972,100.0,93.84619099999964,82.82031300000017,103.9741210000002,92.56396500000028,105.76904300000024,-50.38452099999995,60.38476599999922
318,94.10253900000043,-205.89746100000002,115.64111300000059,65.0,76.9228520000006,84.23095699999976,99.87158199999976,96.9228520000006,90.12841800000024,107.94873000000007,101.6665039999998,108.7177729999994,-47.051270000000386,65.25634799999989
319,96.15380900000036,-207.0512700000004,117.17968800000017,71.2822270000006,85.38476599999922,81.79492200000004,102.56396500000028,98.0771479999994,97.69238299999961,109.61523400000078,112.43603499999972,111.41015599999992,-47.82055700000001,68.3334960000002
320,95.12841800000024,-208.97436500000003,118.58984400000008,69.87158199999976,91.79492200000004,86.79492200000004,106.79492200000004,98.9741210000002,102.56396500000028,111.15380900000036,119.48730499999965,113.0771479999994,-51.66674799999964,69.10253900000043
321,92.17968800000017,-209.23071300000038,119.23095699999976,63.46142599999985,91.2822270000006,95.76904300000024,110.76904300000024,100.51269500000035,103.7177729999994,113.58984400000008,119.87158199999976,113.46142599999985,-55.76928699999962,67.82031300000017
322,88.3334960000002,-208.076904,118.3334960000002,56.9228520000006,84.35888699999941,102.69238299999961,112.43603499999972,102.05126999999993,101.9228520000006,116.0258789999998,114.10253900000043,113.20507799999996,-57.17944299999999,65.12841800000024
323,84.35888699999941,-207.0512700000004,115.76904300000024,52.30761700000039,76.15380900000036,104.35888699999941,110.76904300000024,102.43603499999972,99.48730499999965,115.64111300000059,105.89746099999957,112.43603499999972,-55.38452099999995,61.79492200000004
324,81.9228520000006,-206.41015600000037,113.20507799999996,48.7177729999994,72.56396500000028,102.30761700000039,107.30761700000039,101.6665039999998,98.58984400000008,109.74365200000011,100.12841800000024,111.79492200000004,-51.41015600000037,59.23095699999976
325,83.9741210000002,-204.10253899999998,113.7177729999994,46.025878999999804,78.46142599999985,101.53857400000015,105.64111300000059,102.43603499999972,100.38476599999922,100.89746099999957,101.0258789999998,112.56396500000028,-46.025634999999966,59.74365200000011
326,92.43603499999972,-197.6923829999996,119.35888699999941,46.410155999999915,94.87158199999976,105.38476599999922,108.9741210000002,108.20507799999996,104.61523400000078,96.9228520000006,109.87158199999976,114.48730499999965,-38.974365000000034,65.51269500000035
327,105.51269500000035,-188.076904,128.20507799999996,52.43603499999972,118.0771479999994,113.0771479999994,118.3334960000002,119.48730499999965,110.76904300000024,104.35888699999941,123.58984400000008,116.9228520000006,-29.8718259999996,75.89746099999957
328,117.94873000000007,-179.23071300000038,135.2563479999999,63.974121000000196,139.23095699999976,120.12841800000024,129.3588869999994,132.17968800000017,117.43603499999972,122.05126999999993,135.38476599999922,118.84619099999964,-21.025634999999966,86.6665039999998
329,123.84619099999964,-175.1281740000004,136.6665039999998,76.79492200000004,148.84619099999964,122.05126999999993,135.38476599999922,139.7436520000001,123.0771479999994,140.6411130000006,138.58984400000008,119.74365200000011,-16.923095999999987,92.30761700000039
330,119.23095699999976,-177.56420900000057,131.2822270000006,83.9741210000002,141.9228520000006,117.56396500000028,131.41015599999992,137.17968800000017,125.89746099999957,149.3588869999994,130.89746099999957,119.35888699999941,-20.512939000000188,88.9741210000002
331,105.64111300000059,-184.35888699999987,121.9228520000006,80.51269500000035,120.76904300000024,109.35888699999941,118.7177729999994,124.61523400000078,124.48730499999965,143.58984400000008,115.76904300000024,117.69238299999961,-30.89746100000002,77.43603499999972
332,89.35888699999941,-191.53857400000015,113.46142599999985,66.9228520000006,95.0,101.9228520000006,105.0,108.0771479999994,118.46142599999985,126.6665039999998,101.53857400000015,115.12841800000024,-43.07690400000001,62.94873000000007
333,78.0771479999994,-195.76928699999962,109.61523400000078,50.38476599999922,76.6665039999998,98.0771479999994,98.20507799999996,96.0258789999998,110.12841800000024,106.9228520000006,95.38476599999922,112.94873000000007,-51.025634999999966,51.410155999999915
334,77.05126999999993,-195.5129390000002,111.2822270000006,39.87158199999976,73.20507799999996,98.46142599999985,100.89746099999957,93.58984400000008,103.20507799999996,93.20507799999996,99.48730499999965,112.30761700000039,-51.28198199999997,47.05126999999993
335,85.0,-192.179443,116.2822270000006,40.76904300000024,83.58984400000008,101.0258789999998,108.58984400000008,99.10253900000043,100.89746099999957,89.87158199999976,109.10253900000043,113.58984400000008,-45.1281740000004,49.87158199999976
336,95.64111300000059,-188.20507799999996,120.76904300000024,51.153809000000365,97.56396500000028,103.58984400000008,114.61523400000078,106.0258789999998,102.43603499999972,96.41015599999992,116.6665039999998,115.89746099999957,-37.69238299999961,56.53857400000015
337,101.41015599999992,-186.28198199999997,121.9228520000006,63.46142599999985,102.82031300000017,103.9741210000002,114.74365200000011,108.0771479999994,104.87158199999976,106.9228520000006,116.0258789999998,117.82031300000017,-34.23071300000038,61.9228520000006
338,98.20507799999996,-188.20507799999996,119.61523400000078,68.46142599999985,93.0771479999994,101.41015599999992,109.23095699999976,102.43603499999972,103.84619099999964,113.9741210000002,106.6665039999998,117.82031300000017,-37.564209000000574,61.9228520000006
339,87.56396500000028,-193.97436500000003,115.89746099999957,62.05126999999993,73.20507799999996,96.53857400000015,101.6665039999998,91.41015599999992,97.56396500000028,112.56396500000028,93.0771479999994,115.0,-46.41015600000037,55.25634799999989
340,75.89746099999957,-201.28198199999997,113.46142599999985,47.05126999999993,55.76904300000024,91.79492200000004,96.79492200000004,80.51269500000035,87.56396500000028,103.46142599999985,82.43603499999972,110.38476599999922,-56.53857400000015,45.51269500000035
341,70.0,-205.5129390000002,113.84619099999964,32.30761700000039,52.17968800000017,89.74365200000011,97.05126999999993,75.64111300000059,78.9741210000002,91.9228520000006,80.0,106.0258789999998,-63.46142599999985,38.46142599999985
342,72.30761700000039,-203.46142599999985,116.6665039999998,27.05126999999993,63.7177729999994,91.79492200000004,101.2822270000006,79.23095699999976,76.53857400000015,84.74365200000011,85.38476599999922,104.74365200000011,-64.61547900000005,38.846190999999635
343,80.51269500000035,-195.2563479999999,120.64111300000059,34.48730499999965,82.05126999999993,96.79492200000004,106.41015599999992,89.10253900000043,81.9228520000006,86.53857400000015,93.84619099999964,107.82031300000017,-60.64111300000013,46.9228520000006
344,89.48730499999965,-183.84619099999964,123.58984400000008,51.025878999999804,97.43603499999972,102.17968800000017,111.0258789999998,100.25634799999989,92.43603499999972,97.43603499999972,100.38476599999922,113.7177729999994,-54.10253899999998,59.102539000000434
345,94.87158199999976,-174.10253899999998,123.9741210000002,69.23095699999976,106.41015599999992,105.38476599999922,114.87158199999976,108.58984400000008,102.56396500000028,111.53857400000015,103.7177729999994,118.7177729999994,-47.17944299999999,70.0
346,95.64111300000059,-169.4870609999998,122.30761700000039,81.2822270000006,111.53857400000015,105.76904300000024,118.0771479999994,111.79492200000004,107.43603499999972,118.3334960000002,104.48730499999965,119.48730499999965,-41.41015600000037,75.25634799999989
347,92.94873000000007,-170.38452099999995,120.0,81.9228520000006,114.87158199999976,103.84619099999964,119.23095699999976,110.25634799999989,105.76904300000024,110.38476599999922,103.7177729999994,116.41015599999992,-37.69238299999961,73.46142599999985
348,88.9741210000002,-174.10253899999998,118.3334960000002,71.53857400000015,115.38476599999922,101.15380900000036,117.30761700000039,106.0258789999998,100.0,90.38476599999922,100.89746099999957,112.05126999999993,-37.435790999999426,66.41015599999992
349,84.74365200000011,-178.46142599999985,117.43603499999972,55.25634799999989,109.48730499999965,99.35888699999941,112.43603499999972,100.76904300000024,94.10253900000043,70.76904300000024,95.76904300000024,108.7177729999994,-41.41015600000037,57.82031300000017
350,79.48730499999965,-183.46142599999985,115.64111300000059,41.2822270000006,95.89746099999957,99.23095699999976,106.2822270000006,94.87158199999976,90.12841800000024,63.846190999999635,89.35888699999941,106.6665039999998,-48.58984399999963,50.51269500000035
351,71.9228520000006,-189.35888699999987,112.05126999999993,35.0,77.94873000000007,100.38476599999922,100.76904300000024,88.46142599999985,87.69238299999961,71.41015599999992,83.84619099999964,105.25634799999989,-56.025634999999966,45.12841800000024
352,63.0771479999994,-195.2563479999999,107.17968800000017,36.153809000000365,63.20507799999996,101.41015599999992,97.56396500000028,83.0771479999994,85.38476599999922,84.74365200000011,81.2822270000006,104.23095699999976,-60.76928699999962,41.025878999999804
353,56.2822270000006,-198.58984399999963,103.58984400000008,39.87158199999976,58.7177729999994,101.9228520000006,97.17968800000017,80.89746099999957,82.94873000000007,93.84619099999964,81.53857400000015,104.23095699999976,-60.89746100000002,38.333496000000196
354,54.35888699999941,-197.43579099999943,103.3334960000002,40.64111300000059,66.15380900000036,102.17968800000017,99.61523400000078,83.20507799999996,82.17968800000017,95.38476599999922,82.82031300000017,105.76904300000024,-57.69238299999961,37.69238299999961
355,58.0771479999994,-192.6923829999996,106.79492200000004,36.666503999999804,81.15380900000036,103.0771479999994,103.9741210000002,89.10253900000043,84.35888699999941,92.94873000000007,83.20507799999996,108.46142599999985,-53.846190999999635,40.25634799999989
356,64.74365200000011,-187.43579099999943,112.17968800000017,31.153809000000365,96.6665039999998,104.23095699999976,109.10253900000043,96.15380900000036,89.48730499999965,91.2822270000006,82.56396500000028,111.2822270000006,-51.79492200000004,44.87158199999976
357,70.25634799999989,-183.97436500000003,116.41015599999992,29.358886999999413,106.79492200000004,104.74365200000011,112.94873000000007,101.53857400000015,95.64111300000059,92.82031300000017,82.30761700000039,112.82031300000017,-51.28198199999997,49.35888699999941
358,72.17968800000017,-182.0512700000004,117.56396500000028,33.846190999999635,108.7177729999994,104.35888699999941,114.10253900000043,103.9741210000002,99.74365200000011,96.15380900000036,84.35888699999941,112.56396500000028,-50.76928699999962,52.17968800000017
359,71.15380900000036,-180.1281740000004,116.15380900000036,42.94873000000007,103.0771479999994,103.46142599999985,113.58984400000008,104.35888699999941,100.25634799999989,98.9741210000002,89.23095699999976,111.53857400000015,-48.58984399999963,52.94873000000007
360,69.48730499999965,-177.179443,114.48730499999965,51.410155999999915,92.56396500000028,102.69238299999961,113.7177729999994,104.23095699999976,97.94873000000007,99.35888699999941,94.87158199999976,111.53857400000015,-45.38452099999995,52.69238299999961
361,69.35888699999941,-174.23071300000038,114.61523400000078,54.61523400000078,80.25634799999989,102.05126999999993,116.15380900000036,104.74365200000011,95.64111300000059,97.17968800000017,98.3334960000002,113.0771479999994,-43.46142599999985,52.43603499999972
362,70.76904300000024,-172.56420900000057,116.41015599999992,52.05126999999993,69.87158199999976,102.05126999999993,119.61523400000078,105.64111300000059,95.64111300000059,93.9741210000002,98.20507799999996,115.64111300000059,-44.61547900000005,52.43603499999972
363,73.0771479999994,-171.79492200000004,118.0771479999994,48.0771479999994,65.38476599999922,102.82031300000017,121.2822270000006,105.89746099999957,98.46142599999985,91.9228520000006,95.76904300000024,117.56396500000028,-48.58984399999963,53.20507799999996
364,75.0,-171.28198199999997,117.17968800000017,47.30761700000039,68.3334960000002,103.58984400000008,119.10253900000043,105.12841800000024,101.9228520000006,91.0258789999998,93.46142599999985,117.69238299999961,-52.69238299999961,54.35888699999941
365,75.25634799999989,-170.89746100000002,112.82031300000017,50.76904300000024,76.2822270000006,102.30761700000039,112.82031300000017,103.46142599999985,102.82031300000017,89.10253900000043,91.79492200000004,115.51269500000035,-54.23071300000038,54.61523400000078
366,73.58984400000008,-171.66674799999964,106.15380900000036,55.12841800000024,82.30761700000039,97.43603499999972,105.0,101.53857400000015,100.25634799999989,85.76904300000024,89.48730499999965,112.30761700000039,-52.435790999999426,53.20507799999996
367,71.41015599999992,-173.58984399999963,100.64111300000059,56.153809000000365,81.6665039999998,90.25634799999989,99.61523400000078,100.0,97.56396500000028,84.10253900000043,86.41015599999992,110.12841800000024,-48.71801800000003,50.64111300000059
368,70.64111300000059,-174.8718259999996,99.23095699999976,52.43603499999972,76.79492200000004,84.10253900000043,99.48730499999965,99.35888699999941,98.9741210000002,88.0771479999994,84.61523400000078,110.25634799999989,-44.48706099999981,49.102539000000434
369,72.05126999999993,-173.46142599999985,102.17968800000017,45.76904300000024,75.76904300000024,82.69238299999961,103.7177729999994,99.74365200000011,104.61523400000078,96.9228520000006,86.15380900000036,112.30761700000039,-41.025634999999966,50.51269500000035
370,74.10253900000043,-168.20507799999996,107.69238299999961,39.87158199999976,83.84619099999964,86.79492200000004,107.69238299999961,101.0258789999998,109.48730499999965,104.10253900000043,91.15380900000036,114.61523400000078,-38.974365000000034,53.846190999999635
371,74.48730499999965,-161.02563499999997,112.56396500000028,36.9228520000006,97.82031300000017,93.84619099999964,107.69238299999961,102.30761700000039,107.17968800000017,104.35888699999941,96.6665039999998,115.89746099999957,-38.58984399999963,56.410155999999915
372,72.69238299999961,-155.76928699999962,114.23095699999976,36.9228520000006,109.23095699999976,99.87158199999976,103.7177729999994,103.0771479999994,96.53857400000015,98.3334960000002,99.61523400000078,115.89746099999957,-40.76928699999962,55.897460999999566
373,70.64111300000059,-155.89746100000002,113.0771479999994,39.35888699999941,112.94873000000007,102.30761700000039,99.48730499999965,102.56396500000028,83.58984400000008,93.46142599999985,98.84619099999964,115.12841800000024,-45.38452099999995,52.94873000000007
374,71.53857400000015,-159.8718259999996,111.9228520000006,44.61523400000078,112.17968800000017,102.05126999999993,98.84619099999964,101.53857400000015,77.69238299999961,96.2822270000006,96.9228520000006,114.87158199999976,-49.8718259999996,50.897460999999566
375,77.30761700000039,-162.56420900000057,113.20507799999996,52.17968800000017,112.43603499999972,101.79492200000004,102.82031300000017,101.0258789999998,83.0771479999994,106.9228520000006,97.43603499999972,115.89746099999957,-50.76928699999962,53.20507799999996
376,85.89746099999957,-159.8718259999996,116.6665039999998,59.74365200000011,112.82031300000017,103.0771479999994,108.58984400000008,101.79492200000004,96.0258789999998,118.7177729999994,101.0258789999998,118.0771479999994,-46.28198199999997,60.25634799999989
377,92.17968800000017,-153.076904,119.87158199999976,62.05126999999993,105.38476599999922,104.74365200000011,112.05126999999993,102.43603499999972,106.53857400000015,123.20507799999996,104.35888699999941,119.61523400000078,-38.46142599999985,68.3334960000002
378,91.79492200000004,-147.820557,119.87158199999976,56.153809000000365,83.84619099999964,104.61523400000078,110.64111300000059,100.51269500000035,107.05126999999993,115.64111300000059,103.46142599999985,119.10253900000043,-31.41015600000037,72.30761700000039
379,86.15380900000036,-148.076904,117.30761700000039,45.12841800000024,55.0,102.05126999999993,105.38476599999922,96.41015599999992,98.3334960000002,98.46142599999985,98.58984400000008,117.56396500000028,-27.948729999999614,71.0258789999998
380,81.41015599999992,-152.0512700000004,115.89746099999957,37.56396500000028,37.94873000000007,99.87158199999976,100.0,93.84619099999964,89.35888699999941,80.51269500000035,95.12841800000024,117.30761700000039,-27.30761700000039,68.3334960000002
381,83.3334960000002,-154.23071300000038,118.58984400000008,40.76904300000024,48.7177729999994,101.9228520000006,97.69238299999961,97.30761700000039,89.87158199999976,72.05126999999993,97.94873000000007,120.0,-26.153809000000365,69.87158199999976
382,92.43603499999972,-150.38452099999995,124.48730499999965,53.46142599999985,84.61523400000078,108.7177729999994,99.74365200000011,107.43603499999972,102.43603499999972,78.58984400000008,107.56396500000028,124.87158199999976,-22.051270000000386,77.30761700000039
383,102.82031300000017,-142.56420900000057,128.7177729999994,66.0258789999998,122.82031300000017,115.64111300000059,104.23095699999976,118.7177729999994,119.48730499999965,96.6665039999998,118.46142599999985,128.84619099999964,-15.512939000000188,86.41015599999992
