,EEG.AF3,EEG.F7,EEG.F3,EEG.FC5,EEG.T7,EEG.P7,EEG.O1,EEG.O2,EEG.P8,EEG.T8,EEG.FC6,EEG.F4,EEG.F8,EEG.AF4
0,3.846190999999635,-41.53857400000015,151.79492200000004,1.0258789999998044,126.0258789999998,112.05126999999993,86.15380900000036,83.9741210000002,64.87158199999976,116.2822270000006,63.0771479999994,97.43603499999972,-48.07690400000001,102.17968800000017
1,12.43603499999972,-31.153809000000365,157.82031300000017,8.077147999999397,178.0771479999994,117.05126999999993,89.61523400000078,98.0771479999994,81.53857400000015,138.46142599999985,72.30761700000039,100.38476599999922,-31.538574000000153,114.35888699999941
2,11.410155999999915,-27.69238299999961,156.2822270000006,3.5898440000000846,182.05126999999993,113.84619099999964,90.76904300000024,105.76904300000024,95.0,147.56396500000028,70.51269500000035,99.48730499999965,-26.923095999999987,114.87158199999976
3,-0.512695000000349,-30.89746100000002,146.0258789999998,-11.41015600000037,128.84619099999964,104.10253900000043,88.3334960000002,99.35888699999941,95.25634799999989,128.7177729999994,55.64111300000059,94.10253900000043,-39.48706099999981,101.9228520000006
4,-15.38452099999995,-34.23071300000038,132.05126999999993,-27.30761700000039,56.53857400000015,95.0,83.84619099999964,82.43603499999972,83.58984400000008,89.48730499999965,36.153809000000365,87.05126999999993,-61.79492200000004,84.87158199999976
5,-22.435790999999426,-31.153809000000365,123.20507799999996,-31.794922000000042,20.897460999999566,93.46142599999985,80.89746099999957,66.9228520000006,70.12841800000024,56.2822270000006,24.230956999999762,82.94873000000007,-79.35888699999987,76.6665039999998
6,-16.923095999999987,-20.38452099999995,123.9741210000002,-19.74365200000011,50.38476599999922,99.74365200000011,82.05126999999993,62.82031300000017,63.846190999999635,52.56396500000028,25.51269500000035,84.23095699999976,-82.82055700000001,82.56396500000028
7,-5.128174000000399,-7.948729999999614,131.9228520000006,2.6923829999996087,122.05126999999993,107.43603499999972,85.38476599999922,68.84619099999964,63.333496000000196,77.69238299999961,34.74365200000011,88.58984400000008,-74.8718259999996,94.87158199999976
8,0.6411130000005869,-3.3334960000001956,139.3588869999994,20.384765999999217,181.9228520000006,108.9741210000002,86.41015599999992,75.51269500000035,59.23095699999976,107.56396500000028,41.410155999999915,91.15380900000036,-67.05127000000039,99.87158199999976
9,-6.923095999999987,-11.923095999999987,140.12841800000024,20.25634799999989,189.87158199999976,103.0771479999994,81.41015599999992,73.3334960000002,45.76904300000024,116.0258789999998,37.94873000000007,88.9741210000002,-70.25634799999989,90.38476599999922
10,-23.71801800000003,-28.461425999999847,134.10253900000043,2.1796880000001693,150.12841800000024,95.0,71.9228520000006,61.410155999999915,27.56396500000028,97.30761700000039,25.641113000000587,83.7177729999994,-85.38452099999995,71.53857400000015
11,-37.564209000000574,-38.07690400000001,126.79492200000004,-20.512939000000188,101.9228520000006,91.79492200000004,63.333496000000196,46.79492200000004,15.897460999999566,69.35888699999941,13.077147999999397,79.61523400000078,-103.33325200000036,56.79492200000004
12,-37.435790999999426,-28.076904000000013,125.12841800000024,-31.41015600000037,84.61523400000078,97.05126999999993,61.2822270000006,39.102539000000434,18.846190999999635,57.69238299999961,10.641113000000587,79.48730499999965,-109.61547900000005,57.17968800000017
13,-21.538574000000153,-1.153809000000365,132.3076170000004,-23.461425999999847,109.10253900000043,108.20507799999996,68.0771479999994,44.87158199999976,36.153809000000365,74.48730499999965,23.077147999999397,83.84619099999964,-95.38452099999995,74.10253900000043
14,1.6665039999998044,23.974121000000196,145.2563479999999,-3.2050779999999577,156.9228520000006,119.23095699999976,80.76904300000024,62.69238299999961,59.35888699999941,110.25634799999989,45.0,90.64111300000059,-66.28198199999997,97.94873000000007
15,18.974121000000196,27.30761700000039,155.2563479999999,14.358886999999413,196.41015599999992,124.48730499999965,92.17968800000017,83.3334960000002,77.69238299999961,142.94873000000007,63.46142599999985,96.53857400000015,-40.25634799999989,114.74365200000011
16,21.666503999999804,9.487304999999651,155.76904300000024,18.589844000000085,203.84619099999964,122.05126999999993,95.64111300000059,94.48730499999965,83.46142599999985,155.51269500000035,67.30761700000039,98.20507799999996,-34.10253899999998,115.76904300000024
17,12.051269999999931,-6.923095999999987,146.9228520000006,9.871581999999762,177.82031300000017,115.51269500000035,90.12841800000024,90.51269500000035,76.9228520000006,148.84619099999964,56.79492200000004,95.25634799999989,-48.71801800000003,103.7177729999994
18,1.5385740000001533,1.9228520000006029,135.6411130000006,-3.077147999999397,139.10253900000043,110.64111300000059,80.89746099999957,77.30761700000039,65.12841800000024,137.94873000000007,44.35888699999941,90.64111300000059,-67.69238299999961,90.51269500000035
19,0.12841800000023795,35.25634799999989,129.87158199999976,-11.666747999999643,112.05126999999993,111.2822270000006,75.38476599999922,66.53857400000015,56.2822270000006,137.05126999999993,42.56396500000028,88.3334960000002,-71.79492200000004,86.41015599999992
20,9.102539000000434,64.87158199999976,132.82031300000017,-12.948729999999614,105.89746099999957,116.41015599999992,77.05126999999993,66.2822270000006,54.102539000000434,146.0258789999998,53.46142599999985,90.25634799999989,-54.8718259999996,93.20507799999996
21,22.82031300000017,60.12841800000024,142.05126999999993,-10.1281740000004,115.25634799999989,122.17968800000017,83.9741210000002,77.05126999999993,58.20507799999996,153.58984400000008,68.20507799999996,95.25634799999989,-29.358886999999868,105.64111300000059
22,33.7177729999994,18.333496000000196,152.3076170000004,-8.205077999999958,131.2822270000006,125.0,91.2822270000006,92.30761700000039,66.0258789999998,150.6411130000006,75.89746099999957,100.38476599999922,-14.358886999999868,116.41015599999992
23,37.56396500000028,-29.8718259999996,157.82031300000017,-10.769286999999622,146.79492200000004,123.84619099999964,94.87158199999976,103.3334960000002,73.9741210000002,138.9741210000002,71.53857400000015,102.82031300000017,-21.666747999999643,119.87158199999976
24,33.20507799999996,-43.46142599999985,155.6411130000006,-18.846190999999635,155.2563479999999,120.0,93.3334960000002,103.3334960000002,77.82031300000017,128.46142599999985,57.30761700000039,101.41015599999992,-47.69238299999961,113.46142599999985
25,23.846190999999635,-3.4614259999998467,147.94873000000007,-30.512939000000188,153.20507799999996,116.0258789999998,87.17968800000017,92.17968800000017,75.12841800000024,127.69238299999961,40.897460999999566,97.17968800000017,-75.76928699999962,100.12841800000024
26,16.153809000000365,70.64111300000059,140.38476599999922,-41.153809000000365,144.7436520000001,113.9741210000002,79.74365200000011,77.05126999999993,67.94873000000007,137.6923829999996,32.43603499999972,92.94873000000007,-87.30761700000039,88.7177729999994
27,17.05126999999993,136.6665039999998,139.61523400000078,-45.38452099999995,141.0258789999998,115.12841800000024,75.76904300000024,69.87158199999976,62.82031300000017,153.0771479999994,38.7177729999994,92.43603499999972,-73.33325200000036,89.48730499999965
28,28.333496000000196,162.17968800000017,147.3076170000004,-39.74365200000011,150.12841800000024,118.46142599999985,78.58984400000008,77.56396500000028,65.89746099999957,167.43603499999972,58.0771479999994,96.41015599999992,-43.20507799999996,105.12841800000024
29,42.94873000000007,149.23095699999976,158.3334960000002,-26.666747999999643,168.3334960000002,120.89746099999957,86.6665039999998,94.87158199999976,76.2822270000006,174.87158199999976,78.84619099999964,101.79492200000004,-19.8718259999996,126.53857400000015
30,49.23095699999976,131.2822270000006,164.7436520000001,-15.0,181.6665039999998,119.74365200000011,94.23095699999976,107.43603499999972,85.38476599999922,171.53857400000015,86.9228520000006,104.23095699999976,-22.69238299999961,137.94873000000007
31,41.025878999999804,142.17968800000017,161.6665039999998,-14.487060999999812,180.2563479999999,115.64111300000059,96.6665039999998,105.38476599999922,85.64111300000059,158.58984400000008,78.0771479999994,101.6665039999998,-48.71801800000003,130.12841800000024
32,23.205077999999958,187.6923829999996,152.3076170000004,-29.10253899999998,167.05126999999993,113.20507799999996,94.23095699999976,93.46142599999985,78.3334960000002,144.23095699999976,61.410155999999915,96.15380900000036,-72.43579099999943,107.94873000000007
33,7.692382999999609,246.41015599999992,144.48730499999965,-51.92309599999999,155.6411130000006,116.79492200000004,91.9228520000006,86.0258789999998,72.30761700000039,138.7177729999994,51.9228520000006,91.9228520000006,-67.43579099999943,87.17968800000017
34,3.717772999999397,296.15380900000036,144.10253900000043,-68.20507799999996,158.7177729999994,126.0258789999998,93.84619099999964,93.0771479999994,74.87158199999976,145.6411130000006,57.30761700000039,91.9228520000006,-30.769286999999622,81.53857400000015
35,10.641113000000587,335.2563479999999,151.41015599999992,-68.58984399999963,176.9228520000006,134.87158199999976,99.61523400000078,110.38476599999922,85.25634799999989,160.38476599999922,72.69238299999961,95.51269500000035,15.0,93.0771479999994
36,18.717772999999397,377.17968800000017,161.0258789999998,-60.0,197.3076170000004,136.41015599999992,104.35888699999941,124.10253900000043,95.0,174.7436520000001,86.0258789999998,99.23095699999976,41.2822270000006,109.61523400000078
37,17.17968800000017,428.0771479999994,166.41015599999992,-62.82055700000001,203.9741210000002,128.46142599999985,103.20507799999996,123.46142599999985,97.69238299999961,182.3076170000004,86.79492200000004,99.61523400000078,37.17968800000017,115.38476599999922
38,2.9487300000000687,480.2563479999999,165.2563479999999,-91.66674799999964,191.6665039999998,115.89746099999957,95.64111300000059,109.61523400000078,94.10253900000043,180.76904300000024,74.87158199999976,95.89746099999957,17.17968800000017,103.58984400000008
39,-16.153809000000365,526.9228520000006,161.9228520000006,-139.4870609999998,170.0,107.05126999999993,86.6665039999998,93.7177729999994,90.38476599999922,172.05126999999993,60.38476599999922,91.41015599999992,10.256347999999889,84.35888699999941
40,-27.30761700000039,576.2822270000006,163.7177729999994,-181.28198199999997,153.84619099999964,106.6665039999998,83.0771479999994,88.3334960000002,91.79492200000004,161.6665039999998,57.43603499999972,89.74365200000011,38.20507799999996,76.53857400000015
41,-23.333252000000357,644.1025390000004,174.48730499999965,-195.0,152.17968800000017,112.82031300000017,87.82031300000017,97.17968800000017,98.0771479999994,156.6665039999998,72.82031300000017,92.56396500000028,99.10253900000043,91.0258789999998
42,-8.58984399999963,733.205078,190.76904300000024,-180.0,163.84619099999964,119.48730499999965,97.69238299999961,113.9741210000002,104.35888699999941,162.6923829999996,99.74365200000011,97.56396500000028,168.84619099999964,121.53857400000015
43,4.358886999999413,824.8715819999998,204.61523400000078,-156.02563499999997,181.41015599999992,121.2822270000006,105.51269500000035,127.56396500000028,106.0258789999998,179.23095699999976,121.41015599999992,101.2822270000006,218.9741210000002,150.51269500000035
44,5.256347999999889,893.5898440000001,210.0,-143.58984399999963,194.7436520000001,117.69238299999961,105.89746099999957,130.76904300000024,102.43603499999972,196.15380900000036,123.58984400000008,100.89746099999957,236.41015599999992,166.2822270000006
45,-6.923095999999987,930.7690430000002,207.05126999999993,-146.923096,194.3588869999994,112.82031300000017,98.0771479999994,123.0771479999994,96.41015599999992,198.7177729999994,104.74365200000011,96.53857400000015,231.0258789999998,173.58984400000008
46,-24.74365200000011,951.1538090000004,200.12841800000024,-153.33325200000036,176.2822270000006,110.64111300000059,87.17968800000017,109.61523400000078,90.76904300000024,178.0771479999994,77.05126999999993,90.51269500000035,226.41015599999992,188.0771479999994
47,-38.974365000000034,977.5639650000003,194.61523400000078,-145.38452099999995,146.53857400000015,112.05126999999993,79.35888699999941,96.53857400000015,85.89746099999957,141.53857400000015,58.20507799999996,86.41015599999992,241.79492200000004,222.3076170000004
48,-44.48706099999981,1020.2563479999999,193.84619099999964,-115.25634799999989,120.51269500000035,114.74365200000011,77.69238299999961,87.94873000000007,80.51269500000035,109.48730499999965,58.7177729999994,86.15380900000036,278.9741210000002,274.6152340000008
49,-40.89746100000002,1070.1284180000002,198.46142599999985,-69.74365200000011,115.0,115.89746099999957,81.15380900000036,85.76904300000024,74.35888699999941,101.41015599999992,76.9228520000006,89.35888699999941,325.0,330.3847659999992
50,-31.28198199999997,1110.8974609999996,207.17968800000017,-23.076904000000013,138.7177729999994,115.89746099999957,86.53857400000015,90.38476599999922,71.0258789999998,121.6665039999998,101.41015599999992,93.46142599999985,366.6665039999998,372.6923829999996
51,-20.0,1135.256348,217.05126999999993,13.461425999999847,183.84619099999964,116.6665039999998,91.53857400000015,100.64111300000059,74.48730499999965,157.17968800000017,120.12841800000024,96.41015599999992,399.3588869999994,393.46142599999985
52,-11.153809000000365,1150.256348,224.87158199999976,36.9228520000006,226.0258789999998,118.58984400000008,95.38476599999922,111.79492200000004,84.61523400000078,186.2822270000006,126.53857400000015,97.69238299999961,424.10253900000043,396.6665039999998
53,-7.179442999999992,1166.6665039999998,228.0771479999994,50.897460999999566,238.9741210000002,119.23095699999976,97.05126999999993,117.17968800000017,94.87158199999976,192.82031300000017,120.76904300000024,97.82031300000017,439.3588869999994,392.94873000000007
54,-9.358886999999868,1187.8203130000002,225.51269500000035,58.846190999999635,212.82031300000017,115.0,95.51269500000035,111.9228520000006,96.9228520000006,174.10253900000043,106.41015599999992,96.6665039999998,440.51269500000035,390.2563479999999
55,-18.205077999999958,1204.2309569999998,217.3076170000004,61.025878999999804,160.12841800000024,105.64111300000059,89.48730499999965,97.56396500000028,86.53857400000015,140.51269500000035,86.41015599999992,93.58984400000008,428.20507799999996,387.5639650000003
56,-31.538574000000153,1205.0,206.2822270000006,56.53857400000015,108.58984400000008,95.76904300000024,80.76904300000024,81.53857400000015,68.3334960000002,109.10253900000043,63.589844000000085,87.82031300000017,413.9741210000002,380.0
57,-40.89746100000002,1193.7177729999994,198.84619099999964,51.2822270000006,90.76904300000024,93.7177729999994,74.35888699999941,75.12841800000024,56.2822270000006,95.51269500000035,46.53857400000015,82.05126999999993,416.79492200000004,370.51269500000035
58,-33.20507799999996,1192.3076170000004,202.56396500000028,58.974121000000196,128.46142599999985,105.0,76.53857400000015,86.41015599999992,65.25634799999989,109.61523400000078,48.333496000000196,81.9228520000006,450.51269500000035,372.94873000000007
59,-3.846190999999635,1220.1284180000002,218.9741210000002,87.56396500000028,212.6923829999996,126.15380900000036,88.84619099999964,113.3334960000002,96.79492200000004,148.0771479999994,75.76904300000024,91.0258789999998,510.51269500000035,397.94873000000007
60,33.974121000000196,1268.3334960000002,239.23095699999976,125.89746099999957,296.2822270000006,143.9741210000002,105.0,142.05126999999993,133.46142599999985,191.2822270000006,116.0258789999998,106.0258789999998,570.1284180000002,436.4101559999999
61,54.74365200000011,1300.7690430000002,247.94873000000007,146.6665039999998,322.3076170000004,145.12841800000024,114.10253900000043,154.23095699999976,148.84619099999964,213.20507799999996,141.2822270000006,116.79492200000004,597.0512699999999,461.79492200000004
62,41.153809000000365,1288.4614259999998,236.53857400000015,129.23095699999976,272.05126999999993,127.56396500000028,109.10253900000043,140.12841800000024,130.0,199.7436520000001,129.87158199999976,114.61523400000078,578.9741210000002,451.6665039999998
63,-0.38476599999921746,1240.6411130000006,210.6411130000006,78.84619099999964,185.0,103.0771479999994,92.05126999999993,107.17968800000017,88.20507799999996,159.3588869999994,85.12841800000024,100.12841800000024,534.7436520000001,409.10253900000043
64,-44.10253899999998,1199.3588869999994,186.15380900000036,24.615234000000783,124.74365200000011,88.9741210000002,73.0771479999994,74.48730499999965,48.974121000000196,114.74365200000011,32.05126999999993,82.05126999999993,500.2563479999999,360.3847659999992
65,-65.38452099999995,1199.1025390000004,176.2822270000006,-5.0,124.74365200000011,94.10253900000043,61.79492200000004,58.589844000000085,32.30761700000039,85.38476599999922,-1.6665039999998044,70.76904300000024,499.6152340000008,333.0771479999994
66,-58.07690400000001,1235.8974609999996,181.79492200000004,-3.4614259999998467,167.56396500000028,112.94873000000007,61.2822270000006,63.0771479999994,39.35888699999941,77.69238299999961,-5.128174000000399,70.12841800000024,528.205078,335.2563479999999
67,-36.41015600000037,1274.6152340000008,193.7177729999994,13.333496000000196,210.2563479999999,131.41015599999992,66.79492200000004,78.20507799999996,56.410155999999915,85.64111300000059,11.666503999999804,76.6665039999998,560.7690430000002,353.3334960000002
68,-20.38452099999995,1282.94873,201.79492200000004,23.717772999999397,222.56396500000028,137.82031300000017,71.53857400000015,89.35888699999941,68.0771479999994,98.46142599999985,28.461425999999847,83.9741210000002,574.1025390000004,367.3076170000004
69,-19.230713000000378,1258.0771479999994,202.82031300000017,18.333496000000196,207.6923829999996,131.0258789999998,73.0771479999994,90.12841800000024,69.74365200000011,108.58984400000008,32.69238299999961,87.30761700000039,566.9228520000006,367.05126999999993
70,-26.666747999999643,1224.8715819999998,201.6665039999998,5.3847659999992175,193.3334960000002,120.0,74.10253900000043,85.38476599999922,68.7177729999994,116.9228520000006,27.69238299999961,87.43603499999972,557.6923829999996,358.46142599999985
71,-28.974365000000034,1213.0771479999994,205.2563479999999,1.153809000000365,203.20507799999996,115.12841800000024,79.10253900000043,86.15380900000036,74.35888699999941,128.46142599999985,26.538574000000153,88.20507799999996,565.3847659999992,355.12841800000024
72,-19.230713000000378,1233.205078,214.87158199999976,13.333496000000196,232.94873000000007,120.0,88.20507799999996,96.79492200000004,87.30761700000039,142.43603499999972,36.153809000000365,91.6665039999998,590.2563479999999,363.46142599999985
73,-3.4614259999998467,1270.6411130000006,225.12841800000024,33.7177729999994,253.7177729999994,129.87158199999976,96.41015599999992,111.0258789999998,99.23095699999976,151.6665039999998,48.46142599999985,96.2822270000006,615.2563479999999,377.82031300000017
74,6.025878999999804,1300.256348,229.10253900000043,46.025878999999804,243.3334960000002,137.17968800000017,98.7177729999994,118.58984400000008,102.69238299999961,151.6665039999998,50.897460999999566,98.84619099999964,624.6152340000008,386.79492200000004
75,4.487304999999651,1307.6923829999996,225.2563479999999,41.79492200000004,211.6665039999998,137.94873000000007,95.89746099999957,116.41015599999992,98.3334960000002,147.3076170000004,40.51269500000035,98.20507799999996,618.7177729999994,385.0
76,-3.077147999999397,1296.6665039999998,218.3334960000002,27.05126999999993,192.17968800000017,134.87158199999976,93.3334960000002,110.64111300000059,93.46142599999985,146.41015599999992,28.205077999999958,96.79492200000004,611.0258789999998,377.17968800000017
77,-8.974365000000034,1282.05127,213.20507799999996,15.256347999999889,207.43603499999972,132.05126999999993,94.87158199999976,108.20507799999996,91.41015599999992,148.0771479999994,25.128418000000238,97.17968800000017,611.5385740000002,369.7436520000001
78,-12.820557000000008,1274.6152340000008,210.0,15.256347999999889,242.94873000000007,130.89746099999957,97.69238299999961,108.3334960000002,87.69238299999961,141.53857400000015,30.641113000000587,98.7177729999994,617.4360349999997,362.6923829999996
79,-19.8718259999996,1276.0258789999998,205.2563479999999,24.102539000000434,259.7436520000001,129.7436520000001,96.15380900000036,104.23095699999976,75.76904300000024,120.38476599999922,33.846190999999635,98.3334960000002,618.9741210000002,351.79492200000004
80,-28.974365000000034,1281.794922,199.3588869999994,33.20507799999996,237.3076170000004,128.58984400000008,89.48730499999965,94.35888699999941,60.12841800000024,96.2822270000006,29.615234000000783,95.25634799999989,613.4614259999998,338.84619099999964
81,-31.025634999999966,1287.94873,197.3076170000004,38.846190999999635,199.87158199999976,130.0,83.9741210000002,87.17968800000017,56.025878999999804,92.56396500000028,25.51269500000035,92.82031300000017,609.7436520000001,334.10253900000043
82,-19.358886999999868,1292.8203130000002,202.43603499999972,43.589844000000085,191.9228520000006,135.2563479999999,85.89746099999957,92.05126999999993,73.7177729999994,119.87158199999976,30.51269500000035,95.38476599999922,616.1538090000004,343.9741210000002
83,-2.4360349999997197,1294.3588869999994,209.3588869999994,50.0,226.79492200000004,140.76904300000024,93.58984400000008,106.9228520000006,103.3334960000002,158.84619099999964,40.897460999999566,101.2822270000006,629.4873049999997,359.23095699999976
84,2.4360349999997197,1291.0258789999998,208.20507799999996,55.64111300000059,269.48730499999965,140.2563479999999,98.84619099999964,119.10253900000043,121.53857400000015,174.23095699999976,43.0771479999994,105.12841800000024,636.5385740000002,361.2822270000006
85,-11.41015600000037,1286.1538090000004,196.41015599999992,56.79492200000004,275.51269500000035,131.9228520000006,97.05126999999993,118.84619099999964,115.51269500000035,149.48730499999965,30.769043000000238,102.94873000000007,630.8974609999996,342.82031300000017
86,-30.769286999999622,1288.9741210000002,183.58984400000008,56.53857400000015,241.0258789999998,122.30761700000039,92.30761700000039,110.51269500000035,97.30761700000039,106.79492200000004,16.538574000000153,98.20507799999996,622.9487300000001,318.84619099999964
87,-34.10253899999998,1307.1796880000002,182.6923829999996,62.17968800000017,204.48730499999965,120.12841800000024,92.94873000000007,106.6665039999998,90.12841800000024,86.79492200000004,18.589844000000085,97.17968800000017,629.7436520000001,312.94873000000007
88,-13.974365000000034,1334.1025390000004,195.89746099999957,75.25634799999989,201.9228520000006,128.7177729999994,102.05126999999993,114.48730499999965,102.94873000000007,108.0771479999994,40.25634799999989,102.43603499999972,654.4873049999997,333.46142599999985
89,13.077147999999397,1348.589844,211.41015599999992,85.38476599999922,230.12841800000024,141.79492200000004,113.0771479999994,127.30761700000039,121.79492200000004,150.76904300000024,64.10253900000043,109.23095699999976,679.2309569999998,361.9228520000006
90,22.05126999999993,1333.8461909999996,214.23095699999976,80.12841800000024,256.9228520000006,149.23095699999976,115.89746099999957,130.89746099999957,124.74365200000011,177.6923829999996,67.69238299999961,110.64111300000059,681.0258789999998,369.87158199999976
91,2.5639650000002803,1298.4614259999998,200.2563479999999,59.102539000000434,258.46142599999985,146.0258789999998,106.41015599999992,119.10253900000043,105.0,169.3588869999994,45.64111300000059,104.10253900000043,655.6411130000006,345.6411130000006
92,-30.89746100000002,1273.3334960000002,180.12841800000024,38.20507799999996,239.7436520000001,135.51269500000035,91.15380900000036,100.0,77.30761700000039,138.58984400000008,15.512695000000349,94.48730499999965,623.205078,306.15380900000036
93,-51.92309599999999,1282.94873,169.10253900000043,34.35888699999941,223.0771479999994,126.2822270000006,81.2822270000006,88.84619099999964,64.10253900000043,114.10253900000043,1.6665039999998044,88.58984400000008,611.1538090000004,280.89746099999957
94,-45.64111300000013,1322.3076170000004,174.61523400000078,50.76904300000024,223.46142599999985,124.74365200000011,82.69238299999961,93.84619099999964,75.51269500000035,112.69238299999961,15.128418000000238,90.0,629.4873049999997,286.53857400000015
95,-19.61547900000005,1360.8974609999996,190.12841800000024,73.46142599999985,235.76904300000024,130.12841800000024,92.43603499999972,109.74365200000011,100.89746099999957,126.9228520000006,44.23095699999976,95.64111300000059,663.7177729999994,314.3588869999994
96,4.6152340000007825,1370.1284180000002,202.94873000000007,86.0258789999998,244.10253900000043,136.79492200000004,101.6665039999998,122.94873000000007,120.25634799999989,136.41015599999992,65.64111300000059,99.61523400000078,687.4360349999997,339.3588869999994
97,9.871581999999762,1345.7690430000002,204.23095699999976,82.56396500000028,240.6411130000006,138.58984400000008,103.3334960000002,122.82031300000017,121.15380900000036,129.7436520000001,63.333496000000196,98.3334960000002,684.4873049999997,342.5639650000003
98,-3.5898440000000846,1309.4873049999997,195.0,72.17968800000017,233.0771479999994,134.7436520000001,97.30761700000039,110.38476599999922,107.94873000000007,114.48730499999965,41.9228520000006,93.20507799999996,661.0258789999998,324.3588869999994
99,-20.38452099999995,1290.7690430000002,184.7436520000001,69.74365200000011,236.41015599999992,128.7177729999994,89.87158199999976,97.43603499999972,95.76904300000024,109.10253900000043,22.05126999999993,89.23095699999976,639.2309569999998,302.17968800000017
100,-24.487060999999812,1302.4360349999997,182.6923829999996,82.94873000000007,256.2822270000006,125.89746099999957,88.84619099999964,97.17968800000017,96.9228520000006,124.48730499999965,22.82031300000017,90.51269500000035,639.2309569999998,294.6152340000008
101,-11.666747999999643,1332.1796880000002,191.0258789999998,106.9228520000006,278.7177729999994,128.46142599999985,96.53857400000015,112.43603499999972,111.2822270000006,153.84619099999964,45.38476599999922,96.9228520000006,661.5385740000002,307.17968800000017
102,8.717772999999397,1354.4873049999997,204.23095699999976,129.3588869999994,282.4360349999997,133.9741210000002,108.3334960000002,133.7177729999994,127.17968800000017,177.43603499999972,74.10253900000043,104.87158199999976,688.5898440000001,329.23095699999976
103,23.205077999999958,1353.205078,214.10253900000043,141.79492200000004,260.89746099999957,137.17968800000017,117.69238299999961,147.82031300000017,132.05126999999993,178.7177729999994,90.76904300000024,109.87158199999976,699.2309569999998,344.3588869999994
104,25.384765999999217,1332.94873,216.2822270000006,145.0,231.41015599999992,135.12841800000024,120.12841800000024,147.82031300000017,123.84619099999964,156.79492200000004,89.23095699999976,110.0,685.6411130000006,343.0771479999994
105,17.56396500000028,1310.256348,211.15380900000036,145.0,218.58984400000008,129.10253900000043,116.15380900000036,135.76904300000024,109.48730499999965,126.15380900000036,75.76904300000024,106.79492200000004,657.3076170000004,327.6923829999996
106,6.666503999999804,1298.589844,202.05126999999993,146.79492200000004,231.53857400000015,124.10253900000043,108.3334960000002,118.9741210000002,97.05126999999993,104.74365200000011,60.897460999999566,102.43603499999972,631.6665039999998,307.4360349999997
107,-1.6665039999998044,1299.743652,193.46142599999985,152.43603499999972,255.38476599999922,124.23095699999976,100.51269500000035,105.64111300000059,90.0,101.15380900000036,51.79492200000004,98.9741210000002,621.4101559999999,292.17968800000017
108,-3.4614259999998467,1307.4360349999997,189.10253900000043,162.17968800000017,268.7177729999994,130.0,96.15380900000036,101.0258789999998,88.0771479999994,111.6665039999998,50.76904300000024,97.05126999999993,626.794922,287.05126999999993
109,1.7949220000000423,1314.4873049999997,190.6411130000006,176.41015599999992,263.20507799999996,138.3334960000002,96.53857400000015,106.15380900000036,90.64111300000059,126.6665039999998,56.79492200000004,97.30761700000039,637.9487300000001,291.2822270000006
110,10.256347999999889,1317.94873,195.38476599999922,194.61523400000078,247.82031300000017,143.7177729999994,100.12841800000024,115.89746099999957,96.6665039999998,138.0771479999994,66.53857400000015,99.23095699999976,641.794922,297.5639650000003
111,14.871581999999762,1318.9741210000002,198.3334960000002,213.20507799999996,234.61523400000078,142.82031300000017,102.30761700000039,121.79492200000004,103.0771479999994,141.6665039999998,74.61523400000078,100.89746099999957,630.8974609999996,296.4101559999999
112,11.538574000000153,1320.6411130000006,196.2822270000006,227.43603499999972,228.58984400000008,136.6665039999998,99.74365200000011,118.3334960000002,105.51269500000035,136.6665039999998,77.82031300000017,100.64111300000059,607.1796880000002,284.10253900000043
113,4.230956999999762,1326.794922,191.53857400000015,235.2563479999999,229.23095699999976,130.0,93.9741210000002,107.56396500000028,102.94873000000007,125.12841800000024,77.69238299999961,98.7177729999994,580.5126950000003,266.53857400000015
114,1.6665039999998044,1339.3588869999994,189.3588869999994,240.2563479999999,236.53857400000015,127.94873000000007,90.51269500000035,97.94873000000007,99.10253900000043,112.56396500000028,79.10253900000043,97.56396500000028,560.6411130000006,255.12841800000024
115,9.230956999999762,1356.794922,192.82031300000017,248.84619099999964,248.46142599999985,131.53857400000015,93.3334960000002,96.6665039999998,97.17968800000017,104.35888699999941,85.12841800000024,99.23095699999976,549.2309569999998,256.53857400000015
116,23.717772999999397,1373.3334960000002,199.3588869999994,264.87158199999976,256.2822270000006,136.79492200000004,100.89746099999957,103.3334960000002,97.17968800000017,102.69238299999961,93.84619099999964,103.46142599999985,538.9741210000002,267.17968800000017
117,36.53857400000015,1382.05127,203.84619099999964,286.53857400000015,247.94873000000007,138.84619099999964,106.9228520000006,111.15380900000036,96.2822270000006,104.74365200000011,102.05126999999993,107.56396500000028,521.4101559999999,276.4101559999999
118,42.82031300000017,1379.4873049999997,203.84619099999964,309.10253900000043,221.0258789999998,136.15380900000036,106.79492200000004,113.84619099999964,93.20507799999996,106.53857400000015,108.3334960000002,109.48730499999965,495.76904300000024,275.51269500000035
119,45.64111300000059,1370.5126950000003,202.56396500000028,329.87158199999976,190.38476599999922,132.3076170000004,101.41015599999992,111.53857400000015,90.51269500000035,106.2822270000006,114.87158199999976,110.25634799999989,470.51269500000035,265.3847659999992
120,52.43603499999972,1366.9228520000006,205.51269500000035,349.10253900000043,178.20507799999996,132.3076170000004,96.15380900000036,109.61523400000078,92.17968800000017,106.15380900000036,124.48730499999965,111.41015599999992,455.3847659999992,255.51269500000035
121,67.56396500000028,1377.6923829999996,215.12841800000024,366.9228520000006,194.48730499999965,137.6923829999996,96.0258789999998,113.7177729999994,99.74365200000011,108.84619099999964,137.56396500000028,113.7177729999994,452.17968800000017,255.51269500000035
122,87.56396500000028,1400.6411130000006,228.20507799999996,381.6665039999998,226.79492200000004,145.12841800000024,101.6665039999998,124.74365200000011,110.64111300000059,115.51269500000035,151.41015599999992,115.64111300000059,451.6665039999998,267.05126999999993
123,104.23095699999976,1423.3334960000002,239.87158199999976,392.6923829999996,250.89746099999957,149.61523400000078,110.12841800000024,138.58984400000008,121.0258789999998,125.51269500000035,163.58984400000008,116.6665039999998,441.4101559999999,281.9228520000006
124,111.2822270000006,1431.5385740000002,247.05126999999993,400.6411130000006,250.51269500000035,148.58984400000008,116.79492200000004,148.84619099999964,128.7177729999994,136.6665039999998,171.79492200000004,117.17968800000017,414.6152340000008,288.20507799999996
125,108.0771479999994,1418.4614259999998,248.58984400000008,406.6665039999998,227.17968800000017,142.82031300000017,118.0771479999994,150.38476599999922,132.43603499999972,144.61523400000078,174.3588869999994,117.69238299999961,375.12841800000024,277.5639650000003
126,98.7177729999994,1387.6923829999996,244.87158199999976,409.7436520000001,194.3588869999994,134.61523400000078,113.0771479999994,141.6665039999998,131.2822270000006,143.3334960000002,170.51269500000035,117.56396500000028,333.3334960000002,249.48730499999965
127,89.23095699999976,1348.8461909999996,236.79492200000004,408.46142599999985,166.15380900000036,125.76904300000024,103.3334960000002,125.64111300000059,124.48730499999965,128.7177729999994,161.41015599999992,115.51269500000035,299.48730499999965,210.12841800000024
128,83.7177729999994,1312.3076170000004,226.15380900000036,403.9741210000002,149.7436520000001,118.58984400000008,93.0771479999994,108.84619099999964,113.46142599999985,103.84619099999964,150.51269500000035,111.0258789999998,279.23095699999976,168.9741210000002
129,83.84619099999964,1286.0258789999998,216.0258789999998,402.3076170000004,146.2822270000006,115.76904300000024,87.43603499999972,98.20507799999996,102.30761700000039,79.10253900000043,143.20507799999996,106.15380900000036,272.17968800000017,135.0
130,88.84619099999964,1273.3334960000002,209.7436520000001,411.15380900000036,152.6923829999996,118.3334960000002,89.35888699999941,98.0771479999994,95.89746099999957,66.41015599999992,143.84619099999964,103.58984400000008,273.9741210000002,113.46142599999985
131,96.79492200000004,1271.0258789999998,209.10253900000043,434.3588869999994,163.84619099999964,124.74365200000011,97.43603499999972,108.3334960000002,97.30761700000039,69.48730499999965,152.82031300000017,105.25634799999989,279.23095699999976,103.9741210000002
132,105.38476599999922,1270.256348,212.94873000000007,467.17968800000017,172.17968800000017,131.41015599999992,106.79492200000004,122.56396500000028,104.74365200000011,82.17968800000017,165.89746099999957,110.64111300000059,282.82031300000017,101.79492200000004
133,111.79492200000004,1260.256348,217.82031300000017,498.7177729999994,171.53857400000015,134.48730499999965,112.05126999999993,132.3076170000004,113.20507799999996,92.94873000000007,176.79492200000004,116.53857400000015,282.17968800000017,101.2822270000006
134,114.61523400000078,1235.8974609999996,220.6411130000006,518.9741210000002,160.2563479999999,132.94873000000007,111.15380900000036,132.82031300000017,117.17968800000017,93.46142599999985,181.0258789999998,119.74365200000011,277.5639650000003,100.12841800000024
135,115.0,1201.6665039999998,220.89746099999957,526.5385740000002,142.94873000000007,129.10253900000043,106.0258789999998,126.15380900000036,114.48730499999965,82.94873000000007,178.84619099999964,119.35888699999941,272.3076170000004,99.48730499999965
136,115.76904300000024,1168.3334960000002,219.3588869999994,528.3334960000002,127.69238299999961,126.6665039999998,101.0258789999998,118.46142599999985,107.17968800000017,67.43603499999972,173.58984400000008,117.05126999999993,269.3588869999994,100.0
137,118.20507799999996,1145.1284180000002,217.3076170000004,532.4360349999997,121.0258789999998,127.43603499999972,98.9741210000002,115.25634799999989,100.0,54.35888699999941,167.56396500000028,115.0,269.10253900000043,98.9741210000002
138,122.43603499999972,1133.4614259999998,215.0,541.794922,124.23095699999976,130.12841800000024,99.74365200000011,118.46142599999985,97.56396500000028,48.46142599999985,162.3076170000004,114.10253900000043,270.12841800000024,92.43603499999972
139,127.69238299999961,1126.9228520000006,213.20507799999996,552.9487300000001,132.94873000000007,131.9228520000006,102.17968800000017,126.15380900000036,102.43603499999972,50.25634799999989,158.9741210000002,114.35888699999941,270.6411130000006,79.87158199999976
140,132.94873000000007,1115.256348,212.3076170000004,561.4101559999999,140.38476599999922,130.51269500000035,104.61523400000078,134.3588869999994,113.9741210000002,57.30761700000039,159.61523400000078,115.38476599999922,270.0,65.64111300000059
141,136.79492200000004,1090.6411130000006,211.79492200000004,565.1284180000002,141.6665039999998,126.2822270000006,105.64111300000059,137.82031300000017,127.69238299999961,65.89746099999957,164.7436520000001,116.41015599999992,267.4360349999997,55.0
142,137.82031300000017,1051.1538090000004,210.51269500000035,566.0258789999998,136.79492200000004,120.76904300000024,104.35888699999941,134.3588869999994,137.17968800000017,72.69238299999961,172.94873000000007,117.17968800000017,261.9228520000006,49.87158199999976
143,136.79492200000004,1002.4360349999997,208.58984400000008,566.6665039999998,131.15380900000036,116.53857400000015,101.9228520000006,126.79492200000004,138.7177729999994,76.6665039999998,181.9228520000006,117.69238299999961,253.20507799999996,49.35888699999941
144,136.6665039999998,954.3588869999994,208.3334960000002,567.8203130000002,129.7436520000001,115.0,100.76904300000024,121.41015599999992,133.7177729999994,79.61523400000078,190.89746099999957,118.58984400000008,241.79492200000004,51.79492200000004
145,139.23095699999976,913.0771479999994,211.79492200000004,567.4360349999997,131.79492200000004,115.51269500000035,102.82031300000017,122.05126999999993,126.6665039999998,83.84619099999964,199.48730499999965,119.61523400000078,226.53857400000015,55.51269500000035
146,142.6923829999996,877.4360349999997,218.46142599999985,563.3334960000002,131.41015599999992,116.53857400000015,106.53857400000015,126.6665039999998,121.0258789999998,88.84619099999964,206.15380900000036,119.48730499999965,205.76904300000024,57.82031300000017
147,143.46142599999985,841.0258789999998,225.51269500000035,555.7690430000002,125.25634799999989,117.05126999999993,108.9741210000002,129.7436520000001,117.56396500000028,91.53857400000015,209.3588869999994,117.94873000000007,180.12841800000024,56.410155999999915
148,140.76904300000024,799.4873049999997,230.6411130000006,548.0771479999994,116.6665039999998,117.17968800000017,108.58984400000008,128.46142599999985,116.0258789999998,90.64111300000059,209.7436520000001,116.2822270000006,155.89746099999957,52.05126999999993
149,137.6923829999996,754.2309569999998,233.46142599999985,542.9487300000001,112.56396500000028,117.43603499999972,106.41015599999992,124.87158199999976,116.53857400000015,87.94873000000007,210.2563479999999,115.89746099999957,142.43603499999972,49.102539000000434
150,137.56396500000028,709.7436520000001,233.9741210000002,539.4873049999997,114.87158199999976,118.0771479999994,104.87158199999976,123.46142599999985,118.7177729999994,86.53857400000015,213.3334960000002,116.79492200000004,143.9741210000002,50.64111300000059
151,139.48730499999965,668.3334960000002,230.51269500000035,532.6923829999996,117.17968800000017,118.58984400000008,104.10253900000043,124.74365200000011,120.64111300000059,85.64111300000059,217.3076170000004,117.17968800000017,154.61523400000078,54.74365200000011
152,138.84619099999964,628.8461909999996,221.15380900000036,518.3334960000002,111.2822270000006,118.3334960000002,103.0771479999994,125.51269500000035,120.0,80.64111300000059,217.17968800000017,114.87158199999976,162.6923829999996,55.64111300000059
153,132.05126999999993,590.3847659999992,206.41015599999992,497.17968800000017,95.64111300000059,117.43603499999972,100.38476599999922,121.53857400000015,115.64111300000059,68.7177729999994,209.7436520000001,109.87158199999976,159.61523400000078,50.25634799999989
154,121.2822270000006,555.2563479999999,190.51269500000035,476.15380900000036,79.23095699999976,116.53857400000015,96.41015599999992,113.3334960000002,109.10253900000043,52.82031300000017,197.05126999999993,103.46142599999985,145.38476599999922,40.76904300000024
155,113.46142599999985,527.6923829999996,178.7177729999994,464.10253900000043,74.74365200000011,115.89746099999957,93.46142599999985,105.25634799999989,103.9741210000002,41.9228520000006,185.76904300000024,98.58984400000008,128.0771479999994,33.333496000000196
156,114.10253900000043,509.10253900000043,174.61523400000078,464.6152340000008,88.9741210000002,116.0258789999998,93.7177729999994,103.58984400000008,103.84619099999964,43.46142599999985,182.6923829999996,97.05126999999993,116.2822270000006,33.46142599999985
157,122.56396500000028,495.6411130000006,177.6923829999996,471.79492200000004,114.87158199999976,116.79492200000004,97.82031300000017,109.87158199999976,109.23095699999976,56.9228520000006,189.48730499999965,98.58984400000008,114.23095699999976,41.153809000000365
158,132.94873000000007,481.4101559999999,184.23095699999976,473.84619099999964,135.6411130000006,118.0771479999994,103.58984400000008,119.87158199999976,117.05126999999993,73.20507799999996,201.41015599999992,101.53857400000015,119.48730499999965,52.30761700000039
159,138.20507799999996,461.79492200000004,188.9741210000002,462.6923829999996,135.51269500000035,119.48730499999965,107.43603499999972,126.15380900000036,122.05126999999993,81.6665039999998,209.7436520000001,103.46142599999985,126.0258789999998,61.410155999999915
160,134.48730499999965,436.0258789999998,187.56396500000028,439.6152340000008,112.69238299999961,119.87158199999976,107.17968800000017,123.7177729999994,120.51269500000035,78.0771479999994,207.17968800000017,103.0771479999994,127.05126999999993,64.10253900000043
161,123.7177729999994,407.3076170000004,180.0,414.7436520000001,81.6665039999998,118.7177729999994,102.94873000000007,113.58984400000008,113.3334960000002,67.17968800000017,193.20507799999996,100.89746099999957,118.58984400000008,59.48730499999965
162,112.05126999999993,381.9228520000006,170.6411130000006,400.3847659999992,64.23095699999976,117.43603499999972,98.0771479999994,102.17968800000017,104.74365200000011,58.0771479999994,174.3588869999994,98.84619099999964,102.43603499999972,50.897460999999566
163,106.79492200000004,364.7436520000001,165.2563479999999,402.6923829999996,73.0771479999994,118.20507799999996,96.53857400000015,97.05126999999993,100.38476599999922,57.56396500000028,161.2822270000006,98.58984400000008,85.64111300000059,44.61523400000078
164,110.12841800000024,355.3847659999992,165.51269500000035,417.4360349999997,101.53857400000015,122.05126999999993,99.61523400000078,101.53857400000015,103.3334960000002,64.61523400000078,160.76904300000024,100.38476599999922,74.87158199999976,45.51269500000035
165,118.0771479999994,347.17968800000017,167.94873000000007,431.79492200000004,128.20507799999996,127.30761700000039,104.61523400000078,112.17968800000017,111.41015599999992,71.6665039999998,171.15380900000036,102.56396500000028,71.79492200000004,52.69238299999961
166,123.9741210000002,331.6665039999998,168.0771479999994,433.20507799999996,133.7177729999994,130.51269500000035,106.79492200000004,122.30761700000039,118.7177729999994,71.6665039999998,183.3334960000002,103.46142599999985,72.56396500000028,60.76904300000024
167,123.84619099999964,306.4101559999999,164.48730499999965,419.10253900000043,116.41015599999992,129.7436520000001,104.74365200000011,127.17968800000017,121.0258789999998,65.0,188.20507799999996,103.3334960000002,71.15380900000036,64.48730499999965
168,118.9741210000002,276.2822270000006,159.10253900000043,397.05126999999993,91.0258789999998,125.89746099999957,99.74365200000011,125.76904300000024,119.10253900000043,58.0771479999994,182.6923829999996,102.82031300000017,63.589844000000085,63.0771479999994
169,112.17968800000017,248.3334960000002,153.3334960000002,377.5639650000003,75.12841800000024,120.64111300000059,94.48730499999965,119.35888699999941,116.15380900000036,57.17968800000017,169.48730499999965,101.6665039999998,48.974121000000196,57.82031300000017
170,105.51269500000035,225.89746099999957,147.05126999999993,365.76904300000024,75.64111300000059,115.76904300000024,89.74365200000011,110.64111300000059,113.84619099999964,62.05126999999993,154.7436520000001,99.10253900000043,30.384765999999217,50.64111300000059
171,100.12841800000024,207.82031300000017,139.7436520000001,360.6411130000006,86.41015599999992,112.56396500000028,85.12841800000024,102.43603499999972,111.0258789999998,67.43603499999972,143.9741210000002,95.76904300000024,13.077147999999397,43.589844000000085
172,97.69238299999961,191.2822270000006,133.3334960000002,358.0771479999994,95.51269500000035,112.30761700000039,81.9228520000006,97.94873000000007,106.6665039999998,67.43603499999972,140.2563479999999,92.94873000000007,2.1796880000001693,39.74365200000011
173,98.58984400000008,173.7177729999994,130.2563479999999,355.51269500000035,93.84619099999964,115.12841800000024,81.79492200000004,97.82031300000017,101.41015599999992,60.897460999999566,143.0771479999994,91.6665039999998,-1.4101559999999154,41.153809000000365
174,101.41015599999992,152.94873000000007,131.2822270000006,352.17968800000017,82.43603499999972,119.87158199999976,85.76904300000024,100.12841800000024,96.6665039999998,51.9228520000006,147.6923829999996,91.6665039999998,-1.6665039999998044,46.025878999999804
175,103.3334960000002,128.20507799999996,134.23095699999976,347.5639650000003,70.51269500000035,124.61523400000078,92.05126999999993,101.79492200000004,94.10253900000043,46.53857400000015,149.7436520000001,92.69238299999961,-3.077147999999397,49.74365200000011
176,102.30761700000039,102.56396500000028,136.15380900000036,340.6411130000006,68.3334960000002,127.69238299999961,97.69238299999961,101.9228520000006,94.87158199999976,48.333496000000196,147.82031300000017,94.74365200000011,-6.41015600000037,49.48730499999965
177,98.9741210000002,81.9228520000006,135.89746099999957,331.15380900000036,78.46142599999985,128.0771479999994,100.12841800000024,101.6665039999998,98.20507799999996,56.025878999999804,144.61523400000078,97.17968800000017,-8.58984399999963,46.666503999999804
178,95.51269500000035,70.25634799999989,133.7177729999994,320.51269500000035,93.9741210000002,125.25634799999989,97.82031300000017,101.79492200000004,101.6665039999998,63.46142599999985,142.6923829999996,98.84619099999964,-7.564209000000574,44.23095699999976
179,92.05126999999993,65.12841800000024,130.76904300000024,311.0258789999998,104.48730499999965,120.12841800000024,91.41015599999992,102.05126999999993,101.9228520000006,64.61523400000078,141.41015599999992,98.58984400000008,-5.512939000000188,43.20507799999996
180,87.30761700000039,59.35888699999941,127.30761700000039,304.3588869999994,104.74365200000011,114.35888699999941,83.46142599999985,100.64111300000059,98.58984400000008,58.333496000000196,138.58984400000008,95.89746099999957,-7.564209000000574,41.53857400000015
181,81.53857400000015,48.0771479999994,125.12841800000024,300.76904300000024,97.30761700000039,110.64111300000059,78.20507799999996,97.17968800000017,93.7177729999994,49.61523400000078,133.84619099999964,91.41015599999992,-16.025634999999966,37.94873000000007
182,78.0771479999994,32.69238299999961,126.0258789999998,299.23095699999976,89.48730499999965,110.76904300000024,79.48730499999965,94.35888699999941,91.9228520000006,46.025878999999804,130.6411130000006,88.20507799999996,-27.179442999999992,35.38476599999922
183,81.0258789999998,19.102539000000434,130.6411130000006,297.94873000000007,84.61523400000078,114.61523400000078,87.56396500000028,95.76904300000024,95.51269500000035,50.897460999999566,133.0771479999994,89.10253900000043,-34.61547900000005,38.589844000000085
184,90.0,10.641113000000587,136.2822270000006,293.9741210000002,80.25634799999989,118.9741210000002,97.82031300000017,101.15380900000036,103.0771479999994,59.61523400000078,141.15380900000036,94.61523400000078,-35.89746100000002,47.82031300000017
185,98.3334960000002,3.9741210000001956,138.0771479999994,285.12841800000024,71.53857400000015,120.76904300000024,103.7177729999994,105.51269500000035,108.46142599999985,63.0771479999994,148.46142599999985,101.41015599999992,-35.64111300000013,56.410155999999915
186,97.82031300000017,-8.076904000000013,132.94873000000007,272.5639650000003,58.589844000000085,118.7177729999994,101.6665039999998,103.9741210000002,105.89746099999957,55.897460999999566,146.41015599999992,104.10253900000043,-41.41015600000037,55.64111300000059
187,86.41015599999992,-29.230713000000378,122.82031300000017,260.89746099999957,48.46142599999985,115.51269500000035,93.7177729999994,95.89746099999957,95.0,41.53857400000015,133.3334960000002,100.51269500000035,-56.41015600000037,43.7177729999994
188,70.89746099999957,-55.38452099999995,113.58984400000008,254.3588869999994,49.48730499999965,114.74365200000011,86.15380900000036,86.6665039999998,83.3334960000002,30.897460999999566,116.2822270000006,93.0771479999994,-75.38452099999995,27.69238299999961
189,61.79492200000004,-77.30761700000039,110.89746099999957,253.3334960000002,64.10253900000043,117.94873000000007,84.35888699999941,82.94873000000007,80.12841800000024,33.7177729999994,106.2822270000006,86.6665039999998,-88.33325200000036,18.333496000000196
190,65.76904300000024,-88.07690400000001,116.2822270000006,254.7436520000001,85.89746099999957,123.46142599999985,88.7177729999994,87.69238299999961,88.58984400000008,51.53857400000015,109.61523400000078,85.51269500000035,-87.43579099999943,22.30761700000039
191,80.64111300000059,-87.82055700000001,126.53857400000015,254.87158199999976,103.7177729999994,128.0771479999994,96.15380900000036,98.3334960000002,102.69238299999961,75.89746099999957,124.10253900000043,90.0,-73.07690400000001,38.20507799999996
192,96.9228520000006,-85.0,135.0,251.2822270000006,108.9741210000002,128.7177729999994,102.30761700000039,108.3334960000002,111.2822270000006,94.23095699999976,140.2563479999999,96.53857400000015,-53.974365000000034,57.56396500000028
193,103.9741210000002,-90.1281740000004,136.53857400000015,242.82031300000017,99.87158199999976,124.48730499999965,104.10253900000043,111.6665039999998,106.2822270000006,97.56396500000028,147.94873000000007,100.38476599999922,-41.53857400000015,69.35888699999941
194,98.3334960000002,-107.82055700000001,130.51269500000035,231.41015599999992,82.94873000000007,117.69238299999961,101.41015599999992,107.43603499999972,89.48730499999965,86.6665039999998,143.7177729999994,99.48730499999965,-42.17944299999999,67.94873000000007
195,85.76904300000024,-131.79492200000004,121.6665039999998,220.89746099999957,67.94873000000007,112.69238299999961,97.43603499999972,100.38476599999922,71.9228520000006,70.12841800000024,132.82031300000017,95.76904300000024,-52.948729999999614,57.82031300000017
196,76.41015599999992,-150.64111300000013,115.64111300000059,215.2563479999999,61.666503999999804,111.79492200000004,95.51269500000035,96.53857400000015,66.79492200000004,58.333496000000196,124.74365200000011,92.05126999999993,-64.35888699999987,48.846190999999635
197,76.41015599999992,-157.43579099999943,115.12841800000024,214.48730499999965,64.74365200000011,114.10253900000043,96.41015599999992,97.43603499999972,78.58984400000008,57.05126999999993,125.12841800000024,89.74365200000011,-69.48706099999981,48.46142599999985
198,83.7177729999994,-155.1281740000004,117.82031300000017,215.38476599999922,72.82031300000017,116.53857400000015,97.56396500000028,100.51269500000035,99.35888699999941,65.25634799999989,131.15380900000036,88.7177729999994,-67.69238299999961,55.0
199,90.51269500000035,-153.20507799999996,120.0,214.10253900000043,79.61523400000078,116.79492200000004,95.76904300000024,102.05126999999993,115.51269500000035,76.41015599999992,135.76904300000024,88.0771479999994,-64.48706099999981,61.153809000000365
200,89.74365200000011,-160.0,118.7177729999994,208.20507799999996,78.58984400000008,115.51269500000035,91.0258789999998,99.87158199999976,116.9228520000006,82.82031300000017,132.94873000000007,87.30761700000039,-66.15380900000036,60.25634799999989
201,79.61523400000078,-177.3076170000004,114.48730499999965,197.6923829999996,66.0258789999998,113.84619099999964,86.0258789999998,94.61523400000078,104.23095699999976,80.0,122.30761700000039,85.76904300000024,-75.64111300000013,51.153809000000365
202,65.51269500000035,-199.4870609999998,110.12841800000024,184.87158199999976,47.43603499999972,112.69238299999961,83.7177729999994,89.48730499999965,87.43603499999972,70.12841800000024,109.35888699999941,83.3334960000002,-90.25634799999989,39.23095699999976
203,57.05126999999993,-216.53857400000015,110.0,175.76904300000024,37.82031300000017,112.43603499999972,86.0258789999998,89.23095699999976,79.48730499999965,61.666503999999804,102.30761700000039,81.6665039999998,-102.17944299999999,32.82031300000017
204,62.30761700000039,-220.2563479999999,116.9228520000006,176.2822270000006,51.2822270000006,114.23095699999976,93.0771479999994,96.9228520000006,87.82031300000017,64.10253900000043,107.30761700000039,82.82031300000017,-103.71801800000003,38.46142599999985
205,80.0,-211.41015600000037,129.10253900000043,187.3076170000004,86.2822270000006,117.69238299999961,102.17968800000017,110.51269500000035,108.84619099999964,80.51269500000035,123.0771479999994,87.82031300000017,-93.46142599999985,55.12841800000024
206,98.9741210000002,-200.2563479999999,139.7436520000001,200.89746099999957,121.15380900000036,120.64111300000059,108.9741210000002,122.56396500000028,128.58984400000008,102.56396500000028,140.6411130000006,93.7177729999994,-79.35888699999987,73.3334960000002
207,105.25634799999989,-200.38452099999995,140.76904300000024,205.12841800000024,129.10253900000043,120.12841800000024,109.48730499999965,123.9741210000002,132.56396500000028,115.51269500000035,148.0771479999994,96.2822270000006,-73.84619099999964,80.64111300000059
208,92.69238299999961,-217.6923829999996,130.0,192.05126999999993,101.53857400000015,115.12841800000024,102.17968800000017,111.79492200000004,116.2822270000006,108.46142599999985,138.58984400000008,93.7177729999994,-84.35888699999987,71.2822270000006
209,68.46142599999985,-245.38452099999995,113.3334960000002,165.38476599999922,57.30761700000039,109.10253900000043,90.38476599999922,92.94873000000007,88.84619099999964,83.58984400000008,116.41015599999992,88.0771479999994,-106.41015600000037,50.76904300000024
210,48.333496000000196,-268.46142599999985,101.79492200000004,138.46142599999985,28.974121000000196,107.05126999999993,80.38476599999922,79.87158199999976,66.2822270000006,55.25634799999989,94.74365200000011,83.9741210000002,-127.05127000000039,33.0771479999994
211,45.25634799999989,-275.897461,102.56396500000028,125.38476599999922,36.025878999999804,110.89746099999957,77.17968800000017,80.64111300000059,60.76904300000024,39.61523400000078,86.2822270000006,85.0,-134.10253899999998,30.128418000000238
212,59.61523400000078,-268.20507799999996,114.35888699999941,130.38476599999922,70.25634799999989,116.9228520000006,81.2822270000006,92.43603499999972,73.46142599999985,43.589844000000085,93.84619099999964,90.89746099999957,-125.76928699999962,43.0771479999994
213,79.87158199999976,-257.179443,127.94873000000007,145.2563479999999,103.84619099999964,119.48730499999965,88.7177729999994,104.61523400000078,93.58984400000008,60.51269500000035,109.35888699999941,97.56396500000028,-110.76928699999962,61.666503999999804
214,90.64111300000059,-256.66674799999964,134.23095699999976,155.0,111.6665039999998,115.64111300000059,93.7177729999994,107.69238299999961,106.6665039999998,76.53857400000015,120.64111300000059,100.0,-102.17944299999999,72.17968800000017
215,84.74365200000011,-271.41015600000037,130.38476599999922,147.82031300000017,90.12841800000024,108.20507799999996,93.0771479999994,99.48730499999965,104.74365200000011,81.79492200000004,120.38476599999922,96.15380900000036,-107.30761700000039,68.20507799999996
216,68.20507799999996,-293.71801800000003,122.17968800000017,123.58984400000008,57.43603499999972,103.58984400000008,87.94873000000007,86.53857400000015,91.79492200000004,77.30761700000039,111.15380900000036,88.9741210000002,-122.05127000000039,54.87158199999976
217,54.74365200000011,-309.8718259999996,117.94873000000007,94.23095699999976,36.9228520000006,106.15380900000036,82.69238299999961,78.84619099999964,79.23095699999976,71.9228520000006,102.30761700000039,84.23095699999976,-135.0,43.846190999999635
218,55.25634799999989,-311.79492200000004,122.43603499999972,75.38476599999922,38.846190999999635,115.38476599999922,81.15380900000036,82.30761700000039,76.79492200000004,73.58984400000008,102.05126999999993,85.89746099999957,-136.66674799999964,44.61523400000078
219,69.35888699999941,-303.20507799999996,132.94873000000007,75.12841800000024,55.0,125.12841800000024,84.61523400000078,95.38476599999922,85.25634799999989,82.17968800000017,111.41015599999992,92.56396500000028,-126.15380900000036,56.9228520000006
220,86.2822270000006,-295.5129390000002,141.9228520000006,87.69238299999961,70.0,128.9741210000002,90.76904300000024,110.51269500000035,97.82031300000017,91.0258789999998,123.58984400000008,99.23095699999976,-111.28198199999997,72.43603499999972
221,93.58984400000008,-297.820557,143.0771479999994,99.48730499999965,75.0,124.87158199999976,95.0,120.0,106.15380900000036,93.84619099999964,130.89746099999957,101.6665039999998,-102.05127000000039,80.64111300000059
222,87.43603499999972,-310.1281740000004,136.41015599999992,100.64111300000059,71.41015599999992,117.05126999999993,94.74365200000011,121.15380900000036,107.30761700000039,90.64111300000059,130.12841800000024,99.48730499999965,-103.97436500000003,76.79492200000004
223,73.3334960000002,-324.4870609999998,126.6665039999998,91.2822270000006,65.25634799999989,111.79492200000004,90.25634799999989,115.89746099999957,103.58984400000008,86.41015599999992,123.84619099999964,95.0,-114.48706099999981,65.38476599999922
224,60.25634799999989,-333.97436500000003,119.23095699999976,77.69238299999961,58.7177729999994,112.17968800000017,84.74365200000011,107.56396500000028,98.58984400000008,85.12841800000024,115.89746099999957,90.64111300000059,-126.92309599999999,54.61523400000078
225,53.7177729999994,-337.820557,115.76904300000024,66.41015599999992,50.64111300000059,116.15380900000036,80.64111300000059,98.58984400000008,92.94873000000007,86.9228520000006,108.58984400000008,87.69238299999961,-135.89746100000002,50.12841800000024
226,54.61523400000078,-339.35888699999987,115.38476599999922,60.897460999999566,41.79492200000004,119.23095699999976,79.23095699999976,91.2822270000006,86.9228520000006,88.58984400000008,102.94873000000007,86.2822270000006,-139.8718259999996,52.17968800000017
227,60.76904300000024,-342.179443,117.17968800000017,62.05126999999993,35.897460999999566,119.10253900000043,80.12841800000024,88.58984400000008,82.30761700000039,88.3334960000002,100.64111300000059,86.6665039999998,-139.61547900000005,57.69238299999961
228,69.10253900000043,-347.179443,120.38476599999922,66.41015599999992,34.23095699999976,117.43603499999972,82.43603499999972,91.6665039999998,82.43603499999972,87.17968800000017,103.20507799999996,88.20507799999996,-137.820557,63.20507799999996
229,74.74365200000011,-354.4870609999998,124.10253900000043,67.94873000000007,32.17968800000017,116.41015599999992,84.61523400000078,98.20507799999996,88.7177729999994,86.53857400000015,109.61523400000078,89.61523400000078,-136.66674799999964,65.51269500000035
230,74.48730499999965,-363.33325200000036,126.79492200000004,61.79492200000004,24.102539000000434,116.53857400000015,85.25634799999989,102.43603499999972,97.56396500000028,86.6665039999998,115.89746099999957,90.38476599999922,-137.9487299999996,63.7177729999994
231,68.84619099999964,-371.923096,127.43603499999972,50.64111300000059,11.538574000000153,116.9228520000006,84.48730499999965,101.41015599999992,103.7177729999994,86.41015599999992,118.20507799999996,90.38476599999922,-141.15380900000036,60.0
232,63.20507799999996,-376.41015600000037,127.05126999999993,43.0771479999994,5.3847659999992175,117.17968800000017,83.7177729999994,97.82031300000017,104.61523400000078,85.64111300000059,117.17968800000017,90.51269500000035,-143.46142599999985,58.7177729999994
233,63.333496000000196,-374.61547900000005,127.82031300000017,46.025878999999804,17.05126999999993,118.20507799999996,84.61523400000078,97.05126999999993,101.79492200000004,85.51269500000035,116.0258789999998,91.2822270000006,-142.0512700000004,62.69238299999961
234,70.0,-368.20507799999996,130.38476599999922,57.56396500000028,46.53857400000015,120.64111300000059,87.05126999999993,101.6665039999998,98.84619099999964,85.76904300000024,117.05126999999993,92.69238299999961,-137.9487299999996,70.12841800000024
235,79.23095699999976,-362.6923829999996,133.46142599999985,68.46142599999985,78.9741210000002,122.82031300000017,89.23095699999976,108.0771479999994,98.58984400000008,84.48730499999965,118.3334960000002,93.3334960000002,-135.5129390000002,75.64111300000059
236,85.25634799999989,-363.076904,135.0,69.23095699999976,94.74365200000011,122.17968800000017,89.23095699999976,111.6665039999998,101.2822270000006,81.0258789999998,116.53857400000015,92.94873000000007,-137.9487299999996,75.51269500000035
237,86.0258789999998,-369.61547900000005,134.7436520000001,59.102539000000434,84.87158199999976,118.7177729999994,87.56396500000028,110.64111300000059,104.61523400000078,78.0771479999994,111.9228520000006,92.69238299999961,-143.97436500000003,71.0258789999998
238,83.7177729999994,-377.4357909999994,134.23095699999976,44.87158199999976,58.846190999999635,114.61523400000078,86.2822270000006,107.94873000000007,106.2822270000006,80.25634799999989,108.0771479999994,93.7177729999994,-147.9487299999996,67.69238299999961
239,82.56396500000028,-380.38452099999995,134.7436520000001,35.38476599999922,37.82031300000017,113.0771479999994,86.9228520000006,107.56396500000028,105.51269500000035,89.23095699999976,109.10253900000043,96.15380900000036,-145.5129390000002,69.87158199999976
240,84.61523400000078,-376.15380900000036,135.6411130000006,34.61523400000078,38.333496000000196,114.61523400000078,89.10253900000043,111.0258789999998,103.58984400000008,102.17968800000017,115.12841800000024,98.46142599999985,-136.66674799999964,77.17968800000017
241,88.20507799999996,-368.84619099999964,135.51269500000035,40.76904300000024,58.7177729999994,117.56396500000028,91.2822270000006,115.38476599999922,102.30761700000039,113.58984400000008,122.17968800000017,98.46142599999985,-127.30761700000039,84.23095699999976
242,88.9741210000002,-366.53857400000015,133.7177729999994,48.0771479999994,80.64111300000059,119.10253900000043,91.6665039999998,116.6665039999998,102.17968800000017,118.84619099999964,124.61523400000078,95.64111300000059,-124.48706099999981,85.0
243,83.3334960000002,-375.38452099999995,130.12841800000024,50.12841800000024,83.3334960000002,117.56396500000028,89.87158199999976,112.43603499999972,102.30761700000039,117.05126999999993,119.35888699999941,91.41015599999992,-131.66674799999964,77.56396500000028
244,70.76904300000024,-393.97436500000003,125.51269500000035,43.589844000000085,60.0,113.20507799999996,86.0258789999998,103.9741210000002,100.76904300000024,110.25634799999989,107.94873000000007,87.56396500000028,-146.15380900000036,64.35888699999941
245,56.53857400000015,-414.102539,121.2822270000006,31.666503999999804,24.615234000000783,108.46142599999985,81.6665039999998,95.64111300000059,97.56396500000028,102.05126999999993,95.76904300000024,85.64111300000059,-160.1281740000004,51.79492200000004
246,48.974121000000196,-424.2307130000004,120.0,22.82031300000017,3.077147999999397,106.9228520000006,79.35888699999941,92.94873000000007,96.41015599999992,96.53857400000015,90.38476599999922,86.79492200000004,-164.8718259999996,47.43603499999972
247,54.74365200000011,-417.3076170000004,123.7177729999994,25.25634799999989,13.461425999999847,110.25634799999989,82.05126999999993,99.61523400000078,101.79492200000004,96.41015599999992,96.41015599999992,90.64111300000059,-155.89746100000002,55.897460999999566
248,71.79492200000004,-397.6923829999996,131.0258789999998,39.23095699999976,49.48730499999965,116.79492200000004,89.48730499999965,112.82031300000017,113.3334960000002,101.53857400000015,111.15380900000036,95.51269500000035,-137.43579099999943,73.84619099999964
249,88.7177729999994,-379.35888699999987,136.6665039999998,54.74365200000011,83.84619099999964,121.53857400000015,97.69238299999961,123.84619099999964,124.23095699999976,106.9228520000006,124.23095699999976,98.58984400000008,-121.28198199999997,89.87158199999976
250,92.69238299999961,-376.53857400000015,135.2563479999999,59.61523400000078,90.12841800000024,120.0,100.51269500000035,124.10253900000043,124.61523400000078,106.6665039999998,125.12841800000024,97.94873000000007,-118.84619099999964,92.69238299999961
251,79.48730499999965,-392.9487299999996,126.6665039999998,49.35888699999941,63.333496000000196,112.69238299999961,94.87158199999976,112.17968800000017,110.76904300000024,97.56396500000028,111.0258789999998,94.23095699999976,-132.9487299999996,79.61523400000078
252,57.82031300000017,-418.84619099999964,116.53857400000015,29.358886999999413,23.461425999999847,104.23095699999976,83.0771479999994,95.89746099999957,90.0,82.69238299999961,91.0258789999998,90.25634799999989,-154.7436520000001,59.61523400000078
253,42.43603499999972,-438.076904,111.9228520000006,11.282227000000603,-1.0258789999998044,100.0,71.79492200000004,86.0258789999998,75.64111300000059,69.23095699999976,78.7177729999994,88.20507799999996,-170.38452099999995,46.153809000000365
254,42.94873000000007,-439.61547900000005,115.25634799999989,4.358886999999413,4.743652000000111,101.9228520000006,67.43603499999972,87.82031300000017,76.41015599999992,63.46142599999985,81.79492200000004,89.23095699999976,-171.15380900000036,47.17968800000017
255,56.2822270000006,-425.2563479999999,123.3334960000002,11.410155999999915,32.43603499999972,107.94873000000007,72.56396500000028,97.43603499999972,89.48730499999965,67.82031300000017,96.6665039999998,92.30761700000039,-158.97436500000003,59.87158199999976
256,70.64111300000059,-406.79492200000004,129.87158199999976,27.56396500000028,61.153809000000365,113.9741210000002,83.58984400000008,106.53857400000015,103.3334960000002,80.0,112.17968800000017,95.0,-143.97436500000003,73.84619099999964
257,75.25634799999989,-397.3076170000004,130.38476599999922,43.846190999999635,74.10253900000043,117.05126999999993,92.43603499999972,108.46142599999985,108.20507799999996,95.12841800000024,118.46142599999985,95.25634799999989,-136.02563499999997,79.87158199999976
258,68.84619099999964,-401.15380900000036,125.38476599999922,51.79492200000004,69.10253900000043,116.9228520000006,91.53857400000015,103.9741210000002,102.56396500000028,107.69238299999961,113.7177729999994,93.0771479999994,-137.9487299999996,75.89746099999957
259,59.48730499999965,-411.923096,120.25634799999989,49.23095699999976,56.410155999999915,115.89746099999957,78.20507799999996,99.48730499999965,93.0771479999994,114.35888699999941,104.87158199999976,90.76904300000024,-144.35888699999987,68.0771479999994
260,56.410155999999915,-418.58984399999963,120.12841800000024,41.025878999999804,47.56396500000028,116.2822270000006,56.9228520000006,101.79492200000004,88.0771479999994,115.51269500000035,100.76904300000024,90.89746099999957,-147.56420900000057,64.48730499999965
261,62.43603499999972,-415.64111300000013,125.38476599999922,35.25634799999989,47.43603499999972,117.82031300000017,36.2822270000006,111.6665039999998,91.0258789999998,113.84619099999964,104.61523400000078,93.46142599999985,-145.0,68.46142599999985
262,71.9228520000006,-406.66674799999964,131.6665039999998,36.025878999999804,53.974121000000196,118.58984400000008,23.589844000000085,122.05126999999993,98.9741210000002,112.43603499999972,111.79492200000004,96.41015599999992,-140.2563479999999,76.2822270000006
263,75.76904300000024,-401.28198199999997,133.58984400000008,40.25634799999989,61.153809000000365,116.15380900000036,19.871581999999762,124.48730499999965,105.64111300000059,111.53857400000015,113.46142599999985,97.30761700000039,-139.35888699999987,80.51269500000035
264,69.61523400000078,-406.41015600000037,129.10253900000043,41.2822270000006,64.23095699999976,110.89746099999957,20.51269500000035,114.61523400000078,106.41015599999992,109.23095699999976,105.64111300000059,95.25634799999989,-145.1281740000004,76.2822270000006
265,56.666503999999804,-420.897461,121.2822270000006,35.76904300000024,61.79492200000004,105.51269500000035,20.51269500000035,97.05126999999993,100.89746099999957,102.69238299999961,92.43603499999972,91.0258789999998,-155.38452099999995,65.12841800000024
266,45.51269500000035,-436.15380900000036,115.64111300000059,27.17968800000017,57.30761700000039,103.58984400000008,18.717772999999397,82.56396500000028,93.84619099999964,93.20507799999996,83.3334960000002,87.05126999999993,-164.8718259999996,53.846190999999635
267,43.0771479999994,-441.923096,115.89746099999957,22.05126999999993,55.25634799999989,106.79492200000004,18.589844000000085,80.76904300000024,91.6665039999998,86.53857400000015,84.61523400000078,86.0258789999998,-169.35888699999987,48.974121000000196
268,49.102539000000434,-434.7436520000001,120.76904300000024,22.94873000000007,58.0771479999994,113.0771479999994,22.82031300000017,93.0771479999994,97.30761700000039,88.9741210000002,94.10253900000043,88.0771479999994,-168.076904,52.05126999999993
269,57.43603499999972,-420.2563479999999,125.25634799999989,26.410155999999915,66.53857400000015,118.46142599999985,30.0,111.2822270000006,108.3334960000002,101.53857400000015,102.94873000000007,91.15380900000036,-164.10253899999998,59.87158199999976
270,61.153809000000365,-409.102539,125.12841800000024,26.794922000000042,79.23095699999976,120.25634799999989,35.76904300000024,124.10253900000043,118.46142599999985,117.82031300000017,104.23095699999976,92.82031300000017,-160.89746100000002,66.79492200000004
271,58.846190999999635,-408.97436500000003,120.38476599999922,22.17968800000017,91.0258789999998,118.58984400000008,36.410155999999915,124.23095699999976,121.9228520000006,127.94873000000007,98.9741210000002,92.56396500000028,-159.10253899999998,69.48730499999965
272,53.974121000000196,-420.0,114.48730499999965,15.256347999999889,93.20507799999996,115.76904300000024,32.30761700000039,113.58984400000008,116.41015599999992,125.12841800000024,94.35888699999941,91.0258789999998,-155.89746100000002,68.3334960000002
273,51.666503999999804,-435.897461,111.79492200000004,10.0,80.38476599999922,113.9741210000002,26.922852000000603,101.0258789999998,105.76904300000024,110.64111300000059,97.05126999999993,89.61523400000078,-147.820557,66.2822270000006
274,53.7177729999994,-448.97436500000003,113.9741210000002,9.358886999999413,57.56396500000028,114.23095699999976,24.871581999999762,96.53857400000015,97.17968800000017,93.58984400000008,107.82031300000017,90.12841800000024,-133.84619099999964,67.17968800000017
275,59.23095699999976,-454.4870609999998,120.0,13.846190999999635,39.35888699999941,116.53857400000015,28.333496000000196,103.84619099999964,97.69238299999961,85.89746099999957,121.15380900000036,92.94873000000007,-116.02563499999997,73.0771479999994
276,66.0258789999998,-452.5642090000006,127.56396500000028,21.153809000000365,38.589844000000085,119.10253900000043,35.38476599999922,119.10253900000043,109.87158199999976,94.74365200000011,131.41015599999992,97.30761700000039,-97.82055700000001,83.58984400000008
277,72.56396500000028,-446.66674799999964,133.84619099999964,27.69238299999961,55.76904300000024,120.89746099999957,42.05126999999993,133.46142599999985,128.0771479999994,118.7177729999994,136.9228520000006,101.0258789999998,-82.30761700000039,96.0258789999998
278,77.43603499999972,-442.0512700000004,137.3076170000004,30.25634799999989,76.9228520000006,120.76904300000024,45.0,139.87158199999976,141.2822270000006,147.43603499999972,140.51269500000035,102.30761700000039,-70.76928699999962,106.0258789999998
279,78.20507799999996,-444.35888699999987,137.17968800000017,27.56396500000028,84.61523400000078,118.46142599999985,43.589844000000085,136.15380900000036,140.89746099999957,166.53857400000015,145.0,101.2822270000006,-63.974365000000034,109.23095699999976
280,72.82031300000017,-456.923096,133.3334960000002,20.384765999999217,72.05126999999993,114.35888699999941,39.87158199999976,125.12841800000024,127.30761700000039,166.9228520000006,150.38476599999922,98.7177729999994,-62.69238299999961,103.7177729999994
281,63.20507799999996,-476.41015600000037,127.56396500000028,11.794922000000042,49.48730499999965,110.38476599999922,36.153809000000365,112.94873000000007,110.51269500000035,151.0258789999998,154.10253900000043,95.64111300000059,-65.64111300000013,93.20507799999996
282,54.61523400000078,-492.820557,123.0771479999994,6.025878999999804,36.410155999999915,109.35888699999941,34.48730499999965,106.41015599999992,103.0771479999994,131.53857400000015,154.7436520000001,93.46142599999985,-67.69238299999961,85.51269500000035
283,53.20507799999996,-495.7692869999996,122.82031300000017,5.769043000000238,44.87158199999976,113.0771479999994,35.25634799999989,109.23095699999976,110.25634799999989,122.43603499999972,153.46142599999985,93.3334960000002,-63.974365000000034,87.17968800000017
284,60.51269500000035,-482.5642090000006,127.05126999999993,10.128418000000238,69.35888699999941,120.12841800000024,37.56396500000028,118.9741210000002,126.79492200000004,129.23095699999976,153.0771479999994,95.64111300000059,-54.10253899999998,97.56396500000028
285,71.53857400000015,-461.66674799999964,132.43603499999972,16.153809000000365,90.76904300000024,126.15380900000036,39.61523400000078,128.84619099999964,141.0258789999998,145.76904300000024,154.10253900000043,98.7177729999994,-43.71801800000003,108.84619099999964
286,79.35888699999941,-446.02563499999997,135.51269500000035,21.025878999999804,92.82031300000017,127.17968800000017,40.38476599999922,133.0771479999994,144.3588869999994,159.87158199999976,155.2563479999999,100.51269500000035,-39.61547900000005,112.56396500000028
287,80.0,-443.20507799999996,134.87158199999976,23.589844000000085,74.74365200000011,123.58984400000008,40.38476599999922,130.51269500000035,136.9228520000006,162.3076170000004,154.7436520000001,100.25634799999989,-43.71801800000003,106.9228520000006
288,75.64111300000059,-450.64111300000013,131.6665039999998,23.205077999999958,51.2822270000006,118.84619099999964,40.897460999999566,124.48730499999965,126.2822270000006,151.9228520000006,152.43603499999972,99.23095699999976,-51.92309599999999,97.56396500000028
289,71.15380900000036,-458.97436500000003,127.69238299999961,19.871581999999762,41.153809000000365,116.53857400000015,43.7177729999994,119.74365200000011,120.12841800000024,135.6411130000006,149.3588869999994,98.9741210000002,-58.20507799999996,92.56396500000028
290,69.87158199999976,-460.1281740000004,124.61523400000078,14.871581999999762,52.17968800000017,117.43603499999972,48.589844000000085,118.9741210000002,121.79492200000004,123.58984400000008,147.56396500000028,100.0,-59.35888699999987,95.64111300000059
291,71.15380900000036,-453.71801800000003,122.69238299999961,10.128418000000238,73.84619099999964,119.48730499999965,52.94873000000007,121.2822270000006,127.94873000000007,121.53857400000015,148.0771479999994,101.15380900000036,-56.92309599999999,103.3334960000002
292,72.17968800000017,-446.15380900000036,121.53857400000015,7.43603499999972,86.6665039999998,120.12841800000024,53.846190999999635,123.3334960000002,132.43603499999972,127.56396500000028,150.12841800000024,101.15380900000036,-54.61547900000005,108.9741210000002
293,70.38476599999922,-443.84619099999964,120.38476599999922,7.948730000000069,78.58984400000008,118.84619099999964,50.76904300000024,122.43603499999972,131.0258789999998,134.3588869999994,151.9228520000006,99.48730499999965,-55.38452099999995,107.94873000000007
294,66.6665039999998,-448.58984399999963,119.23095699999976,11.922852000000603,55.76904300000024,117.17968800000017,46.2822270000006,118.46142599999985,124.74365200000011,135.89746099999957,151.79492200000004,96.53857400000015,-58.974365000000034,101.2822270000006
295,63.333496000000196,-456.28198199999997,117.82031300000017,17.30761700000039,35.38476599999922,116.41015599999992,43.20507799999996,114.10253900000043,117.56396500000028,131.9228520000006,148.9741210000002,93.84619099999964,-63.46142599999985,93.46142599999985
296,62.05126999999993,-460.897461,116.6665039999998,21.025878999999804,30.769043000000238,116.0258789999998,42.17968800000017,112.30761700000039,113.0771479999994,126.9228520000006,144.61523400000078,93.20507799999996,-67.30761700000039,89.23095699999976
297,62.69238299999961,-459.2307130000004,116.0258789999998,21.410155999999915,42.56396500000028,114.10253900000043,42.43603499999972,113.58984400000008,113.0771479999994,125.76904300000024,141.79492200000004,94.74365200000011,-69.8718259999996,90.38476599999922
298,63.589844000000085,-453.20507799999996,116.53857400000015,19.871581999999762,60.64111300000059,110.0,42.69238299999961,116.53857400000015,116.53857400000015,129.61523400000078,142.94873000000007,97.17968800000017,-70.76928699999962,94.61523400000078
299,63.846190999999635,-447.4357909999994,118.3334960000002,19.871581999999762,73.84619099999964,105.12841800000024,43.0771479999994,118.58984400000008,120.38476599999922,135.38476599999922,147.56396500000028,98.3334960000002,-70.1281740000004,98.58984400000008
300,64.48730499999965,-445.5129390000002,121.53857400000015,22.17968800000017,77.82031300000017,102.17968800000017,44.23095699999976,118.58984400000008,121.41015599999992,138.46142599999985,151.53857400000015,97.82031300000017,-67.82055700000001,100.25634799999989
301,66.15380900000036,-446.66674799999964,124.87158199999976,23.974121000000196,75.12841800000024,103.46142599999985,46.53857400000015,117.82031300000017,118.3334960000002,136.9228520000006,150.89746099999957,97.30761700000039,-64.48706099999981,99.74365200000011
302,68.3334960000002,-447.6923829999996,126.9228520000006,20.384765999999217,69.87158199999976,108.7177729999994,48.974121000000196,117.30761700000039,111.9228520000006,132.3076170000004,144.7436520000001,98.46142599999985,-61.79492200000004,97.56396500000028
303,67.94873000000007,-447.0512700000004,125.76904300000024,9.743652000000111,63.589844000000085,115.12841800000024,49.61523400000078,115.89746099999957,105.25634799999989,128.0771479999994,135.38476599999922,100.89746099999957,-62.564209000000574,94.23095699999976
304,63.589844000000085,-446.53857400000015,121.41015599999992,-3.4614259999998467,55.64111300000059,119.23095699999976,46.79492200000004,111.79492200000004,100.76904300000024,126.53857400000015,126.2822270000006,102.17968800000017,-67.94872999999961,89.61523400000078
305,56.410155999999915,-448.46142599999985,116.53857400000015,-11.153809000000365,48.0771479999994,119.87158199999976,42.05126999999993,105.12841800000024,99.87158199999976,127.56396500000028,120.76904300000024,100.64111300000059,-75.51293900000019,85.12841800000024
306,50.51269500000035,-452.3076170000004,114.35888699999941,-8.333252000000357,45.12841800000024,117.56396500000028,38.589844000000085,99.10253900000043,102.30761700000039,129.3588869999994,119.87158199999976,97.30761700000039,-80.76928699999962,82.94873000000007
307,48.20507799999996,-456.53857400000015,115.51269500000035,1.5385740000001533,49.35888699999941,113.84619099999964,38.46142599999985,97.05126999999993,105.64111300000059,128.9741210000002,121.6665039999998,94.48730499999965,-81.02563499999997,82.94873000000007
308,48.46142599999985,-460.0,117.82031300000017,10.384765999999217,57.43603499999972,109.10253900000043,40.64111300000059,98.46142599999985,106.79492200000004,124.61523400000078,122.82031300000017,93.7177729999994,-78.33325200000036,82.69238299999961
309,48.333496000000196,-462.0512700000004,118.20507799999996,12.307617000000391,62.17968800000017,103.7177729999994,41.9228520000006,100.51269500000035,104.23095699999976,116.41015599999992,121.15380900000036,94.48730499999965,-77.30761700000039,80.25634799999989
310,46.410155999999915,-462.0512700000004,116.15380900000036,8.205077999999958,58.20507799999996,99.61523400000078,40.76904300000024,101.2822270000006,100.0,107.94873000000007,119.10253900000043,95.12841800000024,-79.8718259999996,76.41015599999992
311,44.87158199999976,-459.4870609999998,113.58984400000008,3.4614259999998467,47.30761700000039,99.10253900000043,39.23095699999976,102.82031300000017,98.0771479999994,103.9741210000002,120.38476599999922,94.74365200000011,-83.20507799999996,74.61523400000078
312,46.53857400000015,-454.8718259999996,112.94873000000007,1.7949220000000423,36.79492200000004,102.43603499999972,40.12841800000024,107.69238299999961,100.38476599999922,107.69238299999961,126.0258789999998,93.84619099999964,-82.69238299999961,76.6665039999998
313,50.897460999999566,-450.64111300000013,114.87158199999976,3.2050779999999577,33.589844000000085,106.6665039999998,44.35888699999941,115.51269500000035,105.25634799999989,116.6665039999998,132.6923829999996,93.7177729999994,-77.43579099999943,81.41015599999992
314,54.23095699999976,-448.71801800000003,118.0771479999994,5.128418000000238,38.589844000000085,108.84619099999964,49.35888699999941,122.69238299999961,108.9741210000002,123.9741210000002,135.76904300000024,95.12841800000024,-70.64111300000013,85.38476599999922
315,54.23095699999976,-448.076904,120.25634799999989,6.538574000000153,47.82031300000017,108.20507799999996,52.43603499999972,126.41015599999992,110.25634799999989,124.23095699999976,134.48730499999965,97.94873000000007,-66.53857400000015,86.6665039999998
316,52.82031300000017,-445.5129390000002,120.64111300000059,9.102539000000434,55.64111300000059,106.53857400000015,53.7177729999994,126.6665039999998,111.53857400000015,118.58984400000008,132.43603499999972,100.89746099999957,-65.51293900000019,87.56396500000028
317,53.7177729999994,-438.97436500000003,120.0,14.871581999999762,58.846190999999635,106.15380900000036,55.12841800000024,125.64111300000059,115.76904300000024,113.9741210000002,132.6923829999996,102.30761700000039,-65.76928699999962,90.89746099999957
318,57.17968800000017,-431.53857400000015,119.61523400000078,22.94873000000007,56.53857400000015,107.30761700000039,56.9228520000006,123.84619099999964,121.9228520000006,116.0258789999998,134.10253900000043,101.41015599999992,-67.17944299999999,95.64111300000059
319,58.846190999999635,-428.71801800000003,119.23095699999976,28.717772999999397,49.87158199999976,108.58984400000008,56.666503999999804,120.25634799999989,124.74365200000011,123.58984400000008,131.2822270000006,99.35888699999941,-71.92309599999999,96.9228520000006
320,54.74365200000011,-432.820557,117.82031300000017,28.077147999999397,41.666503999999804,108.58984400000008,52.17968800000017,113.46142599999985,119.61523400000078,130.6411130000006,122.30761700000039,97.56396500000028,-81.15380900000036,90.76904300000024
321,46.153809000000365,-440.1281740000004,115.51269500000035,21.538574000000153,36.9228520000006,107.56396500000028,45.0,105.0,107.94873000000007,132.56396500000028,112.17968800000017,96.79492200000004,-91.28198199999997,79.74365200000011
322,39.48730499999965,-443.84619099999964,113.7177729999994,14.487304999999651,40.25634799999989,107.17968800000017,39.61523400000078,98.84619099999964,97.30761700000039,130.0,108.7177729999994,96.9228520000006,-95.64111300000013,71.41015599999992
323,40.76904300000024,-439.7436520000001,113.7177729999994,12.56396500000028,51.9228520000006,108.7177729999994,39.74365200000011,99.10253900000043,95.12841800000024,127.17968800000017,115.0,96.53857400000015,-90.89746100000002,72.17968800000017
324,50.38476599999922,-430.1281740000004,115.76904300000024,16.922852000000603,66.0258789999998,111.79492200000004,44.74365200000011,105.89746099999957,102.69238299999961,127.17968800000017,125.89746099999957,95.51269500000035,-80.0,81.6665039999998
325,62.17968800000017,-420.64111300000013,118.46142599999985,23.717772999999397,74.61523400000078,114.61523400000078,50.64111300000059,115.12841800000024,114.35888699999941,129.23095699999976,132.6923829999996,95.0,-70.38452099999995,92.94873000000007
326,68.58984400000008,-415.5129390000002,120.12841800000024,28.077147999999397,73.46142599999985,116.0258789999998,52.94873000000007,121.0258789999998,121.41015599999992,130.12841800000024,130.6411130000006,96.15380900000036,-68.20507799999996,98.20507799999996
327,66.15380900000036,-414.8718259999996,119.74365200000011,26.794922000000042,65.51269500000035,115.76904300000024,50.76904300000024,120.38476599999922,119.61523400000078,126.79492200000004,122.17968800000017,98.84619099999964,-73.58984399999963,94.74365200000011
328,57.94873000000007,-415.5129390000002,117.94873000000007,20.897460999999566,57.56396500000028,114.74365200000011,46.2822270000006,114.87158199999976,111.6665039999998,119.23095699999976,114.35888699999941,101.2822270000006,-81.41015600000037,86.53857400000015
329,50.64111300000059,-413.97436500000003,116.41015599999992,12.692382999999609,55.76904300000024,114.35888699999941,44.102539000000434,109.23095699999976,105.51269500000035,111.2822270000006,113.9741210000002,101.9228520000006,-84.48706099999981,80.25634799999989
330,49.23095699999976,-410.38452099999995,116.2822270000006,4.487304999999651,61.666503999999804,115.51269500000035,46.53857400000015,107.82031300000017,106.2822270000006,106.79492200000004,121.41015599999992,100.76904300000024,-79.8718259999996,80.38476599999922
331,53.589844000000085,-407.4357909999994,116.9228520000006,-2.6923829999996087,72.43603499999972,117.56396500000028,52.17968800000017,111.53857400000015,112.56396500000028,107.43603499999972,131.15380900000036,98.84619099999964,-70.64111300000013,85.64111300000059
332,58.974121000000196,-407.4357909999994,117.82031300000017,-7.435790999999426,81.79492200000004,118.84619099999964,57.17968800000017,117.56396500000028,117.69238299999961,111.15380900000036,135.0,97.56396500000028,-63.46142599999985,91.0258789999998
333,60.51269500000035,-409.35888699999987,118.20507799999996,-9.102538999999979,83.3334960000002,118.46142599999985,57.94873000000007,121.53857400000015,116.9228520000006,115.51269500000035,130.12841800000024,97.56396500000028,-62.948729999999614,92.43603499999972
334,57.05126999999993,-410.2563479999999,117.69238299999961,-8.076904000000013,75.89746099999957,117.17968800000017,54.74365200000011,121.53857400000015,111.2822270000006,119.61523400000078,120.51269500000035,98.58984400000008,-67.69238299999961,89.23095699999976
335,52.05126999999993,-407.4357909999994,116.41015599999992,-5.769286999999622,65.38476599999922,116.2822270000006,51.025878999999804,118.3334960000002,105.64111300000059,125.38476599999922,114.23095699999976,99.74365200000011,-72.69238299999961,84.48730499999965
336,50.38476599999922,-401.02563499999997,114.61523400000078,-2.5639650000002803,60.76904300000024,116.15380900000036,49.74365200000011,113.7177729999994,105.0,134.23095699999976,115.64111300000059,99.87158199999976,-73.33325200000036,82.69238299999961
337,54.23095699999976,-392.9487299999996,112.94873000000007,2.1796880000001693,66.6665039999998,116.15380900000036,52.05126999999993,109.74365200000011,110.25634799999989,143.84619099999964,123.3334960000002,98.9741210000002,-69.23071300000038,86.41015599999992
338,62.82031300000017,-385.5129390000002,111.79492200000004,9.358886999999413,78.46142599999985,116.41015599999992,56.53857400000015,108.0771479999994,118.58984400000008,149.10253900000043,131.41015599999992,98.7177729999994,-62.948729999999614,94.23095699999976
339,71.53857400000015,-380.38452099999995,110.38476599999922,17.56396500000028,85.76904300000024,117.30761700000039,61.153809000000365,109.48730499999965,124.35888699999941,145.51269500000035,134.48730499999965,99.87158199999976,-58.33325200000036,101.41015599999992
340,74.74365200000011,-378.84619099999964,107.30761700000039,23.205077999999958,80.76904300000024,118.58984400000008,63.46142599999985,112.94873000000007,123.20507799999996,133.46142599999985,130.38476599999922,101.6665039999998,-58.71801800000003,103.58984400000008
341,69.87158199999976,-380.38452099999995,101.53857400000015,22.56396500000028,65.51269500000035,119.23095699999976,62.17968800000017,115.51269500000035,114.48730499999965,117.17968800000017,120.89746099999957,102.17968800000017,-64.61547900000005,98.7177729999994
342,59.48730499999965,-383.076904,94.10253900000043,16.025878999999804,51.79492200000004,118.84619099999964,58.20507799999996,115.12841800000024,103.3334960000002,102.56396500000028,110.89746099999957,100.76904300000024,-73.33325200000036,89.23095699999976
343,50.76904300000024,-384.35888699999987,87.43603499999972,8.589844000000085,52.43603499999972,117.82031300000017,54.35888699999941,112.94873000000007,97.82031300000017,94.74365200000011,105.25634799999989,98.7177729999994,-79.61547900000005,80.89746099999957
344,49.61523400000078,-382.9487299999996,84.35888699999941,6.922852000000603,70.12841800000024,117.05126999999993,53.7177729999994,111.9228520000006,102.17968800000017,95.76904300000024,106.41015599999992,97.82031300000017,-79.74365200000011,78.46142599999985
345,55.64111300000059,-380.1281740000004,85.12841800000024,12.948730000000069,93.20507799999996,116.79492200000004,56.410155999999915,113.20507799999996,112.94873000000007,103.0771479999994,112.30761700000039,98.20507799999996,-74.8718259999996,82.17968800000017
346,62.30761700000039,-378.076904,86.9228520000006,21.410155999999915,104.10253900000043,116.53857400000015,59.74365200000011,115.12841800000024,121.15380900000036,110.38476599999922,117.94873000000007,98.9741210000002,-69.8718259999996,87.56396500000028
347,63.46142599999985,-377.6923829999996,86.79492200000004,25.0,95.51269500000035,116.15380900000036,59.87158199999976,114.87158199999976,119.35888699999941,112.56396500000028,119.10253900000043,99.23095699999976,-68.97436500000003,89.48730499999965
348,58.846190999999635,-377.4357909999994,84.61523400000078,21.025878999999804,77.05126999999993,116.53857400000015,56.666503999999804,112.94873000000007,108.7177729999994,110.38476599999922,116.53857400000015,99.23095699999976,-71.41015600000037,86.9228520000006
349,54.35888699999941,-375.2563479999999,83.3334960000002,15.128418000000238,67.17968800000017,118.3334960000002,53.846190999999635,112.56396500000028,98.58984400000008,109.74365200000011,115.0,100.25634799999989,-72.43579099999943,84.10253900000043
350,56.153809000000365,-370.5129390000002,86.0258789999998,15.384765999999217,75.51269500000035,120.51269500000035,55.64111300000059,116.41015599999992,98.84619099999964,116.6665039999998,118.20507799999996,102.56396500000028,-68.58984399999963,85.25634799999989
351,65.64111300000059,-364.4870609999998,92.82031300000017,25.51269500000035,93.9741210000002,121.0258789999998,62.82031300000017,123.84619099999964,112.56396500000028,131.15380900000036,125.38476599999922,105.51269500000035,-60.38452099999995,91.53857400000015
352,78.0771479999994,-358.58984399999963,101.0258789999998,40.38476599999922,105.25634799999989,118.7177729999994,71.41015599999992,131.2822270000006,132.6923829999996,146.53857400000015,132.6923829999996,107.94873000000007,-51.66674799999964,99.74365200000011
353,86.2822270000006,-354.35888699999987,106.0258789999998,50.25634799999989,98.84619099999964,113.9741210000002,75.64111300000059,134.87158199999976,146.79492200000004,154.61523400000078,136.53857400000015,108.58984400000008,-46.92309599999999,104.87158199999976
354,85.12841800000024,-353.076904,104.35888699999941,47.69238299999961,80.38476599999922,108.7177729999994,72.56396500000028,131.9228520000006,144.48730499999965,150.6411130000006,134.87158199999976,106.9228520000006,-48.58984399999963,103.58984400000008
355,75.25634799999989,-355.1281740000004,96.41015599999992,34.48730499999965,65.64111300000059,104.23095699999976,63.846190999999635,123.3334960000002,125.89746099999957,136.2822270000006,127.82031300000017,103.20507799999996,-55.76928699999962,96.15380900000036
356,61.9228520000006,-359.61547900000005,86.53857400000015,19.871581999999762,65.12841800000024,100.64111300000059,54.102539000000434,112.43603499999972,101.9228520000006,118.7177729999994,117.94873000000007,98.84619099999964,-64.61547900000005,86.53857400000015
357,52.05126999999993,-364.4870609999998,79.23095699999976,12.56396500000028,74.74365200000011,98.46142599999985,48.0771479999994,104.23095699999976,87.17968800000017,106.15380900000036,109.23095699999976,95.64111300000059,-70.76928699999962,79.48730499999965
358,50.51269500000035,-366.28198199999997,76.0258789999998,14.358886999999413,82.30761700000039,98.84619099999964,47.82031300000017,101.53857400000015,89.35888699999941,103.20507799999996,105.12841800000024,94.48730499999965,-72.30761700000039,78.3334960000002
359,57.05126999999993,-362.9487299999996,75.89746099999957,19.615234000000783,81.79492200000004,102.43603499999972,52.17968800000017,104.61523400000078,104.61523400000078,109.87158199999976,106.53857400000015,95.12841800000024,-69.8718259999996,83.7177729999994
360,67.94873000000007,-354.2307130000004,77.94873000000007,22.30761700000039,79.87158199999976,107.82031300000017,57.94873000000007,110.89746099999957,121.53857400000015,122.05126999999993,111.79492200000004,97.17968800000017,-65.38452099999995,92.82031300000017
361,78.0771479999994,-342.5642090000006,82.05126999999993,21.153809000000365,85.64111300000059,111.9228520000006,62.82031300000017,117.17968800000017,130.12841800000024,134.23095699999976,118.9741210000002,100.0,-59.74365200000011,102.05126999999993
362,84.61523400000078,-332.0512700000004,87.94873000000007,21.025878999999804,99.35888699999941,112.43603499999972,66.2822270000006,121.79492200000004,128.0771479999994,141.6665039999998,126.15380900000036,103.0771479999994,-53.46142599999985,108.46142599999985
363,86.41015599999992,-326.15380900000036,94.61523400000078,26.410155999999915,110.25634799999989,109.74365200000011,68.9741210000002,124.74365200000011,120.25634799999989,142.17968800000017,131.15380900000036,105.0,-48.46142599999985,110.76904300000024
364,82.56396500000028,-327.3076170000004,99.61523400000078,36.153809000000365,105.89746099999957,106.15380900000036,70.76904300000024,125.25634799999989,113.9741210000002,135.38476599999922,130.6411130000006,105.0,-48.46142599999985,108.46142599999985
365,73.58984400000008,-334.8718259999996,100.64111300000059,43.333496000000196,84.10253900000043,104.23095699999976,69.87158199999976,122.17968800000017,112.30761700000039,122.94873000000007,122.30761700000039,102.94873000000007,-55.89746100000002,101.9228520000006
366,62.94873000000007,-345.897461,97.05126999999993,42.69238299999961,57.30761700000039,105.64111300000059,65.76904300000024,115.76904300000024,114.48730499999965,110.25634799999989,108.0771479999994,99.61523400000078,-67.30761700000039,93.46142599999985
367,57.43603499999972,-353.46142599999985,92.05126999999993,36.9228520000006,44.74365200000011,110.12841800000024,61.53857400000015,109.48730499999965,119.10253900000043,106.6665039999998,96.15380900000036,96.79492200000004,-73.97436500000003,87.94873000000007
368,62.30761700000039,-350.7692869999996,90.51269500000035,34.48730499999965,58.20507799999996,116.15380900000036,61.666503999999804,109.74365200000011,126.6665039999998,118.46142599999985,96.0258789999998,96.79492200000004,-67.94872999999961,90.89746099999957
369,76.6665039999998,-335.897461,95.38476599999922,41.153809000000365,91.53857400000015,120.76904300000024,67.94873000000007,119.23095699999976,136.15380900000036,142.3076170000004,111.0258789999998,100.51269500000035,-48.974365000000034,103.3334960000002
370,91.79492200000004,-315.897461,104.10253900000043,53.0771479999994,123.7177729999994,120.64111300000059,76.2822270000006,133.0771479999994,143.3334960000002,163.20507799999996,132.6923829999996,106.0258789999998,-26.666747999999643,118.84619099999964
371,96.6665039999998,-303.97436500000003,109.48730499999965,60.38476599999922,132.94873000000007,114.10253900000043,79.10253900000043,140.6411130000006,142.05126999999993,164.48730499999965,146.0258789999998,108.9741210000002,-14.8718259999996,127.30761700000039
372,85.64111300000059,-309.8718259999996,106.15380900000036,55.25634799999989,111.79492200000004,102.69238299999961,72.05126999999993,133.0771479999994,128.3334960000002,140.89746099999957,140.2563479999999,106.15380900000036,-21.923095999999987,121.0258789999998
373,63.333496000000196,-332.0512700000004,95.25634799999989,39.61523400000078,73.20507799999996,91.15380900000036,57.94873000000007,111.53857400000015,106.0258789999998,103.9741210000002,117.05126999999993,98.0771479999994,-44.61547900000005,101.9228520000006
374,42.56396500000028,-355.64111300000013,84.10253900000043,24.358886999999413,42.30761700000039,85.51269500000035,45.0,87.94873000000007,86.41015599999992,76.15380900000036,91.15380900000036,90.12841800000024,-69.10253899999998,81.2822270000006
375,37.43603499999972,-362.4357909999994,81.0258789999998,21.153809000000365,39.23095699999976,88.9741210000002,41.53857400000015,78.9741210000002,82.05126999999993,74.74365200000011,80.89746099999957,88.46142599999985,-79.48706099999981,73.46142599999985
376,52.05126999999993,-344.8718259999996,88.9741210000002,32.30761700000039,64.74365200000011,98.84619099999964,49.48730499999965,92.56396500000028,96.41015599999992,100.38476599999922,94.23095699999976,95.12841800000024,-69.74365200000011,84.35888699999941
377,77.05126999999993,-313.33325200000036,102.69238299999961,48.974121000000196,97.05126999999993,108.9741210000002,63.7177729999994,120.64111300000059,120.76904300000024,136.79492200000004,121.6665039999998,106.0258789999998,-47.82055700000001,106.2822270000006
378,95.64111300000059,-289.2307130000004,112.69238299999961,58.20507799999996,108.7177729999994,113.3334960000002,75.12841800000024,143.9741210000002,139.10253900000043,162.43603499999972,143.20507799999996,113.84619099999964,-30.1281740000004,122.69238299999961
379,96.0258789999998,-287.9487299999996,113.0771479999994,54.23095699999976,88.58984400000008,110.38476599999922,77.69238299999961,147.56396500000028,141.41015599999992,164.87158199999976,145.12841800000024,113.7177729999994,-27.30761700000039,122.43603499999972
380,80.76904300000024,-306.79492200000004,105.51269500000035,42.30761700000039,51.53857400000015,104.74365200000011,72.30761700000039,131.9228520000006,129.87158199999976,148.0771479999994,130.38476599999922,106.9228520000006,-37.435790999999426,107.94873000000007
381,64.10253900000043,-327.5642090000006,97.17968800000017,34.35888699999941,26.794922000000042,102.94873000000007,65.51269500000035,112.82031300000017,116.53857400000015,127.94873000000007,114.61523400000078,99.48730499999965,-48.71801800000003,92.05126999999993
382,58.7177729999994,-332.3076170000004,94.35888699999941,37.43603499999972,34.48730499999965,107.56396500000028,62.82031300000017,106.41015599999992,112.05126999999993,118.9741210000002,110.51269500000035,96.79492200000004,-51.53857400000015,86.41015599999992
383,64.74365200000011,-318.97436500000003,97.94873000000007,49.23095699999976,70.25634799999989,115.12841800000024,64.61523400000078,115.51269500000035,117.82031300000017,123.0771479999994,117.30761700000039,99.23095699999976,-45.64111300000013,91.6665039999998
