,EEG.AF3,EEG.F7,EEG.F3,EEG.FC5,EEG.T7,EEG.P7,EEG.O1,EEG.O2,EEG.P8,EEG.T8,EEG.FC6,EEG.F4,EEG.F8,EEG.AF4
0,214.7436520000001,158.3334960000002,7.43603499999972,147.05126999999993,160.51269500000035,102.94873000000007,127.56396500000028,152.56396500000028,118.3334960000002,123.84619099999964,223.9741210000002,129.10253900000043,265.51269500000035,107.82031300000017
1,209.23095699999976,138.9741210000002,7.820313000000169,142.3076170000004,149.87158199999976,101.0258789999998,128.46142599999985,150.0,118.84619099999964,119.48730499999965,229.3588869999994,129.10253900000043,268.5898440000001,108.58984400000008
2,195.2563479999999,108.9741210000002,4.6152340000007825,124.74365200000011,114.23095699999976,96.41015599999992,120.12841800000024,133.0771479999994,108.0771479999994,109.10253900000043,218.84619099999964,124.61523400000078,250.76904300000024,99.87158199999976
3,180.12841800000024,87.56396500000028,-0.512695000000349,103.20507799999996,77.94873000000007,91.15380900000036,106.2822270000006,111.0258789999998,91.2822270000006,98.7177729999994,197.17968800000017,117.82031300000017,222.43603499999972,87.56396500000028
4,172.17968800000017,87.94873000000007,-5.256347999999889,87.69238299999961,62.69238299999961,87.17968800000017,93.46142599999985,94.48730499999965,76.15380900000036,91.6665039999998,174.7436520000001,112.17968800000017,198.58984400000008,78.84619099999964
5,174.3588869999994,107.17968800000017,-8.076904000000013,81.2822270000006,70.38476599999922,85.12841800000024,86.41015599999992,88.3334960000002,67.30761700000039,85.89746099999957,160.12841800000024,110.12841800000024,188.3334960000002,76.79492200000004
6,183.0771479999994,129.23095699999976,-9.102538999999979,81.6665039999998,85.0,85.12841800000024,86.41015599999992,91.2822270000006,65.12841800000024,78.58984400000008,156.9228520000006,111.53857400000015,191.53857400000015,79.10253900000043
7,191.53857400000015,138.9741210000002,-9.102538999999979,84.87158199999976,90.12841800000024,86.41015599999992,91.6665039999998,98.3334960000002,68.46142599999985,71.53857400000015,163.3334960000002,114.61523400000078,202.17968800000017,81.9228520000006
8,195.2563479999999,133.3334960000002,-8.58984399999963,89.74365200000011,84.23095699999976,88.46142599999985,98.84619099999964,105.0,75.64111300000059,71.0258789999998,175.0,117.17968800000017,213.7177729999994,83.84619099999964
9,195.0,121.6665039999998,-6.923095999999987,97.17968800000017,78.84619099999964,91.15380900000036,104.61523400000078,108.58984400000008,84.10253900000043,81.9228520000006,186.53857400000015,117.56396500000028,222.17968800000017,85.38476599999922
10,195.6411130000006,116.2822270000006,-3.717772999999397,107.43603499999972,85.0,94.10253900000043,107.56396500000028,109.48730499999965,90.51269500000035,101.2822270000006,194.23095699999976,115.89746099999957,226.79492200000004,87.82031300000017
11,200.76904300000024,121.6665039999998,0.512695000000349,117.94873000000007,100.76904300000024,96.9228520000006,108.0771479999994,110.51269500000035,93.58984400000008,120.38476599999922,196.41015599999992,114.23095699999976,228.3334960000002,91.41015599999992
12,208.58984400000008,131.53857400000015,3.846190999999635,124.74365200000011,113.9741210000002,99.23095699999976,108.3334960000002,113.84619099999964,94.61523400000078,130.2563479999999,194.87158199999976,115.12841800000024,228.0771479999994,95.0
13,214.10253900000043,135.89746099999957,5.128418000000238,125.38476599999922,115.76904300000024,101.0258789999998,110.76904300000024,119.87158199999976,97.43603499999972,127.94873000000007,194.87158199999976,119.74365200000011,228.58984400000008,97.56396500000028
14,213.84619099999964,131.41015599999992,4.743652000000111,121.41015599999992,110.0,102.17968800000017,116.2822270000006,127.43603499999972,104.87158199999976,118.0771479999994,200.38476599999922,126.53857400000015,232.56396500000028,99.48730499999965
15,208.20507799999996,122.30761700000039,3.717772999999397,116.79492200000004,108.46142599999985,102.82031300000017,122.43603499999972,134.3588869999994,115.25634799999989,107.82031300000017,209.61523400000078,131.9228520000006,240.51269500000035,101.53857400000015
16,199.7436520000001,115.0,2.6923829999996087,114.23095699999976,117.43603499999972,101.9228520000006,124.61523400000078,136.53857400000015,121.15380900000036,101.9228520000006,215.0,132.56396500000028,248.0771479999994,102.30761700000039
17,191.79492200000004,111.0258789999998,1.5385740000001533,114.10253900000043,128.0771479999994,99.48730499999965,119.23095699999976,129.61523400000078,115.0,98.9741210000002,209.48730499999965,127.17968800000017,247.56396500000028,98.9741210000002
18,186.53857400000015,108.46142599999985,-0.256347999999889,115.38476599999922,125.76904300000024,96.0258789999998,107.30761700000039,113.46142599999985,95.64111300000059,94.61523400000078,192.6923829999996,118.0771479999994,234.61523400000078,91.0258789999998
19,185.12841800000024,105.89746099999957,-2.5639650000002803,117.82031300000017,105.38476599999922,93.20507799999996,94.35888699999941,94.23095699999976,72.43603499999972,85.38476599999922,172.82031300000017,110.12841800000024,213.84619099999964,82.05126999999993
20,187.43603499999972,105.51269500000035,-4.871825999999601,121.41015599999992,78.58984400000008,92.82031300000017,86.9228520000006,80.89746099999957,58.333496000000196,73.46142599999985,160.0,107.94873000000007,196.53857400000015,77.56396500000028
21,192.17968800000017,109.10253900000043,-7.051270000000386,125.38476599999922,63.333496000000196,94.87158199999976,87.43603499999972,79.23095699999976,59.87158199999976,64.74365200000011,158.7177729999994,111.6665039999998,192.56396500000028,80.0
22,197.56396500000028,116.15380900000036,-9.102538999999979,128.20507799999996,68.3334960000002,98.0771479999994,93.58984400000008,87.43603499999972,71.79492200000004,63.974121000000196,166.2822270000006,116.6665039999998,202.43603499999972,86.41015599999992
23,202.6923829999996,123.7177729999994,-10.512939000000188,129.10253900000043,86.6665039999998,100.38476599999922,101.15380900000036,98.58984400000008,83.58984400000008,72.30761700000039,176.53857400000015,117.94873000000007,217.94873000000007,91.53857400000015
24,207.3076170000004,129.3588869999994,-9.61547900000005,130.12841800000024,103.84619099999964,101.0258789999998,106.15380900000036,106.2822270000006,87.69238299999961,86.15380900000036,185.2563479999999,114.23095699999976,229.7436520000001,92.43603499999972
25,211.6665039999998,133.0771479999994,-5.769286999999622,134.61523400000078,110.76904300000024,100.89746099999957,107.56396500000028,108.46142599999985,85.38476599999922,99.48730499999965,190.6411130000006,109.35888699999941,233.9741210000002,90.12841800000024
26,215.12841800000024,136.15380900000036,0.256347999999889,143.3334960000002,109.10253900000043,100.64111300000059,107.17968800000017,108.46142599999985,83.20507799999996,107.17968800000017,193.0771479999994,108.0771479999994,233.20507799999996,88.58984400000008
27,215.51269500000035,139.23095699999976,5.769043000000238,153.0771479999994,107.17968800000017,100.12841800000024,107.69238299999961,110.51269500000035,86.6665039999998,107.17968800000017,192.94873000000007,111.9228520000006,231.41015599999992,91.2822270000006
28,210.6411130000006,140.12841800000024,7.820313000000169,157.6923829999996,109.35888699999941,98.58984400000008,109.87158199999976,115.12841800000024,95.0,102.05126999999993,191.2822270000006,117.43603499999972,229.61523400000078,96.53857400000015
29,200.51269500000035,135.6411130000006,5.128418000000238,153.7177729999994,111.9228520000006,95.76904300000024,112.17968800000017,118.58984400000008,101.9228520000006,96.6665039999998,188.0771479999994,120.0,224.87158199999976,99.10253900000043
30,189.48730499999965,124.61523400000078,0.12841800000023795,144.48730499999965,108.3334960000002,92.69238299999961,112.56396500000028,117.17968800000017,102.30761700000039,94.61523400000078,183.58984400000008,117.82031300000017,215.89746099999957,95.12841800000024
31,184.87158199999976,111.9228520000006,-3.2050779999999577,137.82031300000017,99.35888699999941,91.53857400000015,111.2822270000006,112.17968800000017,96.9228520000006,95.64111300000059,179.61523400000078,113.3334960000002,206.79492200000004,86.41015599999992
32,193.0771479999994,106.0258789999998,-1.2822270000006029,141.79492200000004,93.7177729999994,94.10253900000043,111.15380900000036,110.0,92.17968800000017,96.9228520000006,179.61523400000078,110.89746099999957,205.51269500000035,80.51269500000035
33,213.9741210000002,112.43603499999972,5.0,157.94873000000007,98.84619099999964,99.87158199999976,114.23095699999976,115.76904300000024,94.61523400000078,96.15380900000036,185.51269500000035,112.94873000000007,217.3076170000004,84.10253900000043
34,237.82031300000017,127.82031300000017,11.025878999999804,179.61523400000078,111.41015599999992,105.76904300000024,119.23095699999976,127.56396500000028,103.20507799999996,93.46142599999985,194.87158199999976,117.69238299999961,237.56396500000028,96.9228520000006
35,250.12841800000024,141.41015599999992,11.410155999999915,194.48730499999965,120.0,107.17968800000017,121.41015599999992,136.79492200000004,109.87158199999976,88.9741210000002,201.15380900000036,120.64111300000059,253.0771479999994,111.79492200000004
36,241.79492200000004,143.46142599999985,5.128418000000238,193.58984400000008,115.76904300000024,102.30761700000039,117.17968800000017,134.7436520000001,106.53857400000015,83.46142599999985,199.23095699999976,118.9741210000002,251.53857400000015,118.9741210000002
37,216.15380900000036,133.46142599999985,-3.717772999999397,177.43603499999972,100.0,93.7177729999994,108.0771479999994,120.89746099999957,93.20507799999996,79.10253900000043,189.7436520000001,113.20507799999996,232.6923829999996,113.3334960000002
38,186.41015599999992,118.84619099999964,-9.102538999999979,154.3588869999994,82.94873000000007,86.15380900000036,99.10253900000043,103.46142599999985,77.82031300000017,79.35888699999941,178.7177729999994,106.79492200000004,210.0,97.69238299999961
39,168.9741210000002,110.0,-7.948729999999614,135.38476599999922,74.87158199999976,83.7177729999994,95.12841800000024,92.94873000000007,69.61523400000078,84.87158199999976,172.6923829999996,103.84619099999964,199.87158199999976,80.64111300000059
40,174.48730499999965,113.20507799999996,-1.9228520000006029,128.20507799999996,80.89746099999957,88.3334960000002,98.3334960000002,95.25634799999989,73.20507799999996,93.46142599999985,176.15380900000036,106.0258789999998,209.3588869999994,72.69238299999961
41,200.6411130000006,126.53857400000015,5.0,135.89746099999957,98.7177729999994,97.43603499999972,107.43603499999972,109.61523400000078,86.79492200000004,101.15380900000036,188.84619099999964,112.43603499999972,231.2822270000006,79.61523400000078
42,231.9228520000006,140.89746099999957,9.102539000000434,154.48730499999965,120.12841800000024,106.2822270000006,117.94873000000007,128.58984400000008,103.58984400000008,104.10253900000043,204.23095699999976,119.48730499999965,250.12841800000024,97.05126999999993
43,248.46142599999985,145.0,9.102539000000434,173.58984400000008,134.3588869999994,109.87158199999976,124.10253900000043,141.79492200000004,114.23095699999976,100.38476599999922,212.43603499999972,122.94873000000007,253.46142599999985,113.20507799999996
44,240.76904300000024,134.48730499999965,6.410155999999915,181.6665039999998,135.0,107.30761700000039,122.17968800000017,142.17968800000017,112.69238299999961,91.6665039999998,208.0771479999994,121.53857400000015,241.41015599999992,117.82031300000017
45,217.17968800000017,116.53857400000015,4.358886999999413,175.6411130000006,124.61523400000078,101.79492200000004,114.23095699999976,132.17968800000017,100.89746099999957,83.84619099999964,196.79492200000004,117.69238299999961,226.6665039999998,110.89746099999957
46,197.56396500000028,106.6665039999998,5.128418000000238,164.10253900000043,113.9741210000002,98.84619099999964,108.20507799999996,122.43603499999972,89.35888699999941,84.48730499999965,190.38476599999922,115.64111300000059,224.87158199999976,102.69238299999961
47,197.82031300000017,115.0,8.205077999999958,159.7436520000001,113.0771479999994,101.0258789999998,111.2822270000006,122.69238299999961,88.58984400000008,95.64111300000059,195.12841800000024,117.94873000000007,240.12841800000024,103.46142599999985
48,217.43603499999972,136.79492200000004,10.512695000000349,167.94873000000007,121.9228520000006,106.6665039999998,122.05126999999993,133.3334960000002,99.61523400000078,109.87158199999976,205.12841800000024,123.3334960000002,260.0,113.3334960000002
49,236.41015599999992,154.3588869999994,9.871581999999762,179.87158199999976,130.76904300000024,110.76904300000024,131.15380900000036,144.87158199999976,111.53857400000015,115.0,208.20507799999996,128.20507799999996,264.23095699999976,120.12841800000024
50,230.51269500000035,152.17968800000017,6.538574000000153,181.0258789999998,130.6411130000006,110.51269500000035,129.87158199999976,146.41015599999992,111.79492200000004,105.12841800000024,198.46142599999985,128.7177729999994,243.7177729999994,110.89746099999957
51,192.56396500000028,128.9741210000002,2.6923829999996087,164.87158199999976,122.43603499999972,106.2822270000006,118.3334960000002,136.0258789999998,97.94873000000007,87.17968800000017,182.3076170000004,123.9741210000002,210.89746099999957,84.74365200000011
52,140.89746099999957,95.25634799999989,-0.769043000000238,138.20507799999996,114.23095699999976,101.2822270000006,105.25634799999989,121.53857400000015,79.48730499999965,75.0,170.0,117.30761700000039,189.23095699999976,54.61523400000078
53,105.76904300000024,63.20507799999996,-4.743652000000111,114.61523400000078,110.76904300000024,97.43603499999972,99.23095699999976,111.6665039999998,67.17968800000017,76.15380900000036,164.61523400000078,113.0771479999994,190.6411130000006,36.666503999999804
54,110.0,40.76904300000024,-10.1281740000004,103.7177729999994,108.7177729999994,95.0,101.9228520000006,109.10253900000043,65.0,85.89746099999957,160.12841800000024,112.82031300000017,206.41015599999992,39.87158199999976
55,153.7177729999994,33.20507799999996,-14.358886999999868,108.7177729999994,105.0,94.23095699999976,108.84619099999964,111.9228520000006,70.12841800000024,96.0258789999998,152.94873000000007,115.89746099999957,218.84619099999964,60.76904300000024
56,213.46142599999985,43.333496000000196,-12.692382999999609,126.53857400000015,103.3334960000002,95.51269500000035,115.12841800000024,118.58984400000008,80.0,103.3334960000002,149.23095699999976,122.43603499999972,217.94873000000007,85.51269500000035
57,253.46142599999985,65.89746099999957,-3.2050779999999577,150.2563479999999,109.35888699999941,98.46142599999985,118.46142599999985,127.82031300000017,92.05126999999993,110.12841800000024,158.9741210000002,131.0258789999998,208.9741210000002,97.94873000000007
58,247.94873000000007,85.89746099999957,8.974121000000196,170.2563479999999,122.43603499999972,100.25634799999989,118.3334960000002,135.6411130000006,102.05126999999993,115.51269500000035,181.9228520000006,138.3334960000002,204.10253900000043,89.74365200000011
59,199.48730499999965,90.12841800000024,13.846190999999635,177.17968800000017,134.87158199999976,98.84619099999964,116.2822270000006,138.0771479999994,104.35888699999941,114.48730499999965,202.43603499999972,138.9741210000002,211.2822270000006,67.43603499999972
60,137.94873000000007,82.17968800000017,5.128418000000238,166.6665039999998,138.84619099999964,94.87158199999976,115.51269500000035,134.7436520000001,98.9741210000002,104.74365200000011,202.56396500000028,131.53857400000015,226.15380900000036,46.79492200000004
61,96.6665039999998,77.43603499999972,-15.1281740000004,141.41015599999992,128.84619099999964,91.0258789999998,117.69238299999961,129.87158199999976,90.89746099999957,90.89746099999957,177.43603499999972,120.38476599999922,233.3334960000002,38.589844000000085
62,87.17968800000017,80.51269500000035,-37.435790999999426,112.94873000000007,105.51269500000035,88.9741210000002,120.25634799999989,125.89746099999957,84.61523400000078,80.64111300000059,141.53857400000015,111.6665039999998,220.6411130000006,41.79492200000004
63,95.0,73.9741210000002,-52.17944299999999,99.35888699999941,79.48730499999965,88.7177729999994,118.9741210000002,122.05126999999993,80.89746099999957,78.9741210000002,119.10253900000043,108.3334960000002,193.46142599999985,48.589844000000085
64,100.51269500000035,41.153809000000365,-55.0,115.12841800000024,71.9228520000006,89.35888699999941,114.35888699999941,120.0,80.64111300000059,87.82031300000017,125.64111300000059,110.64111300000059,173.58984400000008,52.05126999999993
65,102.05126999999993,-1.0258789999998044,-49.23071300000038,162.82031300000017,97.82031300000017,90.0,113.0771479999994,125.51269500000035,88.20507799999996,106.0258789999998,154.10253900000043,117.56396500000028,179.61523400000078,48.974121000000196
66,121.6665039999998,-7.179442999999992,-43.33325200000036,231.6665039999998,147.6923829999996,90.12841800000024,121.2822270000006,143.46142599999985,104.61523400000078,127.17968800000017,179.61523400000078,128.9741210000002,205.51269500000035,40.76904300000024
67,184.87158199999976,47.94873000000007,-45.76928699999962,308.0771479999994,187.3076170000004,87.82031300000017,136.0258789999998,167.82031300000017,121.2822270000006,138.3334960000002,178.7177729999994,142.56396500000028,226.79492200000004,33.20507799999996
68,291.53857400000015,130.38476599999922,-58.846190999999635,384.6152340000008,183.7177729999994,81.41015599999992,145.6411130000006,183.46142599999985,122.69238299999961,126.79492200000004,147.17968800000017,152.05126999999993,224.3588869999994,35.25634799999989
69,409.3588869999994,169.3588869999994,-76.28198199999997,460.51269500000035,137.94873000000007,71.15380900000036,140.76904300000024,178.58984400000008,101.0258789999998,91.41015599999992,104.23095699999976,149.7436520000001,203.9741210000002,57.05126999999993
70,498.5898440000001,126.53857400000015,-89.23071300000038,536.9228520000006,89.48730499999965,61.410155999999915,124.61523400000078,159.48730499999965,67.17968800000017,48.846190999999635,79.10253900000043,133.84619099999964,188.3334960000002,106.79492200000004
71,544.8715819999998,38.7177729999994,-93.97436500000003,613.5898440000001,83.58984400000008,56.9228520000006,111.9228520000006,149.23095699999976,45.0,24.358886999999413,92.05126999999993,111.6665039999998,192.05126999999993,182.94873000000007
72,570.1284180000002,-6.923095999999987,-92.56420900000057,695.0,131.79492200000004,59.74365200000011,114.87158199999976,168.20507799999996,51.025878999999804,31.666503999999804,138.7177729999994,95.64111300000059,206.6665039999998,269.6152340000008
73,615.1284180000002,60.0,-88.46142599999985,798.7177729999994,202.43603499999972,67.05126999999993,133.3334960000002,215.89746099999957,80.76904300000024,62.43603499999972,192.6923829999996,94.74365200000011,214.87158199999976,344.23095699999976
74,707.9487300000001,237.94873000000007,-80.89746100000002,952.5639650000003,250.6411130000006,74.87158199999976,155.76904300000024,271.2822270000006,113.58984400000008,93.20507799999996,227.3076170000004,108.46142599999985,215.0,395.3847659999992
75,839.1025390000004,447.6923829999996,-66.66674799999964,1170.1284180000002,254.61523400000078,80.0,169.7436520000001,309.87158199999976,128.58984400000008,102.43603499999972,237.94873000000007,127.05126999999993,227.05126999999993,432.94873000000007
76,966.794922,582.0512699999999,-43.974365000000034,1425.6411130000006,226.41015599999992,81.9228520000006,168.7177729999994,319.48730499999965,117.82031300000017,82.43603499999972,244.3588869999994,136.6665039999998,274.87158199999976,479.87158199999976
77,1053.0771479999994,583.3334960000002,-16.923095999999987,1660.3847659999992,194.48730499999965,82.43603499999972,155.38476599999922,305.89746099999957,88.20507799999996,40.897460999999566,271.53857400000015,129.10253900000043,363.5898440000001,556.9228520000006
78,1100.256348,492.5639650000003,7.051269999999931,1822.1796880000002,180.6411130000006,85.0,139.3588869999994,289.10253900000043,56.53857400000015,-3.846190999999635,328.84619099999964,107.43603499999972,473.9741210000002,669.7436520000001
79,1148.0771479999994,420.51269500000035,22.05126999999993,1905.256348,188.20507799999996,93.20507799999996,132.17968800000017,292.17968800000017,40.51269500000035,-31.41015600000037,405.3847659999992,85.76904300000024,575.2563479999999,804.6152340000008
80,1236.2822270000006,455.89746099999957,27.94873000000007,1951.5385740000002,205.38476599999922,106.79492200000004,138.58984400000008,326.2822270000006,46.53857400000015,-33.46142599999985,483.46142599999985,78.46142599999985,644.7436520000001,931.6665039999998
81,1368.4614259999998,592.1796880000002,29.48730499999965,2016.6665039999998,215.12841800000024,121.15380900000036,151.79492200000004,380.0,63.589844000000085,-22.051270000000386,557.5639650000003,86.79492200000004,682.6923829999996,1020.7690430000002
82,1511.6665039999998,740.3847659999992,32.43603499999972,2129.2309569999998,211.6665039999998,131.15380900000036,159.10253900000043,427.4360349999997,72.43603499999972,-20.641113000000132,640.8974609999996,99.10253900000043,711.0258789999998,1063.7177729999994
83,1624.8715819999998,811.9228520000006,40.64111300000059,2276.794922,207.43603499999972,136.53857400000015,155.2563479999999,452.4360349999997,65.51269500000035,-40.38452099999995,754.7436520000001,102.43603499999972,757.9487300000001,1084.743652
84,1689.8715819999998,786.4101559999999,54.74365200000011,2422.05127,224.10253900000043,141.79492200000004,149.10253900000043,463.5898440000001,55.76904300000024,-67.69238299999961,903.9741210000002,94.74365200000011,836.2822270000006,1122.4360349999997
85,1717.4360349999997,707.1796880000002,72.43603499999972,2530.256348,268.7177729999994,150.89746099999957,153.58984400000008,484.7436520000001,61.025878999999804,-79.35888699999987,1063.7177729999994,85.64111300000059,932.4360349999997,1195.0
86,1732.05127,628.4614259999998,90.25634799999989,2591.410156,322.94873000000007,161.53857400000015,172.43603499999972,529.4873049999997,83.7177729999994,-68.07690400000001,1190.7690430000002,84.61523400000078,1016.5385740000002,1286.1538090000004
87,1753.205078,574.2309569999998,106.15380900000036,2620.5126950000003,357.05126999999993,168.0771479999994,194.87158199999976,587.6923829999996,105.89746099999957,-50.51293900000019,1255.256348,92.05126999999993,1066.410156,1362.8203130000002
88,1787.1796880000002,543.0771479999994,122.17968800000017,2641.410156,354.3588869999994,167.05126999999993,206.6665039999998,635.6411130000006,108.20507799999996,-50.76928699999962,1264.1025390000004,100.38476599999922,1082.3076170000004,1405.5126950000003
89,1829.6152340000008,533.9741210000002,141.9228520000006,2668.0771480000003,322.3076170000004,161.0258789999998,200.51269500000035,655.0,86.53857400000015,-77.94872999999961,1257.3076170000004,102.43603499999972,1082.4360349999997,1420.6411130000006
90,1871.1538090000004,555.0,166.2822270000006,2700.6411129999997,281.79492200000004,155.38476599999922,179.61523400000078,644.2309569999998,51.410155999999915,-121.53857400000015,1277.1796880000002,94.61523400000078,1088.9741210000002,1428.589844
91,1904.1025390000004,609.2309569999998,191.53857400000015,2733.8461909999996,249.7436520000001,153.20507799999996,152.3076170000004,614.7436520000001,15.384765999999217,-163.84619099999964,1335.8974609999996,77.94873000000007,1115.1284180000002,1441.794922
92,1929.1025390000004,683.4614259999998,212.6923829999996,2764.743651999999,233.3334960000002,154.10253900000043,127.30761700000039,582.8203130000002,-14.230713000000378,-193.46142599999985,1410.5126950000003,55.38476599999922,1164.3588869999994,1458.205078
93,1957.4360349999997,754.1025390000004,226.79492200000004,2793.3334959999993,237.56396500000028,157.05126999999993,113.84619099999964,565.2563479999999,-31.923095999999987,-205.89746100000002,1472.05127,32.82031300000017,1233.4614259999998,1474.1025390000004
94,1997.8203130000002,795.6411130000006,234.3588869999994,2818.4614260000008,270.76904300000024,162.6923829999996,119.10253900000043,575.0,-30.641113000000132,-198.84619099999964,1516.0258789999998,18.589844000000085,1314.4873049999997,1495.256348
95,2040.6411130000006,785.5126950000003,237.56396500000028,2836.9228519999997,336.2822270000006,170.38476599999922,142.43603499999972,611.794922,-7.435790999999426,-173.97436500000003,1560.0,18.717772999999397,1391.794922,1527.1796880000002
96,2060.384765999999,715.1284180000002,239.3588869999994,2846.5385739999992,421.9228520000006,178.0771479999994,171.6665039999998,658.5898440000001,27.94873000000007,-141.15380900000036,1612.3076170000004,31.410155999999915,1441.794922,1557.5639650000003
97,2039.3588869999994,609.3588869999994,241.9228520000006,2850.769043000001,501.15380900000036,182.82031300000017,189.61523400000078,691.1538090000004,56.410155999999915,-115.76928699999962,1656.6665039999998,49.102539000000434,1445.8974609999996,1558.9741210000002
98,1984.4873049999997,528.205078,245.6411130000006,2853.205078,547.1796880000002,183.46142599999985,186.0258789999998,694.1025390000004,61.153809000000365,-111.53857400000015,1669.2309569999998,62.56396500000028,1404.8715819999998,1514.3588869999994
99,1921.9228520000006,530.6411130000006,248.9741210000002,2850.128418000001,547.6923829999996,180.12841800000024,162.3076170000004,669.2309569999998,37.82031300000017,-133.97436500000003,1648.205078,65.0,1341.6665039999998,1436.794922
100,1879.3588869999994,625.7690430000002,249.87158199999976,2832.05127,512.3076170000004,173.0771479999994,129.10253900000043,630.5126950000003,-3.3334960000001956,-176.923096,1623.0771479999994,53.846190999999635,1289.8715819999998,1366.2822270000006
101,1872.4360349999997,760.0,248.20507799999996,2798.4614260000008,470.0,164.23095699999976,100.25634799999989,596.0258789999998,-42.948729999999614,-221.53857400000015,1631.410156,32.30761700000039,1275.8974609999996,1343.8461909999996
102,1897.3076170000004,851.9228520000006,246.6665039999998,2765.769043000001,455.51269500000035,157.6923829999996,86.9228520000006,580.0,-61.66674799999964,-243.20507799999996,1686.794922,9.615234000000783,1306.2822270000006,1382.4360349999997
103,1932.8203130000002,846.0258789999998,249.48730499999965,2754.615234000001,490.89746099999957,157.82031300000017,92.94873000000007,587.0512699999999,-51.53857400000015,-226.53857400000015,1765.6411130000006,-3.2050779999999577,1364.1025390000004,1454.4873049999997
104,1951.9228520000006,746.4101559999999,259.87158199999976,2768.3334959999993,573.5898440000001,164.7436520000001,112.43603499999972,610.0,-19.8718259999996,-178.076904,1825.7690430000002,-0.256347999999889,1418.0771479999994,1507.4360349999997
105,1939.2309569999998,614.1025390000004,277.4360349999997,2785.6411129999997,678.5898440000001,173.3334960000002,133.46142599999985,633.8461909999996,14.743652000000111,-124.61547900000005,1838.3334960000002,15.256347999999889,1440.256348,1499.6152340000008
106,1902.8203130000002,531.1538090000004,299.87158199999976,2779.230956999999,771.4101559999999,177.6923829999996,145.38476599999922,645.7690430000002,36.153809000000365,-94.23071300000038,1810.1284180000002,33.0771479999994,1422.5639650000003,1432.05127
107,1867.3076170000004,552.8203130000002,323.84619099999964,2741.1538090000004,825.5126950000003,175.89746099999957,145.38476599999922,642.3076170000004,39.35888699999941,-95.89746100000002,1776.794922,42.17968800000017,1383.3334960000002,1351.1538090000004
108,1855.3847659999992,668.8461909999996,345.3847659999992,2690.6411129999997,834.4873049999997,170.89746099999957,137.3076170000004,628.7177729999994,29.871581999999762,-117.17944299999999,1774.4873049999997,37.30761700000039,1354.4873049999997,1313.205078
109,1870.256348,805.0,360.6411130000006,2655.0,813.5898440000001,166.79492200000004,126.0258789999998,611.5385740000002,14.487304999999651,-137.820557,1810.7690430000002,20.769043000000238,1357.1796880000002,1337.6923829999996
110,1892.94873,868.7177729999994,367.05126999999993,2643.205078,791.2822270000006,165.0,113.0771479999994,593.0771479999994,-3.9741210000001956,-146.41015600000037,1860.0,1.0258789999998044,1383.0771479999994,1392.4360349999997
111,1894.8715819999998,814.2309569999998,365.89746099999957,2640.384765999999,793.4614259999998,164.7436520000001,99.48730499999965,572.9487300000001,-23.58984399999963,-145.38452099999995,1883.589844,-11.666747999999643,1400.6411130000006,1422.3076170000004
112,1859.1025390000004,676.4101559999999,361.0258789999998,2623.8461909999996,830.6411130000006,164.48730499999965,89.35888699999941,554.8715819999998,-38.58984399999963,-141.28198199999997,1859.743652,-10.897461000000021,1381.794922,1395.0
113,1789.743652,544.7436520000001,354.87158199999976,2583.8461909999996,893.205078,164.10253900000043,88.0771479999994,545.6411130000006,-40.25634799999989,-137.6923829999996,1797.94873,0.769043000000238,1325.8974609999996,1321.5385740000002
114,1706.794922,495.76904300000024,348.5898440000001,2532.3076170000004,956.2822270000006,163.9741210000002,95.38476599999922,547.6923829999996,-26.666747999999643,-134.8718259999996,1732.05127,13.589844000000085,1260.1284180000002,1241.0258789999998
115,1636.0258789999998,540.7690430000002,342.5639650000003,2492.6923829999996,992.6923829999996,164.23095699999976,103.84619099999964,555.0,-7.307617000000391,-133.58984399999963,1696.794922,16.794922000000042,1218.7177729999994,1190.5126950000003
116,1599.4873049999997,630.0,337.17968800000017,2479.1025390000004,991.0258789999998,165.51269500000035,104.10253900000043,556.5385740000002,3.5898440000000846,-135.38452099999995,1705.7690430000002,6.922852000000603,1220.8974609999996,1183.589844
117,1604.3588869999994,700.3847659999992,332.94873000000007,2482.05127,965.2563479999999,168.84619099999964,94.35888699999941,546.6665039999998,-1.2822270000006029,-139.4870609999998,1743.8461909999996,-9.743652000000111,1260.0,1209.743652
118,1636.5385740000002,719.8715819999998,331.6665039999998,2471.794922,945.2563479999999,173.9741210000002,81.53857400000015,530.7690430000002,-15.641113000000132,-141.15380900000036,1776.0258789999998,-22.435790999999426,1307.6923829999996,1245.0
119,1667.94873,698.5898440000001,337.05126999999993,2423.974121,954.6152340000008,179.48730499999965,76.2822270000006,521.1538090000004,-23.846190999999635,-134.4870609999998,1770.1284180000002,-23.333252000000357,1330.5126950000003,1265.1284180000002
120,1677.5639650000003,668.0771479999994,350.89746099999957,2344.3588869999994,992.9487300000001,183.0771479999994,84.23095699999976,527.4360349999997,-13.71801800000003,-117.43579099999943,1719.1025390000004,-12.564209000000574,1310.8974609999996,1256.6665039999998
121,1662.1796880000002,653.3334960000002,368.20507799999996,2267.5639650000003,1036.2822270000006,182.82031300000017,99.87158199999976,546.0258789999998,12.56396500000028,-96.28198199999997,1646.6665039999998,1.7949220000000423,1257.4360349999997,1221.794922
122,1627.5639650000003,656.0258789999998,378.20507799999996,2225.7690430000002,1055.8974609999996,176.9228520000006,109.61523400000078,560.1284180000002,37.05126999999993,-84.35888699999987,1588.9741210000002,8.846190999999635,1197.8203130000002,1175.7690430000002
123,1578.9741210000002,658.8461909999996,373.3334960000002,2220.1284180000002,1041.5385740000002,166.41015599999992,102.69238299999961,552.3076170000004,39.61523400000078,-92.43579099999943,1568.8461909999996,2.3076170000003913,1158.8461909999996,1136.410156
124,1522.6923829999996,646.9228520000006,357.17968800000017,2224.1025390000004,1011.1538090000004,156.15380900000036,80.76904300000024,521.5385740000002,16.153809000000365,-116.41015600000037,1581.1538090000004,-14.8718259999996,1150.3847659999992,1114.3588869999994
125,1472.6923829999996,625.7690430000002,341.53857400000015,2211.794922,995.1284180000002,152.56396500000028,58.333496000000196,486.2822270000006,-15.769286999999622,-137.820557,1600.1284180000002,-31.538574000000153,1163.8461909999996,1109.2309569999998
126,1446.1538090000004,616.6665039999998,336.79492200000004,2181.538574,1010.7690430000002,158.0771479999994,50.64111300000059,470.2563479999999,-32.051270000000386,-138.71801800000003,1599.1025390000004,-37.051270000000386,1182.94873,1113.589844
127,1450.7690430000002,628.4614259999998,344.10253900000043,2153.333496,1050.7690430000002,169.10253900000043,62.56396500000028,482.82031300000017,-19.74365200000011,-116.28198199999997,1570.0,-28.974365000000034,1193.8461909999996,1119.2309569999998
128,1474.6152340000008,642.6923829999996,356.9228520000006,2144.615234000001,1094.4873049999997,178.0771479999994,85.51269500000035,513.7177729999994,14.487304999999651,-83.97436500000003,1524.4873049999997,-12.820557000000008,1188.9741210000002,1119.2309569999998
129,1493.589844,631.4101559999999,366.2822270000006,2149.615234000001,1123.4614259999998,179.61523400000078,105.0,542.3076170000004,50.76904300000024,-59.74365200000011,1480.3847659999992,2.0512699999999313,1166.1538090000004,1107.94873
130,1490.3847659999992,593.7177729999994,366.2822270000006,2144.2309569999998,1127.4360349999997,174.23095699999976,109.48730499999965,550.7690430000002,69.23095699999976,-54.74365200000011,1445.6411130000006,7.948730000000069,1128.4614259999998,1084.4873049999997
131,1466.410156,563.9741210000002,357.6923829999996,2110.8974609999996,1104.8715819999998,167.17968800000017,97.82031300000017,535.0,62.82031300000017,-68.46142599999985,1416.794922,2.4360349999997197,1087.1796880000002,1059.1025390000004
132,1437.5639650000003,577.5639650000003,346.9228520000006,2058.8461909999996,1064.743652,164.61523400000078,79.35888699999941,506.4101559999999,41.9228520000006,-88.84619099999964,1390.256348,-10.0,1059.4873049999997,1049.2309569999998
133,1416.6665039999998,630.1284180000002,341.53857400000015,2015.8974609999996,1026.6665039999998,168.84619099999964,68.3334960000002,484.48730499999965,26.922852000000603,-99.61547900000005,1369.2309569999998,-20.38452099999995,1058.0771479999994,1063.205078
134,1401.5385740000002,677.0512699999999,345.2563479999999,2001.794922,1010.6411130000006,177.43603499999972,72.82031300000017,482.4360349999997,32.17968800000017,-90.64111300000013,1359.1025390000004,-21.538574000000153,1078.3334960000002,1088.8461909999996
135,1380.256348,676.1538090000004,354.23095699999976,2008.8461909999996,1021.4101559999999,185.0,88.58984400000008,497.17968800000017,54.61523400000078,-66.66674799999964,1355.7690430000002,-12.820557000000008,1098.3334960000002,1100.6411130000006
136,1348.8461909999996,626.794922,360.6411130000006,2011.794922,1045.1284180000002,187.6923829999996,102.56396500000028,513.3334960000002,76.79492200000004,-43.46142599999985,1344.1025390000004,-0.769043000000238,1095.6411130000006,1081.6665039999998
137,1318.9741210000002,567.8203130000002,358.7177729999994,1993.0771479999994,1059.4873049999997,186.0258789999998,104.10253900000043,515.7690430000002,83.46142599999985,-36.153809000000365,1310.256348,5.769043000000238,1066.1538090000004,1039.1025390000004
138,1308.7177729999994,542.3076170000004,349.7436520000001,1960.1284180000002,1051.9228520000006,183.0771479999994,93.20507799999996,502.5639650000003,73.84619099999964,-46.92309599999999,1256.794922,2.4360349999997197,1027.3076170000004,998.5898440000001
139,1324.8715819999998,564.1025390000004,339.7436520000001,1938.4614259999998,1027.6923829999996,182.05126999999993,80.25634799999989,485.51269500000035,60.897460999999566,-65.38452099999995,1205.5126950000003,-7.820557000000008,1003.0771479999994,984.2309569999998
140,1353.205078,615.0,333.46142599999985,1946.0258789999998,1004.4873049999997,182.6923829999996,76.41015599999992,478.5898440000001,58.589844000000085,-77.30761700000039,1178.8461909999996,-17.30761700000039,1004.3588869999994,999.4873049999997
141,1366.5385740000002,662.3076170000004,330.6411130000006,1971.410156,996.1538090000004,182.6923829999996,83.7177729999994,484.48730499999965,68.84619099999964,-76.53857400000015,1179.3588869999994,-19.8718259999996,1018.8461909999996,1025.6411130000006
142,1344.8715819999998,681.794922,327.4360349999997,1979.8715819999998,1000.8974609999996,179.61523400000078,94.61523400000078,494.3588869999994,81.9228520000006,-66.66674799999964,1188.0771479999994,-15.512939000000188,1022.9487300000001,1036.2822270000006
143,1294.6152340000008,671.5385740000002,321.4101559999999,1946.0258789999998,1004.8715819999998,173.7177729999994,99.87158199999976,497.05126999999993,86.6665039999998,-55.25634799999989,1181.794922,-8.333252000000357,1003.0771479999994,1017.8203130000002
144,1244.6152340000008,648.0771479999994,313.3334960000002,1879.8715819999998,996.5385740000002,167.43603499999972,96.53857400000015,489.7436520000001,80.64111300000059,-47.051270000000386,1152.4360349999997,-3.2050779999999577,966.6665039999998,978.9741210000002
145,1220.0,629.4873049999997,305.12841800000024,1819.4873049999997,976.4101559999999,162.94873000000007,89.23095699999976,478.20507799999996,71.2822270000006,-42.435790999999426,1108.7177729999994,-2.8203119999998307,931.6665039999998,941.794922
146,1220.6411130000006,617.9487300000001,298.3334960000002,1795.6411130000006,956.1538090000004,161.53857400000015,85.0,470.76904300000024,67.69238299999961,-39.61547900000005,1064.1025390000004,-6.538574000000153,910.1284180000002,924.2309569999998
147,1226.2822270000006,603.0771479999994,293.3334960000002,1807.3076170000004,949.2309569999998,162.94873000000007,87.56396500000028,471.6665039999998,74.48730499999965,-36.79492200000004,1026.5385740000002,-11.025634999999966,901.2822270000006,928.205078
148,1218.9741210000002,579.3588869999994,288.7177729999994,1826.5385740000002,958.8461909999996,166.53857400000015,95.51269500000035,478.9741210000002,89.10253900000043,-32.17944299999999,996.1538090000004,-12.948729999999614,896.9228520000006,940.0
149,1198.3334960000002,558.205078,281.6665039999998,1825.6411130000006,973.4614259999998,169.87158199999976,102.56396500000028,485.12841800000024,103.3334960000002,-26.153809000000365,968.205078,-11.28198199999997,889.4873049999997,941.9228520000006
150,1177.3076170000004,556.4101559999999,269.87158199999976,1799.2309569999998,973.7177729999994,171.0258789999998,102.17968800000017,482.4360349999997,108.9741210000002,-20.25634799999989,938.4614259999998,-8.333252000000357,877.3076170000004,925.7690430000002
151,1167.05127,575.0,256.0258789999998,1766.0258789999998,949.8715819999998,169.61523400000078,94.35888699999941,469.6152340000008,104.87158199999976,-15.1281740000004,906.1538090000004,-7.564209000000574,863.4614259999998,898.4614259999998
152,1166.5385740000002,596.2822270000006,245.2563479999999,1748.3334960000002,911.0258789999998,168.20507799999996,85.25634799999989,454.6152340000008,97.05126999999993,-9.230713000000378,873.9741210000002,-9.358886999999868,851.9228520000006,873.9741210000002
153,1164.3588869999994,601.9228520000006,240.0,1752.8203130000002,877.6923829999996,169.48730499999965,81.6665039999998,446.9228520000006,92.94873000000007,-0.8974609999995664,843.5898440000001,-11.28198199999997,841.0258789999998,861.0258789999998
154,1150.0,588.7177729999994,235.38476599999922,1767.05127,863.205078,173.7177729999994,84.48730499999965,448.84619099999964,94.23095699999976,7.179688000000169,813.3334960000002,-10.641113000000132,823.9741210000002,857.5639650000003
155,1124.6152340000008,567.0512699999999,223.46142599999985,1774.6152340000008,866.794922,179.48730499999965,89.61523400000078,455.3847659999992,96.9228520000006,11.282227000000603,780.7690430000002,-7.692382999999609,796.4101559999999,855.6411130000006
156,1099.1025390000004,549.2309569999998,200.6411130000006,1770.5126950000003,877.9487300000001,184.61523400000078,93.7177729999994,461.15380900000036,99.61523400000078,12.43603499999972,747.3076170000004,-3.9741210000001956,763.9741210000002,849.3588869999994
157,1084.1025390000004,541.2822270000006,171.9228520000006,1761.9228520000006,885.0,187.17968800000017,97.30761700000039,465.3847659999992,105.12841800000024,17.69238299999961,718.3334960000002,-0.512695000000349,737.9487300000001,839.2309569999998
158,1080.7690430000002,541.9228520000006,146.79492200000004,1757.1796880000002,879.7436520000001,185.76904300000024,102.05126999999993,469.87158199999976,115.64111300000059,33.589844000000085,697.0512699999999,2.5639650000002803,725.2563479999999,828.9741210000002
159,1081.9228520000006,544.1025390000004,131.9228520000006,1756.1538090000004,859.6152340000008,180.51269500000035,107.56396500000028,474.87158199999976,128.58984400000008,58.333496000000196,680.1284180000002,5.769043000000238,720.3847659999992,820.3847659999992
160,1081.9228520000006,539.6152340000008,127.30761700000039,1752.4360349999997,828.9741210000002,173.58984400000008,112.69238299999961,478.20507799999996,138.58984400000008,82.56396500000028,659.8715819999998,9.102539000000434,711.4101559999999,811.6665039999998
161,1083.4614259999998,524.3588869999994,127.82031300000017,1741.410156,798.7177729999994,168.3334960000002,117.69238299999961,478.7177729999994,143.58984400000008,97.30761700000039,630.6411130000006,13.333496000000196,691.1538090000004,799.2309569999998
162,1092.8203130000002,498.9741210000002,128.84619099999964,1725.1284180000002,778.3334960000002,166.2822270000006,125.0,477.94873000000007,146.0258789999998,101.41015599999992,592.4360349999997,18.205077999999958,661.2822270000006,780.6411130000006
163,1110.6411130000006,464.6152340000008,130.12841800000024,1707.94873,767.0512699999999,165.89746099999957,135.76904300000024,478.46142599999985,148.9741210000002,100.51269500000035,548.7177729999994,22.17968800000017,628.3334960000002,756.1538090000004
164,1129.1025390000004,418.3334960000002,134.48730499999965,1689.8715819999998,754.6152340000008,163.9741210000002,147.3076170000004,481.0258789999998,152.43603499999972,102.56396500000028,502.17968800000017,23.077147999999397,596.4101559999999,727.6923829999996
165,1140.3847659999992,358.20507799999996,143.20507799999996,1667.8203130000002,728.8461909999996,159.10253900000043,154.7436520000001,483.5898440000001,154.23095699999976,112.17968800000017,454.23095699999976,20.25634799999989,565.5126950000003,698.4614259999998
166,1146.410156,289.48730499999965,154.23095699999976,1640.5126950000003,686.4101559999999,153.20507799999996,155.76904300000024,483.7177729999994,154.23095699999976,128.58984400000008,406.79492200000004,16.666503999999804,534.8715819999998,671.4101559999999
167,1157.4360349999997,223.7177729999994,162.56396500000028,1611.9228520000006,635.7690430000002,148.84619099999964,152.94873000000007,478.84619099999964,154.7436520000001,146.9228520000006,363.20507799999996,17.56396500000028,505.2563479999999,648.5898440000001
168,1181.410156,170.76904300000024,164.87158199999976,1589.8715819999998,591.0258789999998,147.17968800000017,152.05126999999993,467.6923829999996,158.84619099999964,161.6665039999998,326.2822270000006,25.641113000000587,478.46142599999985,629.4873049999997
169,1216.9228520000006,132.56396500000028,161.53857400000015,1578.7177729999994,560.3847659999992,147.05126999999993,156.53857400000015,450.12841800000024,167.6923829999996,170.6411130000006,296.2822270000006,38.7177729999994,455.76904300000024,612.0512699999999
170,1253.9741210000002,102.56396500000028,155.89746099999957,1575.1284180000002,540.8974609999996,146.0258789999998,165.2563479999999,427.94873000000007,178.3334960000002,175.76904300000024,271.0258789999998,51.153809000000365,437.17968800000017,593.9741210000002
171,1281.6665039999998,73.3334960000002,150.12841800000024,1570.8974609999996,522.8203130000002,141.9228520000006,173.7177729999994,404.6152340000008,186.6665039999998,181.53857400000015,247.43603499999972,58.0771479999994,421.53857400000015,574.4873049999997
172,1294.8715819999998,41.2822270000006,141.79492200000004,1559.2309569999998,500.3847659999992,133.9741210000002,177.43603499999972,383.5898440000001,189.87158199999976,190.89746099999957,223.9741210000002,59.102539000000434,406.53857400000015,553.4614259999998
173,1295.7690430000002,8.589844000000085,126.15380900000036,1541.6665039999998,476.15380900000036,123.7177729999994,175.0,365.89746099999957,189.48730499999965,202.6923829999996,199.10253900000043,57.56396500000028,388.9741210000002,531.9228520000006
174,1290.256348,-19.10253899999998,101.9228520000006,1526.2822270000006,457.17968800000017,114.48730499999965,168.7177729999994,350.51269500000035,188.84619099999964,212.3076170000004,170.51269500000035,58.0771479999994,367.6923829999996,510.89746099999957
175,1284.4873049999997,-36.53857400000015,75.64111300000059,1520.5126950000003,447.94873000000007,110.25634799999989,163.58984400000008,336.9228520000006,191.6665039999998,215.89746099999957,135.38476599999922,62.56396500000028,344.23095699999976,491.0258789999998
176,1280.5126950000003,-42.948729999999614,57.69238299999961,1524.6152340000008,445.0,112.05126999999993,162.94873000000007,324.6152340000008,197.82031300000017,213.7177729999994,94.61523400000078,68.84619099999964,321.79492200000004,471.53857400000015
177,1275.256348,-43.58984399999963,55.25634799999989,1531.1538090000004,439.6152340000008,116.9228520000006,166.15380900000036,311.4101559999999,204.10253900000043,209.87158199999976,53.846190999999635,73.46142599999985,301.4101559999999,450.51269500000035
178,1262.6923829999996,-46.92309599999999,67.56396500000028,1532.05127,423.5898440000001,120.25634799999989,169.10253900000043,293.3334960000002,205.6411130000006,208.9741210000002,20.51269500000035,73.9741210000002,281.0258789999998,426.53857400000015
179,1239.4873049999997,-57.30761700000039,87.30761700000039,1524.6152340000008,395.3847659999992,118.9741210000002,168.7177729999994,267.5639650000003,201.15380900000036,213.3334960000002,-0.6411130000005869,71.79492200000004,259.3588869999994,401.15380900000036
180,1207.94873,-71.53857400000015,106.53857400000015,1511.6665039999998,360.76904300000024,113.9741210000002,165.38476599999922,236.15380900000036,194.3588869999994,221.53857400000015,-11.794922000000042,70.38476599999922,238.0771479999994,378.7177729999994
181,1173.589844,-82.82055700000001,120.51269500000035,1495.6411130000006,328.0771479999994,108.84619099999964,162.56396500000028,204.87158199999976,190.6411130000006,229.7436520000001,-20.25634799999989,72.30761700000039,220.6411130000006,362.5639650000003
182,1141.794922,-86.28198199999997,130.12841800000024,1474.3588869999994,304.10253900000043,107.43603499999972,163.20507799999996,179.7436520000001,192.17968800000017,234.61523400000078,-34.10253899999998,77.17968800000017,207.94873000000007,352.3076170000004
183,1115.3847659999992,-81.15380900000036,139.10253900000043,1443.205078,293.7177729999994,111.6665039999998,167.94873000000007,163.84619099999964,198.20507799999996,236.53857400000015,-56.41015600000037,82.69238299999961,197.94873000000007,344.3588869999994
184,1095.8974609999996,-69.23071300000038,150.51269500000035,1399.3588869999994,300.51269500000035,120.51269500000035,174.61523400000078,156.6665039999998,206.6665039999998,238.20507799999996,-83.07690400000001,86.79492200000004,187.82031300000017,335.3847659999992
185,1081.2822270000006,-54.48706099999981,164.3588869999994,1346.1538090000004,325.6411130000006,130.38476599999922,180.76904300000024,153.58984400000008,215.38476599999922,241.79492200000004,-106.66674799999964,89.48730499999965,176.2822270000006,324.7436520000001
186,1065.6411130000006,-44.10253899999998,178.7177729999994,1292.3076170000004,362.94873000000007,137.3076170000004,183.9741210000002,147.94873000000007,220.76904300000024,244.61523400000078,-122.17944299999999,92.43603499999972,163.46142599999985,313.7177729999994
187,1041.794922,-44.74365200000011,191.79492200000004,1249.1025390000004,399.7436520000001,138.9741210000002,183.58984400000008,134.23095699999976,219.61523400000078,242.43603499999972,-131.28198199999997,96.6665039999998,149.48730499999965,302.94873000000007
188,1006.9228520000006,-57.051270000000386,204.10253900000043,1223.589844,424.3588869999994,136.79492200000004,180.76904300000024,112.56396500000028,211.9228520000006,235.12841800000024,-140.64111300000013,101.41015599999992,134.61523400000078,291.9228520000006
189,963.9741210000002,-74.8718259999996,216.6665039999998,1213.4614259999998,433.7177729999994,134.10253900000043,176.79492200000004,88.58984400000008,202.05126999999993,227.3076170000004,-155.89746100000002,104.87158199999976,118.7177729999994,279.48730499999965
190,917.6923829999996,-91.02563499999997,229.48730499999965,1206.410156,434.6152340000008,133.46142599999985,171.53857400000015,67.17968800000017,193.9741210000002,222.56396500000028,-178.46142599999985,105.38476599999922,100.64111300000059,264.23095699999976
191,868.9741210000002,-103.33325200000036,241.2822270000006,1188.4614259999998,435.89746099999957,134.7436520000001,163.58984400000008,48.20507799999996,186.2822270000006,218.7177729999994,-204.61547900000005,102.17968800000017,78.84619099999964,245.12841800000024
192,817.1796880000002,-114.48706099999981,251.2822270000006,1155.8974609999996,442.3076170000004,135.76904300000024,152.43603499999972,28.717772999999397,174.87158199999976,210.0,-227.0512700000004,96.6665039999998,53.20507799999996,223.9741210000002
193,764.1025390000004,-125.1281740000004,260.89746099999957,1118.9741210000002,451.79492200000004,135.6411130000006,140.89746099999957,8.333496000000196,158.46142599999985,194.3588869999994,-239.61547900000005,90.76904300000024,27.56396500000028,204.61523400000078
194,715.6411130000006,-132.9487299999996,272.3076170000004,1092.4360349999997,458.5898440000001,134.7436520000001,133.7177729999994,-8.846190999999635,141.41015599999992,176.53857400000015,-240.64111300000013,86.6665039999998,5.897460999999566,190.2563479999999
195,676.9228520000006,-135.76928699999962,286.15380900000036,1081.794922,459.23095699999976,134.3588869999994,132.6923829999996,-19.487060999999812,129.61523400000078,163.58984400000008,-235.89746100000002,85.51269500000035,-11.41015600000037,179.10253900000043
196,646.794922,-136.66674799999964,300.12841800000024,1078.7177729999994,453.84619099999964,134.10253900000043,134.3588869999994,-25.25634799999989,124.35888699999941,158.3334960000002,-235.76928699999962,86.2822270000006,-28.974365000000034,165.6411130000006
197,618.0771479999994,-141.923096,310.89746099999957,1068.4614259999998,444.87158199999976,132.94873000000007,132.82031300000017,-31.538574000000153,121.6665039999998,156.41015599999992,-247.6923829999996,87.30761700000039,-50.76928699999962,145.2563479999999
198,583.9741210000002,-154.7436520000001,317.4360349999997,1042.1796880000002,433.84619099999964,130.0,125.25634799999989,-42.17944299999999,116.0258789999998,150.2563479999999,-270.7692869999996,87.30761700000039,-76.15380900000036,119.48730499999965
199,543.7177729999994,-171.53857400000015,321.2822270000006,1002.3076170000004,419.48730499999965,125.89746099999957,113.3334960000002,-56.28198199999997,105.12841800000024,136.41015599999992,-296.28198199999997,86.15380900000036,-100.64111300000013,94.48730499999965
200,502.4360349999997,-186.02563499999997,326.0258789999998,959.1025390000004,398.84619099999964,121.53857400000015,101.9228520000006,-71.41015600000037,90.0,117.56396500000028,-315.2563479999999,83.7177729999994,-121.15380900000036,75.89746099999957
201,465.12841800000024,-194.7436520000001,334.10253900000043,922.6923829999996,371.15380900000036,117.56396500000028,93.46142599999985,-85.76928699999962,73.0771479999994,100.51269500000035,-324.35888699999987,80.12841800000024,-138.076904,64.35888699999941
202,435.0,-199.10253899999998,346.4101559999999,898.7177729999994,342.3076170000004,114.87158199999976,88.0771479999994,-99.10253899999998,57.69238299999961,91.15380900000036,-327.5642090000006,75.64111300000059,-152.3076170000004,55.76904300000024
203,411.9228520000006,-202.56420900000057,361.79492200000004,885.7690430000002,322.3076170000004,114.48730499999965,83.58984400000008,-110.64111300000013,47.43603499999972,90.25634799999989,-330.7692869999996,71.53857400000015,-163.20507799999996,46.2822270000006
204,394.10253900000043,-207.820557,377.94873000000007,876.9228520000006,316.2822270000006,116.0258789999998,78.58984400000008,-120.38452099999995,43.46142599999985,91.9228520000006,-338.97436500000003,68.3334960000002,-170.89746100000002,34.48730499999965
205,377.94873000000007,-215.64111300000013,391.9228520000006,862.5639650000003,318.9741210000002,117.17968800000017,72.05126999999993,-130.0,42.69238299999961,88.0771479999994,-353.33325200000036,66.79492200000004,-178.97436500000003,20.897460999999566
206,360.89746099999957,-224.8718259999996,401.79492200000004,835.5126950000003,318.20507799999996,115.64111300000059,64.35888699999941,-142.43579099999943,39.61523400000078,76.0258789999998,-370.897461,66.6665039999998,-192.9487299999996,6.794922000000042
207,342.82031300000017,-231.66674799999964,407.6923829999996,795.7690430000002,305.51269500000035,110.76904300000024,57.05126999999993,-157.6923829999996,31.666503999999804,61.025878999999804,-384.7436520000001,66.79492200000004,-213.58984399999963,-6.794922000000042
208,325.51269500000035,-231.53857400000015,411.2822270000006,749.8715819999998,283.84619099999964,104.74365200000011,51.53857400000015,-171.79492200000004,21.410155999999915,52.43603499999972,-389.102539,66.15380900000036,-233.33325200000036,-18.076904000000013
209,309.3588869999994,-224.10253899999998,414.7436520000001,706.5385740000002,265.89746099999957,101.79492200000004,49.61523400000078,-179.10253899999998,13.974121000000196,54.23095699999976,-383.71801800000003,65.12841800000024,-242.43579099999943,-25.89746100000002
210,292.05126999999993,-214.10253899999998,419.48730499999965,672.5639650000003,263.84619099999964,104.74365200000011,51.410155999999915,-176.41015600000037,12.051269999999931,62.05126999999993,-374.4870609999998,65.25634799999989,-238.076904,-30.641113000000132
211,271.6665039999998,-206.923096,425.2563479999999,650.6411130000006,280.2563479999999,113.46142599999985,56.666503999999804,-165.76928699999962,15.512695000000349,68.3334960000002,-368.20507799999996,67.94873000000007,-226.53857400000015,-33.33325200000036
212,251.6665039999998,-203.46142599999985,430.51269500000035,639.1025390000004,306.0258789999998,123.9741210000002,64.23095699999976,-152.9487299999996,23.205077999999958,70.25634799999989,-367.820557,72.82031300000017,-217.56420900000057,-34.8718259999996
213,238.84619099999964,-200.64111300000013,431.9228520000006,631.4101559999999,327.6923829999996,131.6665039999998,72.30761700000039,-145.0,32.30761700000039,70.51269500000035,-370.64111300000013,77.94873000000007,-216.41015600000037,-34.8718259999996
214,236.9228520000006,-196.923096,425.6411130000006,618.0771479999994,334.7436520000001,133.3334960000002,77.17968800000017,-147.6923829999996,37.94873000000007,71.9228520000006,-373.076904,81.2822270000006,-222.0512700000004,-34.10253899999998
215,240.12841800000024,-195.1281740000004,409.6152340000008,592.3076170000004,324.48730499999965,128.9741210000002,74.35888699999941,-162.0512700000004,35.0,72.69238299999961,-374.102539,81.15380900000036,-230.38452099999995,-34.8718259999996
216,237.56396500000028,-198.46142599999985,386.79492200000004,554.8715819999998,300.76904300000024,122.05126999999993,62.82031300000017,-182.9487299999996,22.56396500000028,67.56396500000028,-375.897461,76.79492200000004,-238.58984399999963,-39.10253899999998
217,220.2563479999999,-207.179443,363.5898440000001,513.5898440000001,269.48730499999965,117.17968800000017,47.05126999999993,-201.66674799999964,5.512695000000349,53.46142599999985,-382.179443,69.10253900000043,-246.923096,-47.051270000000386
218,186.6665039999998,-217.6923829999996,345.89746099999957,476.53857400000015,234.23095699999976,116.6665039999998,33.20507799999996,-212.0512700000004,-9.487060999999812,33.589844000000085,-394.102539,60.897460999999566,-257.0512700000004,-58.20507799999996
219,143.20507799999996,-227.179443,335.2563479999999,447.5639650000003,195.51269500000035,119.23095699999976,25.0,-215.2563479999999,-19.10253899999998,16.025878999999804,-409.4870609999998,55.12841800000024,-269.61547900000005,-72.30761700000039
220,101.2822270000006,-235.1281740000004,328.9741210000002,426.0258789999998,155.76904300000024,121.0258789999998,22.43603499999972,-216.41015600000037,-24.230713000000378,8.205077999999958,-422.3076170000004,53.46142599999985,-281.79492200000004,-88.07690400000001
221,72.05126999999993,-241.53857400000015,323.9741210000002,411.15380900000036,121.9228520000006,119.61523400000078,24.230956999999762,-218.33325200000036,-26.025634999999966,12.051269999999931,-426.28198199999997,55.64111300000059,-289.102539,-101.15380900000036
222,61.666503999999804,-245.38452099999995,318.46142599999985,401.6665039999998,101.9228520000006,115.64111300000059,29.230956999999762,-219.23071300000038,-23.974365000000034,23.205077999999958,-420.2563479999999,60.0,-288.46142599999985,-107.17944299999999
223,66.41015599999992,-244.8718259999996,312.3076170000004,395.6411130000006,97.94873000000007,112.30761700000039,35.76904300000024,-215.89746100000002,-17.69238299999961,33.589844000000085,-410.0,64.48730499999965,-283.076904,-105.1281740000004
224,76.2822270000006,-238.71801800000003,307.17968800000017,390.3847659999992,103.84619099999964,112.17968800000017,41.9228520000006,-208.076904,-9.230713000000378,37.30761700000039,-403.97436500000003,67.82031300000017,-278.84619099999964,-99.48706099999981
225,82.05126999999993,-227.43579099999943,305.2563479999999,385.51269500000035,111.6665039999998,116.53857400000015,46.53857400000015,-197.6923829999996,-0.12841800000023795,36.410155999999915,-403.58984399999963,70.12841800000024,-278.58984399999963,-95.25634799999989
226,81.79492200000004,-212.179443,307.6923829999996,382.17968800000017,119.10253900000043,124.10253900000043,50.897460999999566,-186.41015600000037,10.769043000000238,38.846190999999635,-401.79492200000004,72.56396500000028,-277.820557,-93.84619099999964
227,80.12841800000024,-195.1281740000004,312.6923829999996,379.6152340000008,128.46142599999985,131.79492200000004,57.30761700000039,-173.97436500000003,25.897460999999566,51.025878999999804,-390.0,76.6665039999998,-270.2563479999999,-92.56420900000057
228,81.6665039999998,-179.23071300000038,315.89746099999957,372.05126999999993,140.89746099999957,136.41015599999992,66.0258789999998,-160.38452099999995,44.35888699999941,69.23095699999976,-367.6923829999996,82.82031300000017,-254.8718259999996,-88.46142599999985
229,86.2822270000006,-169.10253899999998,313.3334960000002,351.0258789999998,149.7436520000001,136.9228520000006,73.9741210000002,-148.84619099999964,59.23095699999976,81.79492200000004,-345.64111300000013,89.48730499999965,-240.1281740000004,-83.58984399999963
230,87.05126999999993,-169.61547900000005,303.84619099999964,312.05126999999993,144.23095699999976,134.7436520000001,76.2822270000006,-144.8718259999996,61.410155999999915,78.46142599999985,-338.46142599999985,93.7177729999994,-237.0512700000004,-84.35888699999987
231,75.89746099999957,-181.53857400000015,290.0,260.12841800000024,118.84619099999964,131.79492200000004,70.0,-151.923096,46.53857400000015,59.23095699999976,-353.076904,92.82031300000017,-249.61547900000005,-96.41015600000037
232,51.025878999999804,-198.33325200000036,276.53857400000015,207.43603499999972,79.87158199999976,130.38476599999922,57.43603499999972,-167.43579099999943,20.641113000000587,35.12841800000024,-382.4357909999994,86.9228520000006,-270.2563479999999,-117.56420900000057
233,19.615234000000783,-209.61547900000005,267.4360349999997,166.9228520000006,41.9228520000006,131.0258789999998,45.64111300000059,-183.33325200000036,-2.8203119999998307,19.358886999999413,-409.4870609999998,79.61523400000078,-286.28198199999997,-138.076904
234,-6.666747999999643,-208.33325200000036,264.3588869999994,143.9741210000002,17.05126999999993,132.94873000000007,40.897460999999566,-190.89746100000002,-11.666747999999643,18.589844000000085,-418.58984399999963,75.0,-290.0,-147.43579099999943
235,-19.487060999999812,-195.38452099999995,266.0258789999998,133.7177729999994,6.153809000000365,134.61523400000078,45.25634799999989,-186.923096,-2.4360349999997197,29.230956999999762,-406.02563499999997,74.87158199999976,-283.20507799999996,-142.43579099999943
236,-19.230713000000378,-177.0512700000004,270.12841800000024,127.05126999999993,1.4101559999999154,134.61523400000078,55.25634799999989,-174.61547900000005,17.94873000000007,42.56396500000028,-380.897461,78.84619099999964,-273.58984399999963,-129.35888699999987
237,-14.102538999999979,-160.1281740000004,274.23095699999976,117.82031300000017,-5.0,133.0771479999994,65.12841800000024,-161.41015600000037,37.30761700000039,52.05126999999993,-358.46142599999985,85.0,-267.6923829999996,-119.74365200000011
238,-13.58984399999963,-148.84619099999964,276.9228520000006,107.17968800000017,-13.974365000000034,131.79492200000004,70.25634799999989,-153.20507799999996,46.410155999999915,57.17968800000017,-349.8718259999996,91.41015599999992,-267.179443,-120.76928699999962
239,-20.512939000000188,-143.58984399999963,278.3334960000002,99.74365200000011,-19.10253899999998,132.6923829999996,70.38476599999922,-150.2563479999999,45.897460999999566,61.79492200000004,-355.38452099999995,96.6665039999998,-268.46142599999985,-130.38452099999995
240,-30.38452099999995,-142.43579099999943,278.7177729999994,97.94873000000007,-14.358886999999868,137.05126999999993,69.61523400000078,-148.46142599999985,43.7177729999994,69.23095699999976,-365.64111300000013,99.74365200000011,-266.28198199999997,-138.84619099999964
241,-36.41015600000037,-142.179443,278.20507799999996,97.82031300000017,-1.153809000000365,143.46142599999985,73.0771479999994,-142.3076170000004,48.20507799999996,80.12841800000024,-368.71801800000003,100.89746099999957,-257.4357909999994,-137.0512700000004
242,-37.82055700000001,-140.89746100000002,277.05126999999993,90.76904300000024,11.666503999999804,148.84619099999964,81.41015599999992,-130.76928699999962,60.38476599999922,91.2822270000006,-360.38452099999995,101.15380900000036,-243.84619099999964,-125.64111300000013
243,-40.1281740000004,-138.58984399999963,276.4101559999999,70.12841800000024,14.102539000000434,150.2563479999999,91.0258789999998,-117.69238299999961,73.3334960000002,98.20507799999996,-345.5129390000002,101.15380900000036,-231.923096,-113.97436500000003
244,-49.23071300000038,-134.61547900000005,276.9228520000006,37.82031300000017,5.128418000000238,147.17968800000017,97.30761700000039,-107.82055700000001,80.12841800000024,98.3334960000002,-333.076904,101.15380900000036,-227.56420900000057,-111.92309599999999
245,-65.25634799999989,-126.92309599999999,278.5898440000001,3.077147999999397,-7.307617000000391,141.79492200000004,98.46142599999985,-103.46142599999985,79.48730499999965,92.69238299999961,-328.71801800000003,101.41015599999992,-231.15380900000036,-121.79492200000004
246,-83.33325200000036,-114.8718259999996,280.2563479999999,-24.61547900000005,-13.333252000000357,136.41015599999992,94.87158199999976,-103.58984399999963,75.64111300000059,85.0,-333.46142599999985,101.9228520000006,-238.076904,-137.179443
247,-99.23071300000038,-102.82055700000001,280.2563479999999,-42.17944299999999,-11.153809000000365,132.17968800000017,87.82031300000017,-106.92309599999999,71.79492200000004,78.46142599999985,-344.7436520000001,102.43603499999972,-245.0,-148.84619099999964
248,-112.56420900000057,-99.10253899999998,277.6923829999996,-53.71801800000003,-9.102538999999979,128.9741210000002,78.9741210000002,-112.94872999999961,67.94873000000007,73.84619099999964,-357.9487299999996,102.05126999999993,-252.179443,-151.02563499999997
249,-125.51293900000019,-108.71801800000003,273.7177729999994,-65.38452099999995,-17.948729999999614,125.51269500000035,70.76904300000024,-120.76928699999962,62.43603499999972,70.12841800000024,-367.820557,100.64111300000059,-260.7692869999996,-145.2563479999999
250,-137.6923829999996,-126.92309599999999,270.6411130000006,-80.1281740000004,-41.41015600000037,121.53857400000015,66.79492200000004,-127.17944299999999,55.64111300000059,67.05126999999993,-370.0,99.35888699999941,-268.84619099999964,-138.46142599999985
251,-145.38452099999995,-140.38452099999995,271.15380900000036,-97.17944299999999,-70.51293900000019,117.69238299999961,69.10253900000043,-127.43579099999943,52.43603499999972,66.41015599999992,-364.2307130000004,100.89746099999957,-271.53857400000015,-137.43579099999943
252,-143.71801800000003,-136.79492200000004,276.4101559999999,-112.43579099999943,-90.38452099999995,115.38476599999922,76.2822270000006,-118.84619099999964,57.94873000000007,71.15380900000036,-353.20507799999996,106.41015599999992,-264.7436520000001,-143.20507799999996
253,-132.0512700000004,-114.74365200000011,284.7436520000001,-122.30761700000039,-91.53857400000015,116.0258789999998,84.61523400000078,-103.84619099999964,72.94873000000007,82.56396500000028,-341.15380900000036,113.84619099999964,-249.4870609999998,-151.02563499999997
254,-116.41015600000037,-86.66674799999964,292.5639650000003,-127.43579099999943,-76.41015600000037,119.48730499999965,90.38476599999922,-88.97436500000003,90.89746099999957,98.84619099999964,-330.7692869999996,119.48730499999965,-231.53857400000015,-154.8718259999996
255,-107.30761700000039,-69.8718259999996,296.53857400000015,-132.820557,-57.435790999999426,123.7177729999994,91.79492200000004,-81.28198199999997,102.82031300000017,114.87158199999976,-322.820557,120.89746099999957,-218.58984399999963,-152.820557
256,-112.17944299999999,-74.23071300000038,295.12841800000024,-143.71801800000003,-48.33325200000036,126.9228520000006,90.64111300000059,-82.69238299999961,103.3334960000002,124.48730499999965,-317.820557,118.58984400000008,-216.02563499999997,-147.820557
257,-129.7436520000001,-93.58984399999963,289.87158199999976,-160.89746100000002,-54.74365200000011,128.58984400000008,90.0,-88.58984399999963,95.12841800000024,125.25634799999989,-316.15380900000036,115.89746099999957,-222.9487299999996,-143.46142599999985
258,-150.64111300000013,-109.8718259999996,285.2563479999999,-180.5129390000002,-70.51293900000019,129.3588869999994,92.94873000000007,-90.51293900000019,87.43603499999972,119.87158199999976,-316.41015600000037,116.6665039999998,-232.43579099999943,-140.76928699999962
259,-165.5129390000002,-107.30761700000039,284.48730499999965,-197.179443,-82.82055700000001,129.87158199999976,99.61523400000078,-82.82055700000001,89.61523400000078,114.10253900000043,-314.102539,121.79492200000004,-235.38452099999995,-137.820557
260,-172.179443,-84.61547900000005,287.6923829999996,-210.0,-83.58984399999963,129.48730499999965,106.9228520000006,-67.69238299999961,102.82031300000017,112.69238299999961,-305.64111300000013,128.7177729999994,-227.56420900000057,-133.97436500000003
261,-175.0,-56.153809000000365,291.4101559999999,-222.179443,-76.53857400000015,127.05126999999993,110.38476599999922,-55.0,118.58984400000008,116.53857400000015,-293.97436500000003,133.0771479999994,-213.84619099999964,-131.79492200000004
262,-179.23071300000038,-40.25634799999989,292.05126999999993,-237.820557,-73.84619099999964,122.56396500000028,107.17968800000017,-53.974365000000034,126.15380900000036,123.20507799999996,-286.79492200000004,131.6665039999998,-204.23071300000038,-134.61547900000005
263,-185.76928699999962,-44.74365200000011,288.46142599999985,-257.3076170000004,-84.74365200000011,118.20507799999996,99.35888699999941,-64.61547900000005,121.0258789999998,128.46142599999985,-289.7436520000001,125.38476599999922,-205.1281740000004,-142.179443
264,-193.33325200000036,-61.92309599999999,282.5639650000003,-277.6923829999996,-108.20507799999996,115.76904300000024,91.79492200000004,-78.46142599999985,108.3334960000002,129.10253900000043,-301.41015600000037,118.3334960000002,-214.4870609999998,-151.02563499999997
265,-203.076904,-77.43579099999943,276.9228520000006,-295.2563479999999,-134.7436520000001,115.51269500000035,87.69238299999961,-86.92309599999999,96.0258789999998,123.58984400000008,-315.2563479999999,114.35888699999941,-225.89746100000002,-157.6923829999996
266,-218.46142599999985,-82.69238299999961,272.5639650000003,-308.71801800000003,-154.23071300000038,116.0258789999998,86.2822270000006,-88.07690400000001,87.69238299999961,111.9228520000006,-325.64111300000013,113.58984400000008,-234.4870609999998,-161.66674799999964
267,-239.23071300000038,-79.35888699999987,268.9741210000002,-319.61547900000005,-161.28198199999997,116.2822270000006,84.87158199999976,-86.53857400000015,82.69238299999961,97.43603499999972,-331.02563499999997,113.58984400000008,-239.7436520000001,-164.4870609999998
268,-258.33325200000036,-74.74365200000011,265.51269500000035,-328.97436500000003,-157.0512700000004,116.79492200000004,82.94873000000007,-87.17944299999999,79.23095699999976,87.17968800000017,-331.923096,112.56396500000028,-243.076904,-166.28198199999997
269,-265.7692869999996,-72.94872999999961,261.6665039999998,-336.923096,-146.923096,119.10253900000043,82.05126999999993,-89.35888699999987,77.82031300000017,88.3334960000002,-329.35888699999987,111.79492200000004,-244.23071300000038,-166.15380900000036
270,-255.64111300000013,-71.79492200000004,258.84619099999964,-343.20507799999996,-137.3076170000004,123.84619099999964,84.61523400000078,-88.33325200000036,80.76904300000024,101.2822270000006,-324.35888699999987,113.0771479999994,-241.923096,-163.71801800000003
271,-232.0512700000004,-65.89746100000002,258.3334960000002,-348.46142599999985,-131.28198199999997,130.2563479999999,91.15380900000036,-79.35888699999987,89.74365200000011,118.9741210000002,-316.923096,116.9228520000006,-236.15380900000036,-159.23071300000038
272,-207.3076170000004,-53.07690400000001,259.7436520000001,-353.20507799999996,-128.46142599999985,135.89746099999957,99.87158199999976,-63.46142599999985,103.20507799999996,131.41015599999992,-306.66674799999964,121.53857400000015,-227.179443,-153.84619099999964
273,-195.64111300000013,-38.20507799999996,260.0,-358.58984399999963,-128.97436500000003,138.58984400000008,106.9228520000006,-48.46142599999985,115.64111300000059,133.3334960000002,-294.102539,123.9741210000002,-216.02563499999997,-149.8718259999996
274,-204.4870609999998,-30.512939000000188,256.53857400000015,-366.66674799999964,-133.46142599999985,137.43603499999972,108.20507799999996,-43.20507799999996,120.89746099999957,127.30761700000039,-282.6923829999996,122.30761700000039,-205.89746100000002,-150.38452099999995
275,-228.84619099999964,-36.92309599999999,248.9741210000002,-378.84619099999964,-142.43579099999943,134.3588869999994,103.0771479999994,-50.64111300000013,117.05126999999993,121.15380900000036,-277.0512700000004,118.46142599999985,-201.15380900000036,-155.89746100000002
276,-253.71801800000003,-53.46142599999985,241.0258789999998,-393.46142599999985,-151.923096,133.9741210000002,95.89746099999957,-63.33325200000036,109.61523400000078,121.53857400000015,-277.0512700000004,116.41015599999992,-203.97436500000003,-162.179443
277,-262.820557,-66.79492200000004,237.17968800000017,-405.5129390000002,-154.23071300000038,138.9741210000002,92.94873000000007,-68.84619099999964,107.17968800000017,130.6411130000006,-276.15380900000036,120.0,-209.7436520000001,-163.33325200000036
278,-252.179443,-64.35888699999987,239.10253900000043,-411.53857400000015,-144.35888699999987,147.82031300000017,97.69238299999961,-59.8718259999996,114.74365200000011,145.12841800000024,-266.79492200000004,128.7177729999994,-210.1281740000004,-157.3076170000004
279,-234.4870609999998,-46.92309599999999,243.46142599999985,-412.6923829999996,-127.43579099999943,154.7436520000001,106.41015599999992,-42.30761700000039,127.69238299999961,157.05126999999993,-250.64111300000013,136.9228520000006,-202.56420900000057,-149.35888699999987
280,-228.97436500000003,-28.461425999999847,245.12841800000024,-413.58984399999963,-117.56420900000057,154.48730499999965,111.41015599999992,-30.641113000000132,134.3588869999994,158.9741210000002,-240.0,138.58984400000008,-193.076904,-147.179443
281,-244.7436520000001,-22.820557000000008,241.15380900000036,-417.6923829999996,-127.82055700000001,146.15380900000036,108.3334960000002,-35.76928699999962,127.17968800000017,148.46142599999985,-247.56420900000057,131.79492200000004,-191.02563499999997,-154.35888699999987
282,-272.9487299999996,-32.30761700000039,232.94873000000007,-423.71801800000003,-157.3076170000004,135.0,100.12841800000024,-54.23071300000038,109.61523400000078,129.61523400000078,-273.20507799999996,121.15380900000036,-198.20507799999996,-166.79492200000004
283,-295.2563479999999,-47.17944299999999,225.38476599999922,-428.58984399999963,-189.61547900000005,127.17968800000017,93.9741210000002,-72.05127000000039,94.10253900000043,111.2822270000006,-302.3076170000004,113.84619099999964,-208.97436500000003,-175.64111300000013
284,-300.64111300000013,-55.89746100000002,221.9228520000006,-431.02563499999997,-203.33325200000036,125.89746099999957,94.87158199999976,-76.41015600000037,90.38476599999922,100.64111300000059,-316.79492200000004,114.48730499999965,-215.89746100000002,-175.5129390000002
285,-293.97436500000003,-54.10253899999998,222.56396500000028,-433.97436500000003,-188.076904,129.10253900000043,101.2822270000006,-65.76928699999962,97.82031300000017,99.87158199999976,-308.20507799999996,122.05126999999993,-217.179443,-167.6923829999996
286,-289.4870609999998,-44.61547900000005,224.3588869999994,-441.41015600000037,-151.923096,132.17968800000017,107.17968800000017,-48.46142599999985,107.69238299999961,105.12841800000024,-284.102539,131.2822270000006,-215.5129390000002,-159.10253899999998
287,-296.923096,-34.23071300000038,224.3588869999994,-453.84619099999964,-115.1281740000004,132.17968800000017,107.56396500000028,-35.89746100000002,111.53857400000015,112.30761700000039,-260.897461,136.53857400000015,-214.4870609999998,-155.38452099999995
288,-312.179443,-28.076904000000013,221.6665039999998,-466.02563499999997,-97.17944299999999,129.3588869999994,102.43603499999972,-32.948729999999614,108.58984400000008,119.35888699999941,-252.179443,135.76904300000024,-214.4870609999998,-157.9487299999996
289,-321.923096,-27.948729999999614,217.82031300000017,-470.64111300000013,-104.23071300000038,126.0258789999998,97.17968800000017,-37.30761700000039,104.35888699999941,126.53857400000015,-259.61547900000005,131.41015599999992,-213.58984399999963,-163.58984399999963
290,-315.5129390000002,-31.41015600000037,214.87158199999976,-465.897461,-128.076904,124.23095699999976,96.79492200000004,-42.564209000000574,104.61523400000078,133.46142599999985,-273.84619099999964,127.05126999999993,-210.1281740000004,-168.71801800000003
291,-295.5129390000002,-35.25634799999989,213.20507799999996,-458.58984399999963,-152.9487299999996,123.58984400000008,102.30761700000039,-44.23071300000038,110.12841800000024,139.23095699999976,-282.4357909999994,125.0,-203.97436500000003,-170.76928699999962
292,-276.41015600000037,-36.41015600000037,211.9228520000006,-458.58984399999963,-166.923096,122.43603499999972,109.74365200000011,-42.82055700000001,116.2822270000006,141.9228520000006,-278.84619099999964,126.0258789999998,-196.66674799999964,-169.7436520000001
293,-272.4357909999994,-34.35888699999987,209.87158199999976,-470.38452099999995,-167.0512700000004,120.51269500000035,113.9741210000002,-41.79492200000004,117.82031300000017,140.2563479999999,-266.41015600000037,128.3334960000002,-191.15380900000036,-166.66674799999964
294,-284.8718259999996,-28.974365000000034,207.56396500000028,-487.6923829999996,-156.28198199999997,119.35888699999941,113.0771479999994,-42.17944299999999,114.48730499999965,135.6411130000006,-253.20507799999996,130.2563479999999,-188.97436500000003,-162.179443
295,-300.2563479999999,-19.74365200000011,206.79492200000004,-497.5642090000006,-137.820557,121.41015599999992,110.12841800000024,-41.28198199999997,112.17968800000017,133.46142599999985,-244.35888699999987,130.76904300000024,-188.33325200000036,-155.64111300000013
296,-302.5642090000006,-6.794922000000042,208.3334960000002,-490.7692869999996,-115.76928699999962,126.9228520000006,109.48730499999965,-35.89746100000002,117.43603499999972,138.9741210000002,-238.58984399999963,131.15380900000036,-185.64111300000013,-146.79492200000004
297,-289.61547900000005,5.641113000000587,211.0258789999998,-471.923096,-97.56420900000057,132.82031300000017,112.05126999999993,-27.564209000000574,129.10253900000043,150.51269500000035,-233.076904,132.43603499999972,-180.0,-138.46142599999985
298,-275.7692869999996,10.256347999999889,212.05126999999993,-457.4357909999994,-93.07690400000001,134.48730499999965,114.61523400000078,-22.69238299999961,137.94873000000007,158.3334960000002,-228.84619099999964,134.61523400000078,-175.64111300000013,-136.28198199999997
299,-278.58984399999963,2.3076170000003913,208.9741210000002,-463.46142599999985,-107.30761700000039,129.87158199999976,113.7177729999994,-26.923095999999987,134.23095699999976,151.41015599999992,-231.02563499999997,136.41015599999992,-178.97436500000003,-144.10253899999998
300,-303.20507799999996,-15.0,202.05126999999993,-492.820557,-134.7436520000001,121.15380900000036,108.46142599999985,-39.48706099999981,116.53857400000015,128.9741210000002,-242.0512700000004,135.6411130000006,-190.76928699999962,-160.1281740000004
301,-337.5642090000006,-32.051270000000386,194.3588869999994,-531.6667479999996,-159.7436520000001,113.20507799999996,101.9228520000006,-52.69238299999961,93.84619099999964,103.0771479999994,-256.79492200000004,131.9228520000006,-204.23071300000038,-176.53857400000015
302,-362.820557,-40.0,190.0,-559.102539,-166.15380900000036,111.41015599999992,98.46142599999985,-57.82055700000001,79.61523400000078,91.41015599999992,-265.1281740000004,127.17968800000017,-209.4870609999998,-185.38452099999995
303,-366.53857400000015,-38.07690400000001,190.51269500000035,-562.9487299999996,-148.076904,116.41015599999992,100.51269500000035,-51.92309599999999,82.17968800000017,102.69238299999961,-261.41015600000037,124.23095699999976,-202.6923829999996,-183.84619099999964
304,-351.15380900000036,-31.41015600000037,194.10253900000043,-546.1538090000004,-113.84619099999964,125.12841800000024,108.0771479999994,-39.10253899999998,99.10253900000043,130.89746099999957,-248.97436500000003,125.12841800000024,-188.33325200000036,-174.8718259999996
305,-328.84619099999964,-24.230713000000378,197.56396500000028,-523.076904,-79.48706099999981,132.6923829999996,118.58984400000008,-24.61547900000005,121.41015599999992,160.0,-236.28198199999997,129.87158199999976,-174.8718259999996,-162.9487299999996
306,-312.6923829999996,-16.41015600000037,197.94873000000007,-508.20507799999996,-57.69238299999961,136.6665039999998,128.46142599999985,-11.794922000000042,140.0,176.15380900000036,-229.23071300000038,136.2822270000006,-167.6923829999996,-151.41015600000037
307,-308.71801800000003,-7.179442999999992,194.48730499999965,-507.3076170000004,-51.79492200000004,137.17968800000017,134.10253900000043,-2.5639650000002803,149.48730499999965,176.0258789999998,-227.6923829999996,140.76904300000024,-168.076904,-142.9487299999996
308,-315.1281740000004,1.6665039999998044,188.7177729999994,-516.6667479999996,-56.53857400000015,135.89746099999957,134.23095699999976,0.6411130000005869,148.58984400000008,165.38476599999922,-227.43579099999943,140.51269500000035,-173.46142599999985,-140.2563479999999
309,-324.8718259999996,6.282227000000603,182.94873000000007,-528.076904,-63.58984399999963,133.84619099999964,129.61523400000078,-2.4360349999997197,140.76904300000024,153.0771479999994,-224.23071300000038,136.15380900000036,-178.84619099999964,-144.7436520000001
310,-332.179443,4.871581999999762,179.3588869999994,-534.8718259999996,-66.66674799999964,131.15380900000036,123.3334960000002,-9.102538999999979,132.17968800000017,145.51269500000035,-217.43579099999943,131.79492200000004,-179.10253899999998,-153.97436500000003
311,-335.897461,-0.769043000000238,178.84619099999964,-536.5385740000002,-64.8718259999996,127.69238299999961,117.94873000000007,-14.743652000000111,127.43603499999972,143.7177729999994,-210.1281740000004,130.89746099999957,-173.33325200000036,-162.9487299999996
312,-339.7436520000001,-7.435790999999426,179.7436520000001,-537.179443,-63.71801800000003,123.20507799999996,114.74365200000011,-16.41015600000037,126.79492200000004,143.58984400000008,-207.179443,133.3334960000002,-166.41015600000037,-167.179443
313,-347.820557,-13.58984399999963,179.3588869999994,-542.6923829999996,-70.0,118.3334960000002,112.69238299999961,-15.256347999999889,125.0,138.7177729999994,-211.923096,135.6411130000006,-166.66674799999964,-166.79492200000004
314,-360.0,-18.71801800000003,176.2822270000006,-555.384521,-85.76928699999962,114.48730499999965,109.74365200000011,-15.0,117.43603499999972,125.76904300000024,-223.58984399999963,134.23095699999976,-177.820557,-165.5129390000002
315,-372.0512700000004,-22.435790999999426,171.15380900000036,-571.5385740000002,-104.61547900000005,113.20507799999996,105.64111300000059,-17.820557000000008,104.87158199999976,109.48730499999965,-237.0512700000004,129.10253900000043,-195.64111300000013,-167.6923829999996
316,-378.71801800000003,-23.974365000000034,166.79492200000004,-583.718018,-114.35888699999987,115.25634799999989,102.43603499999972,-22.30761700000039,94.48730499999965,100.25634799999989,-245.64111300000013,123.3334960000002,-210.38452099999995,-174.10253899999998
317,-378.33325200000036,-23.846190999999635,164.7436520000001,-585.897461,-106.02563499999997,118.84619099999964,102.05126999999993,-25.641113000000132,93.46142599999985,105.51269500000035,-244.7436520000001,120.64111300000059,-213.84619099999964,-181.66674799999964
318,-373.84619099999964,-23.333252000000357,165.0,-578.205078,-80.76928699999962,120.76904300000024,104.35888699999941,-25.38452099999995,103.0771479999994,123.20507799999996,-234.7436520000001,122.69238299999961,-204.8718259999996,-186.15380900000036
319,-369.102539,-21.666747999999643,165.89746099999957,-565.7692869999996,-50.51293900000019,119.61523400000078,107.43603499999972,-21.538574000000153,117.30761700000039,142.94873000000007,-220.38452099999995,127.94873000000007,-188.84619099999964,-184.8718259999996
320,-365.897461,-16.28198199999997,166.41015599999992,-555.2563479999999,-30.25634799999989,117.94873000000007,110.12841800000024,-14.743652000000111,128.9741210000002,154.3588869999994,-207.820557,133.46142599999985,-174.10253899999998,-177.43579099999943
321,-363.71801800000003,-6.281981999999971,166.6665039999998,-550.0,-29.10253899999998,118.58984400000008,113.3334960000002,-6.538574000000153,134.7436520000001,154.3588869999994,-201.66674799999964,136.53857400000015,-166.79492200000004,-166.41015600000037
322,-360.897461,5.769043000000238,167.43603499999972,-549.7436520000001,-43.846190999999635,122.30761700000039,119.10253900000043,0.769043000000238,136.53857400000015,148.58984400000008,-202.820557,136.53857400000015,-167.56420900000057,-155.76928699999962
323,-357.179443,15.769043000000238,169.10253900000043,-552.6923829999996,-62.17944299999999,126.6665039999998,126.41015599999992,4.6152340000007825,137.43603499999972,145.76904300000024,-207.9487299999996,134.7436520000001,-172.43579099999943,-149.23071300000038
324,-353.97436500000003,21.410155999999915,170.89746099999957,-557.3076170000004,-71.15380900000036,128.58984400000008,131.2822270000006,3.5898440000000846,138.0771479999994,150.2563479999999,-212.0512700000004,133.46142599999985,-176.28198199999997,-147.820557
325,-355.0,22.94873000000007,171.2822270000006,-562.4357909999994,-66.15380900000036,127.56396500000028,129.61523400000078,-2.1796869999998307,136.15380900000036,158.20507799999996,-210.89746100000002,133.84619099999964,-176.41015600000037,-151.02563499999997
326,-363.33325200000036,21.153809000000365,169.10253900000043,-568.076904,-54.74365200000011,125.38476599999922,120.25634799999989,-10.1281740000004,129.87158199999976,160.6411130000006,-205.1281740000004,135.12841800000024,-173.58984399999963,-157.9487299999996
327,-376.79492200000004,15.769043000000238,165.12841800000024,-575.2563479999999,-49.61547900000005,123.9741210000002,107.56396500000028,-16.538574000000153,120.12841800000024,151.2822270000006,-200.0,134.61523400000078,-171.41015600000037,-168.076904
328,-388.20507799999996,7.051269999999931,160.38476599999922,-583.076904,-57.69238299999961,123.84619099999964,98.3334960000002,-17.820557000000008,111.53857400000015,133.46142599999985,-200.1281740000004,130.76904300000024,-173.076904,-178.84619099999964
329,-390.5129390000002,-2.0512699999999313,156.41015599999992,-589.3588869999999,-74.61547900000005,123.46142599999985,96.9228520000006,-12.692382999999609,108.84619099999964,117.82031300000017,-205.5129390000002,125.12841800000024,-178.84619099999964,-186.41015600000037
330,-384.102539,-7.435790999999426,152.94873000000007,-592.6923829999996,-90.38452099999995,121.0258789999998,101.15380900000036,-5.128174000000399,112.30761700000039,112.05126999999993,-213.076904,120.25634799999989,-187.179443,-188.71801800000003
331,-377.3076170000004,-7.820557000000008,149.48730499999965,-594.8718259999996,-97.94872999999961,116.2822270000006,104.48730499999965,-2.5639650000002803,116.0258789999998,114.74365200000011,-220.89746100000002,117.82031300000017,-196.15380900000036,-188.33325200000036
332,-377.820557,-5.38452099999995,146.9228520000006,-596.923096,-95.51293900000019,111.6665039999998,102.56396500000028,-7.820557000000008,114.74365200000011,118.58984400000008,-227.3076170000004,118.20507799999996,-202.9487299999996,-187.9487299999996
333,-383.076904,-1.0258789999998044,147.17968800000017,-596.1538090000004,-82.56420900000057,110.89746099999957,98.58984400000008,-14.102538999999979,112.05126999999993,121.6665039999998,-227.6923829999996,122.05126999999993,-201.66674799999964,-186.15380900000036
334,-382.6923829999996,6.666503999999804,151.53857400000015,-586.794922,-59.48706099999981,116.79492200000004,100.89746099999957,-9.743652000000111,118.46142599999985,130.76904300000024,-216.02563499999997,129.61523400000078,-186.79492200000004,-179.10253899999998
335,-370.38452099999995,18.205077999999958,159.23095699999976,-568.5898439999996,-33.33325200000036,127.43603499999972,113.84619099999964,9.871581999999762,139.23095699999976,152.3076170000004,-191.79492200000004,139.48730499999965,-161.28198199999997,-166.02563499999997
336,-350.7692869999996,28.717772999999397,166.2822270000006,-550.5129390000002,-17.30761700000039,137.17968800000017,132.17968800000017,35.0,165.2563479999999,180.12841800000024,-164.23071300000038,147.6923829999996,-137.0512700000004,-152.820557
337,-337.3076170000004,31.538574000000153,167.94873000000007,-546.1538090000004,-23.205077999999958,140.51269500000035,143.84619099999964,48.589844000000085,178.20507799999996,197.3076170000004,-148.58984399999963,150.38476599999922,-129.23071300000038,-148.33325200000036
338,-341.66674799999964,23.077147999999397,161.53857400000015,-562.4357909999994,-50.89746100000002,136.41015599999992,139.3588869999994,39.48730499999965,165.38476599999922,188.84619099999964,-155.2563479999999,146.2822270000006,-145.38452099999995,-157.6923829999996
339,-363.20507799999996,7.948730000000069,149.3588869999994,-592.0512700000004,-86.53857400000015,128.46142599999985,120.25634799999989,12.17968800000017,131.2822270000006,155.76904300000024,-181.41015600000037,137.56396500000028,-179.35888699999987,-177.179443
340,-388.84619099999964,-5.0,138.0771479999994,-617.179443,-109.61547900000005,121.79492200000004,99.87158199999976,-16.025634999999966,96.2822270000006,117.56396500000028,-212.56420900000057,128.9741210000002,-213.20507799999996,-195.89746100000002
341,-401.66674799999964,-7.820557000000008,132.94873000000007,-621.281982,-107.30761700000039,118.7177729999994,93.20507799999996,-27.564209000000574,81.15380900000036,97.43603499999972,-230.76928699999962,125.25634799999989,-228.20507799999996,-202.56420900000057
342,-394.2307130000004,1.2822270000006029,135.51269500000035,-602.6923829999996,-82.94872999999961,118.3334960000002,105.12841800000024,-17.435790999999426,92.56396500000028,104.35888699999941,-228.33325200000036,127.82031300000017,-217.43579099999943,-193.97436500000003
343,-375.7692869999996,16.410155999999915,141.79492200000004,-576.281982,-53.974365000000034,118.84619099999964,125.89746099999957,3.5898440000000846,117.56396500000028,126.79492200000004,-212.0512700000004,133.3334960000002,-191.66674799999964,-178.46142599999985
344,-364.8718259999996,28.077147999999397,146.2822270000006,-562.820557,-39.23071300000038,119.48730499999965,139.48730499999965,18.077147999999397,135.12841800000024,143.7177729999994,-198.58984399999963,136.15380900000036,-171.15380900000036,-169.8718259999996
345,-373.71801800000003,28.974121000000196,145.12841800000024,-572.0512700000004,-45.64111300000013,119.61523400000078,135.76904300000024,15.0,131.41015599999992,140.51269500000035,-200.2563479999999,133.20507799999996,-170.2563479999999,-176.28198199999997
346,-396.923096,19.102539000000434,139.23095699999976,-595.7692869999996,-64.8718259999996,118.46142599999985,118.20507799999996,-1.9228520000006029,110.25634799999989,119.10253900000043,-215.2563479999999,126.0258789999998,-186.923096,-193.46142599999985
347,-416.02563499999997,5.641113000000587,132.6923829999996,-615.384521,-81.66674799999964,115.76904300000024,99.74365200000011,-18.58984399999963,88.0771479999994,95.0,-230.64111300000013,120.12841800000024,-206.15380900000036,-208.46142599999985
348,-415.38452099999995,-2.4360349999997197,129.3588869999994,-617.6923829999996,-85.64111300000013,111.79492200000004,92.43603499999972,-22.820557000000008,80.0,84.74365200000011,-232.6923829999996,119.87158199999976,-213.46142599999985,-210.0
349,-395.38452099999995,-1.7949220000000423,129.87158199999976,-605.384521,-78.97436500000003,107.43603499999972,98.58984400000008,-13.71801800000003,88.7177729999994,94.35888699999941,-218.58984399999963,125.25634799999989,-206.41015600000037,-197.6923829999996
350,-370.5129390000002,3.9741210000001956,131.79492200000004,-592.4357909999994,-72.69238299999961,103.46142599999985,110.76904300000024,-0.6411130000005869,104.87158199999976,116.53857400000015,-197.0512700000004,131.53857400000015,-194.4870609999998,-181.28198199999997
351,-356.28198199999997,8.589844000000085,132.56396500000028,-590.384521,-75.25634799999989,100.12841800000024,118.84619099999964,6.410155999999915,116.41015599999992,137.82031300000017,-181.28198199999997,134.23095699999976,-188.58984399999963,-171.66674799999964
352,-356.79492200000004,9.743652000000111,132.05126999999993,-596.923096,-83.84619099999964,98.20507799999996,118.9741210000002,5.512695000000349,119.23095699999976,149.87158199999976,-177.56420900000057,132.82031300000017,-190.2563479999999,-170.5129390000002
353,-364.102539,10.769043000000238,131.79492200000004,-600.0,-87.30761700000039,98.7177729999994,115.25634799999989,3.846190999999635,118.7177729999994,152.82031300000017,-181.53857400000015,130.6411130000006,-191.28198199999997,-171.923096
354,-368.46142599999985,15.384765999999217,132.6923829999996,-591.281982,-79.48706099999981,101.41015599999992,114.10253900000043,8.461425999999847,122.05126999999993,150.51269500000035,-184.61547900000005,130.89746099999957,-183.58984399999963,-169.8718259999996
355,-367.5642090000006,22.43603499999972,133.20507799999996,-575.897461,-66.66674799999964,103.58984400000008,116.9228520000006,19.230956999999762,129.61523400000078,144.61523400000078,-181.79492200000004,133.20507799999996,-169.4870609999998,-165.38452099999995
356,-366.923096,25.769043000000238,131.15380900000036,-566.923096,-61.025634999999966,102.56396500000028,120.51269500000035,28.589844000000085,136.0258789999998,136.79492200000004,-175.2563479999999,135.12841800000024,-158.84619099999964,-163.46142599999985
357,-372.3076170000004,22.56396500000028,126.41015599999992,-571.794922,-66.53857400000015,98.7177729999994,121.0258789999998,29.871581999999762,136.79492200000004,130.89746099999957,-170.5129390000002,134.3588869999994,-159.4870609999998,-166.28198199999997
358,-384.102539,16.666503999999804,121.15380900000036,-584.615479,-75.25634799999989,95.0,117.30761700000039,22.56396500000028,132.94873000000007,131.41015599999992,-170.89746100000002,131.2822270000006,-169.23071300000038,-170.38452099999995
359,-395.38452099999995,15.384765999999217,118.9741210000002,-591.4101560000004,-75.89746100000002,93.46142599999985,111.53857400000015,13.461425999999847,128.7177729999994,138.0771479999994,-174.4870609999998,127.94873000000007,-177.56420900000057,-169.8718259999996
360,-397.5642090000006,23.461425999999847,121.15380900000036,-582.5642090000006,-65.89746100000002,93.9741210000002,107.43603499999972,10.512695000000349,128.20507799999996,145.0,-175.76928699999962,127.05126999999993,-174.35888699999987,-162.3076170000004
361,-386.923096,38.0771479999994,125.25634799999989,-562.4357909999994,-54.23071300000038,94.87158199999976,106.9228520000006,16.410155999999915,132.17968800000017,146.6665039999998,-170.64111300000013,129.3588869999994,-159.35888699999987,-151.923096
362,-368.46142599999985,50.25634799999989,126.79492200000004,-545.897461,-52.948729999999614,95.51269500000035,109.48730499999965,26.410155999999915,137.17968800000017,142.82031300000017,-161.02563499999997,132.94873000000007,-143.20507799999996,-147.0512700000004
363,-353.84619099999964,51.9228520000006,123.3334960000002,-545.5129390000002,-66.41015600000037,95.89746099999957,111.6665039999998,31.538574000000153,138.20507799999996,137.94873000000007,-153.58984399999963,135.2563479999999,-138.71801800000003,-153.076904
364,-351.923096,41.666503999999804,116.79492200000004,-561.4101560000004,-87.30761700000039,96.41015599999992,111.41015599999992,26.666503999999804,131.9228520000006,135.89746099999957,-154.61547900000005,134.87158199999976,-149.10253899999998,-167.6923829999996
365,-362.5642090000006,25.769043000000238,111.79492200000004,-581.5385740000002,-101.92309599999999,96.79492200000004,108.58984400000008,14.487304999999651,120.38476599999922,137.17968800000017,-163.58984399999963,132.56396500000028,-166.41015600000037,-182.0512700000004
366,-376.66674799999964,14.615234000000783,111.41015599999992,-592.6923829999996,-101.28198199999997,96.6665039999998,104.87158199999976,3.077147999999397,108.7177729999994,139.10253900000043,-173.71801800000003,130.12841800000024,-178.71801800000003,-187.179443
367,-383.076904,14.743652000000111,114.87158199999976,-590.0,-87.69238299999961,95.89746099999957,102.17968800000017,-0.256347999999889,102.17968800000017,138.9741210000002,-177.43579099999943,129.3588869999994,-180.5129390000002,-180.1281740000004
368,-376.66674799999964,25.51269500000035,118.58984400000008,-578.205078,-71.15380900000036,95.25634799999989,102.17968800000017,5.897460999999566,102.43603499999972,137.17968800000017,-172.179443,130.76904300000024,-174.10253899999998,-165.5129390000002
369,-360.2563479999999,39.74365200000011,119.87158199999976,-566.025635,-61.66674799999964,95.64111300000059,105.64111300000059,17.56396500000028,107.94873000000007,136.2822270000006,-161.15380900000036,133.9741210000002,-165.38452099999995,-151.15380900000036
370,-343.076904,48.333496000000196,118.84619099999964,-558.974365,-62.051270000000386,97.17968800000017,111.6665039999998,27.94873000000007,115.0,137.82031300000017,-151.53857400000015,137.6923829999996,-158.71801800000003,-144.10253899999998
371,-335.0,45.76904300000024,116.9228520000006,-557.3076170000004,-67.56420900000057,98.84619099999964,117.17968800000017,31.666503999999804,119.35888699999941,140.0,-149.4870609999998,140.38476599999922,-154.8718259999996,-146.66674799999964
372,-339.8718259999996,34.48730499999965,115.89746099999957,-557.820557,-70.0,99.87158199999976,119.35888699999941,28.077147999999397,118.9741210000002,140.2563479999999,-155.0,140.38476599999922,-152.0512700000004,-155.76928699999962
373,-353.076904,23.461425999999847,115.64111300000059,-558.076904,-64.8718259999996,99.74365200000011,118.20507799999996,22.05126999999993,115.76904300000024,137.17968800000017,-162.179443,138.0771479999994,-148.20507799999996,-164.61547900000005
374,-365.5129390000002,21.282227000000603,114.74365200000011,-557.5642090000006,-55.1281740000004,99.10253900000043,116.15380900000036,19.230956999999762,113.58984400000008,131.9228520000006,-164.10253899999998,134.61523400000078,-144.10253899999998,-167.43579099999943
375,-371.15380900000036,29.615234000000783,111.53857400000015,-557.3076170000004,-48.71801800000003,98.58984400000008,115.0,21.153809000000365,114.48730499999965,127.17968800000017,-159.8718259999996,131.53857400000015,-143.58984399999963,-163.076904
376,-371.15380900000036,41.9228520000006,106.6665039999998,-559.102539,-51.53857400000015,98.84619099999964,114.61523400000078,24.358886999999413,117.17968800000017,125.38476599999922,-155.0,128.84619099999964,-150.76928699999962,-156.28198199999997
377,-370.0,48.589844000000085,102.05126999999993,-563.205078,-62.30761700000039,99.61523400000078,112.56396500000028,24.358886999999413,117.82031300000017,126.9228520000006,-155.76928699999962,127.17968800000017,-165.89746100000002,-153.46142599999985
378,-370.2563479999999,44.23095699999976,99.35888699999941,-568.5898439999996,-75.0,99.48730499999965,107.30761700000039,19.48730499999965,114.10253900000043,129.7436520000001,-163.076904,126.79492200000004,-183.84619099999964,-158.58984399999963
379,-370.5129390000002,31.282227000000603,98.7177729999994,-572.5642090000006,-83.33325200000036,98.46142599999985,100.0,12.307617000000391,107.17968800000017,131.6665039999998,-171.41015600000037,127.94873000000007,-195.76928699999962,-169.61547900000005
380,-368.71801800000003,18.589844000000085,99.23095699999976,-572.4357909999994,-84.10253899999998,97.56396500000028,94.48730499999965,7.56396500000028,101.15380900000036,133.0771479999994,-173.58984399999963,129.87158199999976,-194.10253899999998,-179.7436520000001
381,-364.35888699999987,15.769043000000238,99.48730499999965,-567.0512700000004,-76.41015600000037,99.23095699999976,94.74365200000011,8.333496000000196,101.0258789999998,136.79492200000004,-165.89746100000002,131.15380900000036,-176.79492200000004,-181.66674799999964
382,-358.71801800000003,26.922852000000603,99.87158199999976,-557.179443,-61.53857400000015,103.9741210000002,101.41015599999992,15.0,108.7177729999994,144.7436520000001,-149.8718259999996,131.53857400000015,-148.97436500000003,-173.076904
383,-352.820557,47.56396500000028,100.89746099999957,-545.6411130000001,-43.974365000000034,109.74365200000011,111.53857400000015,25.769043000000238,121.53857400000015,154.48730499999965,-130.64111300000013,132.17968800000017,-120.64111300000013,-157.9487299999996
