,EEG.AF3,EEG.F7,EEG.F3,EEG.FC5,EEG.T7,EEG.P7,EEG.O1,EEG.O2,EEG.P8,EEG.T8,EEG.FC6,EEG.F4,EEG.F8,EEG.AF4
0,167.56396500000028,175.76904300000024,160.76904300000024,182.3076170000004,158.9741210000002,118.20507799999996,146.41015599999992,133.9741210000002,135.38476599999922,136.0258789999998,97.94873000000007,131.6665039999998,20.0,146.6665039999998
1,167.94873000000007,172.94873000000007,157.3076170000004,174.23095699999976,155.89746099999957,115.64111300000059,143.0771479999994,135.6411130000006,137.43603499999972,144.3588869999994,104.48730499999965,132.17968800000017,30.769043000000238,149.23095699999976
2,167.17968800000017,167.6923829999996,150.2563479999999,170.0,152.56396500000028,116.53857400000015,137.94873000000007,136.2822270000006,135.89746099999957,150.2563479999999,112.05126999999993,133.0771479999994,40.38476599999922,149.23095699999976
3,163.20507799999996,160.0,142.05126999999993,168.0771479999994,148.46142599999985,118.84619099999964,132.56396500000028,135.0,132.82031300000017,150.89746099999957,116.9228520000006,133.46142599999985,46.53857400000015,146.0258789999998
4,156.9228520000006,151.9228520000006,135.51269500000035,166.6665039999998,143.9741210000002,120.64111300000059,128.84619099999964,132.43603499999972,130.89746099999957,147.3076170000004,117.69238299999961,132.94873000000007,49.48730499999965,142.17968800000017
5,151.53857400000015,146.6665039999998,133.20507799999996,164.7436520000001,140.0,120.51269500000035,129.10253900000043,131.53857400000015,131.6665039999998,142.43603499999972,116.79492200000004,131.9228520000006,52.56396500000028,140.51269500000035
6,150.2563479999999,146.0258789999998,135.51269500000035,162.82031300000017,137.56396500000028,119.23095699999976,134.61523400000078,134.3588869999994,134.3588869999994,138.3334960000002,117.30761700000039,131.2822270000006,58.7177729999994,142.17968800000017
7,153.9741210000002,149.23095699999976,140.51269500000035,162.3076170000004,137.43603499999972,118.84619099999964,143.0771479999994,139.61523400000078,136.41015599999992,136.53857400000015,120.89746099999957,132.17968800000017,67.94873000000007,146.2822270000006
8,160.38476599999922,153.58984400000008,144.87158199999976,164.3588869999994,139.87158199999976,120.38476599999922,149.7436520000001,143.84619099999964,136.2822270000006,138.3334960000002,126.9228520000006,134.61523400000078,77.43603499999972,150.2563479999999
9,165.89746099999957,155.89746099999957,145.89746099999957,168.84619099999964,143.9741210000002,123.0771479999994,150.38476599999922,144.23095699999976,134.61523400000078,144.23095699999976,133.7177729999994,137.56396500000028,85.0,152.82031300000017
10,167.6923829999996,155.38476599999922,142.94873000000007,174.7436520000001,147.05126999999993,124.74365200000011,144.48730499999965,140.6411130000006,133.58984400000008,151.79492200000004,139.48730499999965,139.10253900000043,89.74365200000011,153.84619099999964
11,165.51269500000035,153.0771479999994,137.82031300000017,180.38476599999922,146.79492200000004,123.7177729999994,135.6411130000006,135.76904300000024,133.84619099999964,155.6411130000006,143.58984400000008,138.0771479999994,92.56396500000028,154.3588869999994
12,162.17968800000017,150.38476599999922,133.46142599999985,185.12841800000024,142.94873000000007,120.51269500000035,128.9741210000002,132.3076170000004,134.61523400000078,152.43603499999972,145.76904300000024,135.12841800000024,94.61523400000078,155.0
13,160.76904300000024,148.20507799999996,131.79492200000004,189.10253900000043,137.56396500000028,117.56396500000028,127.82031300000017,130.76904300000024,133.7177729999994,145.0,146.9228520000006,131.9228520000006,97.69238299999961,156.15380900000036
14,162.6923829999996,146.0258789999998,132.43603499999972,192.6923829999996,133.20507799999996,117.05126999999993,130.89746099999957,129.48730499999965,129.48730499999965,140.6411130000006,147.56396500000028,129.87158199999976,101.9228520000006,157.6923829999996
15,167.05126999999993,143.7177729999994,133.20507799999996,196.2822270000006,130.89746099999957,118.46142599999985,133.84619099999964,125.76904300000024,122.82031300000017,144.87158199999976,148.0771479999994,129.10253900000043,106.41015599999992,158.7177729999994
16,172.3076170000004,141.6665039999998,132.6923829999996,201.6665039999998,130.12841800000024,120.0,133.46142599999985,120.0,116.2822270000006,157.43603499999972,149.61523400000078,129.48730499999965,110.64111300000059,160.12841800000024
17,178.9741210000002,142.05126999999993,132.43603499999972,211.0258789999998,130.12841800000024,120.25634799999989,130.76904300000024,115.25634799999989,112.94873000000007,172.05126999999993,153.46142599999985,131.0258789999998,116.53857400000015,164.48730499999965
18,188.20507799999996,145.76904300000024,135.89746099999957,224.87158199999976,130.6411130000006,118.9741210000002,129.61523400000078,115.89746099999957,114.74365200000011,182.17968800000017,160.6411130000006,134.3588869999994,127.30761700000039,174.23095699999976
19,199.61523400000078,150.38476599999922,144.10253900000043,239.3588869999994,131.2822270000006,117.30761700000039,131.53857400000015,123.3334960000002,121.15380900000036,184.48730499999965,170.2563479999999,139.10253900000043,143.58984400000008,188.58984400000008
20,210.76904300000024,152.3076170000004,154.7436520000001,249.48730499999965,131.79492200000004,116.15380900000036,134.48730499999965,134.48730499999965,129.87158199999976,181.0258789999998,179.7436520000001,143.84619099999964,162.43603499999972,203.7177729999994
21,218.3334960000002,149.48730499999965,162.6923829999996,252.6923829999996,131.2822270000006,116.15380900000036,134.48730499999965,143.46142599999985,137.43603499999972,177.43603499999972,186.0258789999998,146.41015599999992,177.82031300000017,214.87158199999976
22,220.89746099999957,143.9741210000002,164.10253900000043,251.41015599999992,128.9741210000002,117.05126999999993,130.2563479999999,146.0258789999998,140.76904300000024,177.6923829999996,186.9228520000006,145.38476599999922,185.0,218.7177729999994
23,219.61523400000078,140.89746099999957,159.10253900000043,251.15380900000036,124.35888699999941,117.69238299999961,123.7177729999994,141.6665039999998,137.82031300000017,181.9228520000006,181.15380900000036,140.76904300000024,182.43603499999972,215.6411130000006
24,218.20507799999996,145.76904300000024,151.53857400000015,257.3076170000004,117.56396500000028,117.30761700000039,119.10253900000043,133.58984400000008,129.48730499999965,185.76904300000024,169.87158199999976,134.87158199999976,173.3334960000002,210.0
25,219.7436520000001,161.0258789999998,145.89746099999957,270.6411130000006,110.0,116.53857400000015,118.3334960000002,125.89746099999957,117.94873000000007,183.46142599999985,156.15380900000036,130.6411130000006,162.3076170000004,207.17968800000017
26,225.2563479999999,184.48730499999965,145.0,287.3076170000004,104.74365200000011,116.0258789999998,120.38476599999922,120.89746099999957,107.05126999999993,172.56396500000028,143.9741210000002,129.7436520000001,152.3076170000004,210.12841800000024
27,233.0771479999994,210.2563479999999,148.7177729999994,301.4101559999999,105.51269500000035,116.0258789999998,122.43603499999972,118.20507799999996,99.48730499999965,156.6665039999998,136.15380900000036,131.79492200000004,142.94873000000007,217.6923829999996
28,240.51269500000035,231.9228520000006,155.0,309.87158199999976,113.3334960000002,116.15380900000036,122.30761700000039,116.79492200000004,96.6665039999998,143.58984400000008,132.94873000000007,135.0,132.6923829999996,226.41015599999992
29,246.15380900000036,245.89746099999957,160.89746099999957,313.46142599999985,125.0,116.41015599999992,120.12841800000024,115.38476599999922,97.43603499999972,139.3588869999994,132.17968800000017,137.6923829999996,120.12841800000024,233.20507799999996
30,249.23095699999976,253.0771479999994,164.10253900000043,316.0258789999998,134.10253900000043,116.6665039999998,116.6665039999998,112.69238299999961,98.7177729999994,144.3588869999994,130.6411130000006,138.7177729999994,105.38476599999922,236.0258789999998
31,249.7436520000001,257.4360349999997,163.20507799999996,320.3847659999992,135.0,116.6665039999998,112.82031300000017,108.3334960000002,97.30761700000039,152.56396500000028,126.53857400000015,137.43603499999972,90.38476599999922,233.9741210000002
32,248.20507799999996,263.9741210000002,158.84619099999964,326.79492200000004,127.56396500000028,116.0258789999998,109.48730499999965,103.0771479999994,92.69238299999961,157.17968800000017,119.87158199999976,134.61523400000078,76.79492200000004,228.84619099999964
33,246.6665039999998,275.2563479999999,153.46142599999985,333.46142599999985,118.84619099999964,115.12841800000024,107.69238299999961,98.7177729999994,87.30761700000039,156.15380900000036,112.94873000000007,131.79492200000004,65.76904300000024,223.46142599999985
34,247.3076170000004,290.0,149.87158199999976,337.82031300000017,117.43603499999972,114.87158199999976,108.20507799999996,97.17968800000017,83.84619099999964,151.0258789999998,107.05126999999993,130.38476599999922,55.64111300000059,220.38476599999922
35,248.9741210000002,303.46142599999985,149.10253900000043,337.4360349999997,126.2822270000006,115.38476599999922,110.89746099999957,97.69238299999961,81.9228520000006,144.3588869999994,101.2822270000006,130.76904300000024,43.20507799999996,219.10253900000043
36,248.58984400000008,310.2563479999999,150.12841800000024,331.4101559999999,140.0,116.2822270000006,114.23095699999976,98.20507799999996,79.23095699999976,136.53857400000015,93.58984400000008,131.6665039999998,26.922852000000603,216.41015599999992
37,243.58984400000008,309.23095699999976,151.2822270000006,320.51269500000035,149.61523400000078,116.6665039999998,116.53857400000015,97.43603499999972,74.61523400000078,127.43603499999972,83.84619099999964,131.0258789999998,8.461425999999847,209.87158199999976
38,234.7436520000001,304.48730499999965,151.6665039999998,308.5898440000001,149.87158199999976,116.6665039999998,117.17968800000017,95.89746099999957,70.25634799999989,117.94873000000007,74.23095699999976,128.0771479999994,-8.333252000000357,200.12841800000024
39,225.76904300000024,302.82031300000017,151.6665039999998,300.12841800000024,143.3334960000002,116.79492200000004,116.6665039999998,95.89746099999957,69.74365200000011,109.87158199999976,67.17968800000017,123.7177729999994,-20.641113000000132,190.51269500000035
40,219.61523400000078,307.3076170000004,151.0258789999998,296.79492200000004,137.56396500000028,117.05126999999993,116.6665039999998,98.46142599999985,73.84619099999964,104.23095699999976,62.05126999999993,120.12841800000024,-28.846190999999635,184.10253900000043
41,215.38476599999922,314.23095699999976,148.9741210000002,295.76904300000024,137.82031300000017,117.30761700000039,117.43603499999972,101.53857400000015,79.10253900000043,100.12841800000024,55.38476599999922,118.46142599999985,-36.92309599999999,179.87158199999976
42,208.58984400000008,315.89746099999957,143.7177729999994,290.76904300000024,142.43603499999972,116.6665039999998,117.17968800000017,100.89746099999957,80.12841800000024,95.12841800000024,43.7177729999994,117.69238299999961,-49.35888699999987,173.7177729999994
43,195.76904300000024,308.46142599999985,134.61523400000078,277.6923829999996,146.53857400000015,114.74365200000011,113.7177729999994,94.48730499999965,74.74365200000011,87.82031300000017,28.589844000000085,116.0258789999998,-66.66674799999964,162.17968800000017
44,178.46142599999985,296.4101559999999,124.48730499999965,258.5898440000001,147.17968800000017,112.82031300000017,107.69238299999961,85.25634799999989,66.2822270000006,80.76904300000024,15.769043000000238,112.94873000000007,-84.74365200000011,146.41015599999992
45,162.43603499999972,288.46142599999985,117.43603499999972,239.87158199999976,145.89746099999957,111.9228520000006,102.69238299999961,79.35888699999941,61.410155999999915,78.3334960000002,11.153809000000365,109.87158199999976,-97.56420900000057,131.41015599999992
46,151.9228520000006,289.48730499999965,115.76904300000024,226.15380900000036,144.3588869999994,112.69238299999961,102.05126999999993,80.89746099999957,63.974121000000196,81.79492200000004,14.358886999999413,108.3334960000002,-103.07690400000001,121.9228520000006
47,145.89746099999957,295.51269500000035,117.43603499999972,216.79492200000004,142.05126999999993,114.61523400000078,106.0258789999998,87.05126999999993,71.6665039999998,85.64111300000059,19.230956999999762,108.0771479999994,-105.0,118.46142599999985
48,139.23095699999976,297.5639650000003,117.17968800000017,206.53857400000015,136.0258789999998,116.2822270000006,110.51269500000035,90.12841800000024,77.82031300000017,81.41015599999992,17.82031300000017,107.69238299999961,-109.35888699999987,116.6665039999998
49,127.43603499999972,289.87158199999976,110.64111300000059,189.61523400000078,125.12841800000024,116.79492200000004,111.15380900000036,84.61523400000078,76.2822270000006,64.87158199999976,7.948730000000069,105.51269500000035,-118.71801800000003,110.89746099999957
50,110.25634799999989,275.0,98.9741210000002,165.51269500000035,112.69238299999961,115.64111300000059,107.05126999999993,71.53857400000015,66.41015599999992,40.38476599999922,-6.41015600000037,101.79492200000004,-130.76928699999962,98.84619099999964
51,92.30761700000039,261.6665039999998,87.69238299999961,139.10253900000043,105.89746099999957,113.9741210000002,101.79492200000004,58.333496000000196,53.333496000000196,17.82031300000017,-17.564209000000574,98.0771479999994,-139.4870609999998,83.46142599999985
52,80.12841800000024,257.4360349999997,82.43603499999972,117.05126999999993,110.76904300000024,113.58984400000008,99.23095699999976,52.82031300000017,44.87158199999976,5.769043000000238,-20.25634799999989,96.0258789999998,-139.4870609999998,71.0258789999998
53,76.15380900000036,262.82031300000017,83.58984400000008,101.9228520000006,126.15380900000036,115.38476599999922,100.64111300000059,56.9228520000006,45.51269500000035,4.871581999999762,-15.512939000000188,95.89746099999957,-130.64111300000013,66.15380900000036
54,76.41015599999992,271.0258789999998,86.79492200000004,90.25634799999989,141.6665039999998,117.43603499999972,103.46142599999985,65.64111300000059,53.20507799999996,7.948730000000069,-9.61547900000005,95.51269500000035,-118.33325200000036,67.30761700000039
55,73.7177729999994,272.82031300000017,86.0258789999998,75.76904300000024,145.12841800000024,117.05126999999993,103.7177729999994,70.38476599999922,61.2822270000006,5.897460999999566,-8.71801800000003,93.3334960000002,-109.35888699999987,68.46142599999985
56,64.35888699999941,264.23095699999976,78.58984400000008,55.51269500000035,132.43603499999972,113.7177729999994,99.48730499999965,66.6665039999998,64.10253900000043,-4.61547900000005,-14.743652000000111,89.61523400000078,-107.69238299999961,64.87158199999976
57,51.025878999999804,249.3588869999994,66.53857400000015,32.56396500000028,111.9228520000006,109.61523400000078,92.43603499999972,57.17968800000017,61.025878999999804,-18.71801800000003,-23.58984399999963,86.15380900000036,-111.66674799999964,56.153809000000365
58,38.7177729999994,235.51269500000035,54.61523400000078,12.82031300000017,95.76904300000024,107.30761700000039,85.76904300000024,48.46142599999985,55.12841800000024,-28.076904000000013,-30.1281740000004,84.87158199999976,-116.28198199999997,45.12841800000024
59,30.25634799999989,226.6665039999998,45.897460999999566,-0.12841800000023795,91.0258789999998,107.17968800000017,81.9228520000006,45.0,50.38476599999922,-28.974365000000034,-31.794922000000042,85.51269500000035,-116.28198199999997,35.0
60,24.615234000000783,221.0258789999998,41.025878999999804,-7.692382999999609,94.35888699999941,108.20507799999996,81.41015599999992,46.410155999999915,49.102539000000434,-22.948729999999614,-28.846190999999635,86.2822270000006,-109.10253899999998,27.30761700000039
61,20.51269500000035,215.0,38.7177729999994,-13.076904000000013,97.94873000000007,110.0,82.94873000000007,49.87158199999976,52.05126999999993,-14.487060999999812,-22.051270000000386,85.76904300000024,-94.8718259999996,23.077147999999397
62,17.94873000000007,206.79492200000004,37.69238299999961,-17.948729999999614,96.53857400000015,112.30761700000039,85.12841800000024,53.0771479999994,58.20507799999996,-7.435790999999426,-12.820557000000008,83.84619099999964,-75.64111300000013,23.077147999999397
63,17.56396500000028,197.05126999999993,37.69238299999961,-22.564209000000574,91.2822270000006,113.9741210000002,86.9228520000006,56.025878999999804,65.25634799999989,-4.61547900000005,-2.6923829999996087,82.69238299999961,-55.1281740000004,27.94873000000007
64,19.102539000000434,186.6665039999998,38.589844000000085,-27.30761700000039,85.51269500000035,113.84619099999964,87.43603499999972,58.589844000000085,70.76904300000024,-7.692382999999609,5.3847659999992175,83.3334960000002,-37.69238299999961,35.12841800000024
65,20.51269500000035,175.76904300000024,39.74365200000011,-33.46142599999985,81.41015599999992,111.53857400000015,85.64111300000059,60.25634799999989,72.82031300000017,-15.512939000000188,8.974121000000196,85.25634799999989,-26.794922000000042,40.12841800000024
66,19.74365200000011,164.87158199999976,40.38476599999922,-41.41015600000037,79.10253900000043,108.20507799999996,82.05126999999993,59.87158199999976,71.15380900000036,-23.846190999999635,8.205077999999958,86.41015599999992,-21.41015600000037,39.35888699999941
67,16.153809000000365,154.7436520000001,39.61523400000078,-50.51293900000019,78.84619099999964,105.12841800000024,78.46142599999985,57.56396500000028,67.30761700000039,-26.794922000000042,6.282227000000603,85.76904300000024,-16.025634999999966,33.7177729999994
68,11.666503999999804,147.17968800000017,37.94873000000007,-58.846190999999635,81.2822270000006,103.46142599999985,77.94873000000007,55.64111300000059,64.48730499999965,-20.89746100000002,7.051269999999931,83.84619099999964,-4.487060999999812,27.43603499999972
69,8.077147999999397,143.20507799999996,36.2822270000006,-66.15380900000036,85.64111300000059,104.10253900000043,81.79492200000004,56.666503999999804,64.74365200000011,-8.333252000000357,12.307617000000391,82.43603499999972,15.0,24.871581999999762
70,5.897460999999566,140.89746099999957,35.25634799999989,-73.33325200000036,89.48730499999965,106.53857400000015,89.23095699999976,61.2822270000006,68.58984400000008,4.102539000000434,20.769043000000238,82.05126999999993,38.333496000000196,26.410155999999915
71,5.128418000000238,136.9228520000006,34.87158199999976,-81.53857400000015,90.12841800000024,109.23095699999976,97.05126999999993,67.56396500000028,74.48730499999965,10.0,29.358886999999413,82.56396500000028,58.46142599999985,29.871581999999762
72,5.3847659999992175,129.23095699999976,34.87158199999976,-89.61547900000005,87.43603499999972,110.38476599999922,101.53857400000015,71.79492200000004,80.64111300000059,8.717772999999397,35.897460999999566,83.58984400000008,71.0258789999998,32.17968800000017
73,6.666503999999804,118.7177729999994,34.87158199999976,-94.8718259999996,83.0771479999994,108.84619099999964,100.64111300000059,71.9228520000006,85.38476599999922,5.512695000000349,40.51269500000035,85.0,76.53857400000015,32.17968800000017
74,8.077147999999397,108.58984400000008,35.38476599999922,-94.8718259999996,79.74365200000011,105.76904300000024,95.38476599999922,69.61523400000078,87.69238299999961,7.051269999999931,44.35888699999941,86.41015599999992,78.20507799999996,31.153809000000365
75,9.230956999999762,101.15380900000036,36.410155999999915,-89.74365200000011,79.23095699999976,103.46142599999985,89.23095699999976,67.69238299999961,87.43603499999972,14.487304999999651,48.589844000000085,87.17968800000017,80.38476599999922,30.897460999999566
76,10.0,97.30761700000039,38.0771479999994,-82.05127000000039,81.79492200000004,103.9741210000002,86.2822270000006,69.10253900000043,85.64111300000059,22.94873000000007,53.7177729999994,87.30761700000039,85.12841800000024,32.69238299999961
77,11.153809000000365,96.2822270000006,40.12841800000024,-74.8718259999996,86.0258789999998,107.30761700000039,88.7177729999994,73.9741210000002,84.10253900000043,26.666503999999804,60.38476599999922,87.69238299999961,93.0771479999994,36.79492200000004
78,13.461425999999847,96.0258789999998,42.69238299999961,-70.0,89.74365200000011,111.6665039999998,95.0,80.51269500000035,84.48730499999965,24.358886999999413,68.9741210000002,89.23095699999976,102.05126999999993,41.666503999999804
79,15.897460999999566,94.23095699999976,45.12841800000024,-67.17944299999999,91.79492200000004,114.87158199999976,101.53857400000015,86.0258789999998,87.30761700000039,20.25634799999989,79.48730499999965,91.41015599999992,109.23095699999976,45.38476599999922
80,16.666503999999804,89.48730499999965,46.153809000000365,-64.48706099999981,92.17968800000017,116.2822270000006,104.87158199999976,88.46142599999985,90.12841800000024,19.102539000000434,91.15380900000036,92.43603499999972,112.43603499999972,46.2822270000006
81,14.358886999999413,81.6665039999998,44.48730499999965,-60.89746100000002,90.64111300000059,116.53857400000015,103.84619099999964,87.43603499999972,90.64111300000059,23.077147999999397,102.17968800000017,91.15380900000036,111.6665039999998,43.974121000000196
82,10.0,72.43603499999972,40.76904300000024,-56.41015600000037,87.30761700000039,116.41015599999992,100.38476599999922,84.87158199999976,88.58984400000008,30.897460999999566,112.17968800000017,88.3334960000002,109.35888699999941,39.87158199999976
83,6.153809000000365,64.10253900000043,37.17968800000017,-52.435790999999426,82.43603499999972,116.41015599999992,97.94873000000007,83.0771479999994,86.0258789999998,40.51269500000035,121.6665039999998,86.0258789999998,108.58984400000008,36.2822270000006
84,6.025878999999804,58.7177729999994,36.9228520000006,-48.846190999999635,77.94873000000007,116.41015599999992,98.0771479999994,83.46142599999985,85.76904300000024,49.102539000000434,131.79492200000004,86.2822270000006,110.64111300000059,35.12841800000024
85,10.641113000000587,56.9228520000006,40.897460999999566,-44.48706099999981,76.0258789999998,115.64111300000059,99.48730499999965,84.87158199999976,88.46142599999985,55.51269500000035,141.9228520000006,89.61523400000078,115.0,36.666503999999804
86,17.94873000000007,56.666503999999804,47.69238299999961,-37.435790999999426,77.43603499999972,113.84619099999964,100.12841800000024,85.76904300000024,92.82031300000017,59.102539000000434,150.38476599999922,94.61523400000078,119.23095699999976,39.35888699999941
87,24.102539000000434,56.410155999999915,53.7177729999994,-27.435790999999426,81.15380900000036,111.6665039999998,99.23095699999976,85.64111300000059,96.6665039999998,60.38476599999922,155.89746099999957,98.9741210000002,121.53857400000015,41.9228520000006
88,27.05126999999993,55.38476599999922,56.025878999999804,-15.769286999999622,85.12841800000024,110.38476599999922,98.9741210000002,85.38476599999922,98.7177729999994,60.64111300000059,159.23095699999976,101.15380900000036,121.41015599999992,43.46142599999985
89,26.794922000000042,54.74365200000011,54.74365200000011,-5.38452099999995,87.43603499999972,110.64111300000059,101.15380900000036,86.15380900000036,98.9741210000002,61.2822270000006,162.3076170000004,101.0258789999998,120.12841800000024,44.35888699999941
90,24.74365200000011,54.87158199999976,51.9228520000006,2.1796880000001693,87.43603499999972,111.6665039999998,105.25634799999989,87.69238299999961,97.94873000000007,62.82031300000017,167.05126999999993,99.74365200000011,119.10253900000043,45.0
91,23.077147999999397,55.12841800000024,50.0,6.666503999999804,86.0258789999998,111.6665039999998,108.46142599999985,89.10253900000043,96.53857400000015,65.64111300000059,173.20507799999996,98.58984400000008,118.7177729999994,46.153809000000365
92,22.94873000000007,53.589844000000085,50.0,9.358886999999413,84.48730499999965,110.25634799999989,108.46142599999985,89.61523400000078,96.15380900000036,69.61523400000078,179.48730499999965,97.69238299999961,118.0771479999994,47.69238299999961
93,24.48730499999965,49.61523400000078,51.025878999999804,11.666503999999804,83.0771479999994,108.7177729999994,105.89746099999957,89.48730499999965,97.94873000000007,74.35888699999941,184.3588869999994,97.30761700000039,115.76904300000024,48.46142599999985
94,27.30761700000039,44.48730499999965,52.17968800000017,15.384765999999217,81.6665039999998,108.7177729999994,103.3334960000002,89.87158199999976,102.30761700000039,79.74365200000011,187.17968800000017,97.17968800000017,112.56396500000028,47.94873000000007
95,31.794922000000042,42.30761700000039,53.46142599999985,23.077147999999397,80.76904300000024,111.0258789999998,103.9741210000002,91.41015599999992,107.69238299999961,85.76904300000024,189.23095699999976,97.43603499999972,111.9228520000006,47.30761700000039
96,38.7177729999994,46.53857400000015,55.897460999999566,35.38476599999922,81.79492200000004,114.35888699999941,108.46142599999985,94.35888699999941,112.30761700000039,92.56396500000028,191.9228520000006,98.3334960000002,117.43603499999972,49.23095699999976
97,46.2822270000006,54.74365200000011,60.0,49.87158199999976,85.12841800000024,116.41015599999992,114.74365200000011,98.7177729999994,115.38476599999922,100.0,195.2563479999999,100.0,127.30761700000039,53.7177729999994
98,50.76904300000024,60.0,65.0,61.410155999999915,90.0,116.2822270000006,119.35888699999941,104.35888699999941,117.56396500000028,106.9228520000006,197.3076170000004,101.9228520000006,134.87158199999976,58.846190999999635
99,50.12841800000024,57.30761700000039,69.10253900000043,67.30761700000039,94.10253900000043,114.48730499999965,120.51269500000035,110.76904300000024,119.87158199999976,112.17968800000017,197.17968800000017,102.94873000000007,134.61523400000078,62.69238299999961
100,46.9228520000006,48.974121000000196,71.15380900000036,69.35888699999941,96.0258789999998,112.43603499999972,119.23095699999976,115.76904300000024,122.94873000000007,115.12841800000024,195.89746099999957,102.69238299999961,127.94873000000007,65.76904300000024
101,46.79492200000004,43.7177729999994,71.79492200000004,72.69238299999961,97.05126999999993,111.6665039999998,117.82031300000017,117.56396500000028,126.2822270000006,117.05126999999993,195.6411130000006,102.30761700000039,121.0258789999998,70.64111300000059
102,53.333496000000196,49.23095699999976,72.94873000000007,81.2822270000006,99.87158199999976,112.82031300000017,117.94873000000007,116.15380900000036,128.3334960000002,118.84619099999964,197.56396500000028,102.82031300000017,120.12841800000024,78.3334960000002
103,64.48730499999965,65.38476599999922,75.12841800000024,93.84619099999964,106.0258789999998,115.12841800000024,120.0,113.58984400000008,127.56396500000028,120.89746099999957,200.0,104.61523400000078,125.89746099999957,86.6665039999998
104,73.58984400000008,83.7177729999994,77.05126999999993,105.0,112.82031300000017,116.79492200000004,122.17968800000017,111.79492200000004,123.3334960000002,121.6665039999998,198.9741210000002,106.53857400000015,132.6923829999996,90.89746099999957
105,73.9741210000002,93.58984400000008,76.41015599999992,109.23095699999976,114.48730499999965,116.53857400000015,122.30761700000039,111.41015599999992,117.43603499999972,119.48730499999965,191.0258789999998,107.05126999999993,132.56396500000028,87.17968800000017
106,65.0,90.0,72.69238299999961,105.76904300000024,108.0771479999994,114.35888699999941,119.35888699999941,111.41015599999992,112.43603499999972,113.84619099999964,177.3076170000004,105.12841800000024,122.17968800000017,76.41015599999992
107,53.846190999999635,77.05126999999993,68.58984400000008,99.48730499999965,97.05126999999993,111.41015599999992,115.38476599999922,111.15380900000036,110.64111300000059,105.64111300000059,163.58984400000008,102.56396500000028,106.41015599999992,65.25634799999989
108,49.87158199999976,64.87158199999976,68.0771479999994,96.9228520000006,89.87158199999976,108.46142599999985,113.46142599999985,110.64111300000059,111.9228520000006,98.0771479999994,156.9228520000006,101.9228520000006,95.38476599999922,60.897460999999566
109,57.17968800000017,61.666503999999804,73.0771479999994,102.17968800000017,92.17968800000017,105.89746099999957,115.12841800000024,110.64111300000059,114.87158199999976,95.12841800000024,159.7436520000001,104.23095699999976,95.89746099999957,65.64111300000059
110,71.6665039999998,68.0771479999994,81.53857400000015,112.56396500000028,102.05126999999993,105.12841800000024,119.23095699999976,111.53857400000015,117.69238299999961,99.35888699999941,168.20507799999996,108.0771479999994,105.64111300000059,75.0
111,83.7177729999994,77.17968800000017,88.3334960000002,121.9228520000006,111.6665039999998,106.53857400000015,122.82031300000017,113.20507799999996,119.35888699999941,109.35888699999941,175.0,110.64111300000059,115.51269500000035,81.6665039999998
112,86.15380900000036,81.15380900000036,89.48730499999965,124.48730499999965,114.10253900000043,109.61523400000078,123.3334960000002,114.87158199999976,119.48730499999965,119.61523400000078,174.48730499999965,110.76904300000024,117.30761700000039,81.2822270000006
113,79.48730499999965,76.9228520000006,85.12841800000024,120.12841800000024,108.58984400000008,112.82031300000017,120.89746099999957,115.12841800000024,118.3334960000002,124.23095699999976,166.79492200000004,109.10253900000043,110.76904300000024,75.38476599999922
114,70.76904300000024,69.74365200000011,80.51269500000035,114.23095699999976,100.76904300000024,114.74365200000011,118.0771479999994,114.23095699999976,116.79492200000004,121.9228520000006,157.94873000000007,108.0771479999994,102.56396500000028,70.0
115,68.7177729999994,67.17968800000017,80.76904300000024,113.0771479999994,97.56396500000028,115.38476599999922,118.0771479999994,113.7177729999994,116.6665039999998,117.05126999999993,155.0,109.23095699999976,100.25634799999989,70.76904300000024
116,75.64111300000059,72.17968800000017,86.79492200000004,118.20507799999996,101.9228520000006,115.12841800000024,121.79492200000004,114.61523400000078,118.58984400000008,115.51269500000035,160.51269500000035,111.9228520000006,105.25634799999989,77.94873000000007
117,86.0258789999998,79.61523400000078,93.46142599999985,125.64111300000059,110.25634799999989,114.35888699999941,126.53857400000015,116.0258789999998,121.53857400000015,119.87158199999976,169.7436520000001,113.7177729999994,111.9228520000006,86.0258789999998
118,91.53857400000015,82.05126999999993,95.0,130.0,116.15380900000036,113.7177729999994,128.58984400000008,115.0,122.30761700000039,126.15380900000036,175.12841800000024,112.17968800000017,113.58984400000008,89.23095699999976
119,88.20507799999996,76.79492200000004,89.61523400000078,128.46142599999985,115.25634799999989,113.58984400000008,125.64111300000059,109.48730499999965,118.3334960000002,128.0771479999994,171.53857400000015,107.69238299999961,107.69238299999961,85.38476599999922
120,78.58984400000008,67.17968800000017,80.76904300000024,122.30761700000039,109.10253900000043,114.23095699999976,119.61523400000078,100.12841800000024,109.74365200000011,121.6665039999998,160.51269500000035,102.43603499999972,97.05126999999993,77.56396500000028
121,68.7177729999994,58.589844000000085,73.9741210000002,114.87158199999976,103.46142599999985,115.38476599999922,114.10253900000043,90.51269500000035,100.25634799999989,108.84619099999964,148.0771479999994,99.74365200000011,86.9228520000006,69.87158199999976
122,63.974121000000196,54.74365200000011,73.3334960000002,110.38476599999922,103.9741210000002,116.41015599999992,112.17968800000017,84.87158199999976,94.61523400000078,95.89746099999957,140.51269500000035,100.25634799999989,81.53857400000015,65.51269500000035
123,66.15380900000036,55.897460999999566,78.20507799999996,111.6665039999998,110.76904300000024,116.53857400000015,113.84619099999964,85.12841800000024,95.25634799999989,89.74365200000011,140.12841800000024,102.82031300000017,82.05126999999993,65.51269500000035
124,72.82031300000017,60.12841800000024,84.10253900000043,118.0771479999994,118.3334960000002,115.51269500000035,116.53857400000015,89.61523400000078,100.89746099999957,92.30761700000039,145.0,104.74365200000011,87.30761700000039,68.9741210000002
125,79.23095699999976,64.35888699999941,86.9228520000006,126.0258789999998,121.0258789999998,114.23095699999976,117.56396500000028,95.0,107.43603499999972,99.74365200000011,150.51269500000035,104.74365200000011,94.48730499999965,73.58984400000008
126,82.43603499999972,66.79492200000004,85.89746099999957,131.41015599999992,117.69238299999961,113.58984400000008,116.0258789999998,98.84619099999964,110.89746099999957,105.64111300000059,153.20507799999996,103.46142599999985,101.0258789999998,77.56396500000028
127,82.05126999999993,67.17968800000017,83.7177729999994,131.53857400000015,112.17968800000017,113.46142599999985,113.9741210000002,100.64111300000059,110.76904300000024,106.41015599999992,152.05126999999993,102.56396500000028,105.12841800000024,79.87158199999976
128,79.48730499999965,65.89746099999957,83.3334960000002,127.17968800000017,108.3334960000002,113.46142599999985,113.3334960000002,100.64111300000059,108.20507799999996,103.3334960000002,147.82031300000017,102.82031300000017,105.25634799999989,80.12841800000024
129,74.87158199999976,63.0771479999994,84.48730499999965,120.89746099999957,107.43603499999972,113.0771479999994,114.10253900000043,98.9741210000002,105.25634799999989,100.51269500000035,141.9228520000006,103.46142599999985,100.64111300000059,78.0771479999994
130,68.84619099999964,58.46142599999985,84.61523400000078,115.38476599999922,107.56396500000028,112.30761700000039,114.61523400000078,96.6665039999998,102.69238299999961,100.38476599999922,136.15380900000036,103.46142599999985,92.43603499999972,74.10253900000043
131,62.69238299999961,52.94873000000007,81.9228520000006,111.6665039999998,107.69238299999961,111.53857400000015,113.84619099999964,95.25634799999989,101.53857400000015,103.7177729999994,131.6665039999998,102.30761700000039,84.35888699999941,69.48730499999965
132,58.333496000000196,48.589844000000085,77.69238299999961,109.23095699999976,107.56396500000028,110.64111300000059,112.17968800000017,96.2822270000006,102.17968800000017,109.10253900000043,129.3588869999994,100.89746099999957,80.25634799999989,65.38476599999922
133,57.30761700000039,47.17968800000017,75.0,108.20507799999996,106.9228520000006,109.74365200000011,111.6665039999998,99.23095699999976,104.61523400000078,113.9741210000002,129.23095699999976,100.25634799999989,81.79492200000004,63.0771479999994
134,59.61523400000078,48.974121000000196,75.64111300000059,108.3334960000002,104.61523400000078,108.9741210000002,112.94873000000007,101.6665039999998,107.17968800000017,115.38476599999922,130.38476599999922,101.0258789999998,86.0258789999998,63.589844000000085
135,64.35888699999941,52.05126999999993,78.9741210000002,110.25634799999989,100.89746099999957,108.58984400000008,114.74365200000011,101.9228520000006,107.94873000000007,111.9228520000006,131.79492200000004,103.20507799999996,88.7177729999994,66.6665039999998
136,69.87158199999976,54.102539000000434,82.82031300000017,114.10253900000043,97.94873000000007,109.48730499999965,115.51269500000035,99.87158199999976,106.0258789999998,104.74365200000011,132.56396500000028,106.41015599999992,87.30761700000039,71.6665039999998
137,75.0,55.25634799999989,85.64111300000059,120.0,99.23095699999976,111.9228520000006,114.61523400000078,97.94873000000007,102.69238299999961,97.43603499999972,132.17968800000017,110.12841800000024,83.3334960000002,77.05126999999993
138,79.61523400000078,57.56396500000028,88.3334960000002,126.2822270000006,105.0,114.87158199999976,113.84619099999964,99.10253900000043,101.2822270000006,93.58984400000008,130.76904300000024,113.58984400000008,80.64111300000059,81.2822270000006
139,83.9741210000002,62.56396500000028,91.53857400000015,130.6411130000006,111.9228520000006,116.41015599999992,115.12841800000024,104.35888699999941,104.10253900000043,96.0258789999998,128.9741210000002,115.51269500000035,81.79492200000004,83.46142599999985
140,87.82031300000017,68.46142599999985,94.74365200000011,131.15380900000036,116.41015599999992,115.64111300000059,118.9741210000002,111.9228520000006,110.51269500000035,104.23095699999976,127.17968800000017,115.51269500000035,86.79492200000004,84.10253900000043
141,89.74365200000011,71.41015599999992,96.15380900000036,128.20507799999996,116.79492200000004,114.10253900000043,123.46142599999985,118.0771479999994,117.82031300000017,114.35888699999941,124.61523400000078,113.58984400000008,93.0771479999994,84.10253900000043
142,88.9741210000002,69.61523400000078,95.0,124.23095699999976,113.58984400000008,113.46142599999985,125.89746099999957,120.25634799999989,122.43603499999972,121.79492200000004,120.89746099999957,110.64111300000059,96.9228520000006,84.61523400000078
143,85.38476599999922,64.74365200000011,91.53857400000015,121.2822270000006,108.0771479999994,114.61523400000078,124.61523400000078,117.30761700000039,121.6665039999998,123.0771479999994,115.76904300000024,107.43603499999972,95.76904300000024,84.10253900000043
144,79.74365200000011,59.61523400000078,87.17968800000017,119.35888699999941,101.53857400000015,115.89746099999957,119.87158199999976,110.51269500000035,115.51269500000035,117.94873000000007,110.0,104.23095699999976,89.35888699999941,80.38476599999922
145,73.0771479999994,55.897460999999566,83.46142599999985,117.43603499999972,95.25634799999989,115.64111300000059,114.48730499999965,102.69238299999961,106.53857400000015,108.9741210000002,104.87158199999976,101.15380900000036,80.51269500000035,72.82031300000017
146,67.94873000000007,54.102539000000434,82.30761700000039,114.61523400000078,91.2822270000006,112.43603499999972,111.2822270000006,97.43603499999972,98.84619099999964,100.25634799999989,101.79492200000004,99.10253900000043,72.94873000000007,64.74365200000011
147,66.2822270000006,53.846190999999635,83.84619099999964,111.41015599999992,90.38476599999922,107.43603499999972,111.53857400000015,96.53857400000015,96.15380900000036,96.0258789999998,102.30761700000039,99.48730499999965,70.0,61.025878999999804
148,68.0771479999994,54.87158199999976,87.30761700000039,109.10253900000043,92.17968800000017,103.84619099999964,114.23095699999976,100.0,99.10253900000043,97.94873000000007,106.15380900000036,102.43603499999972,72.94873000000007,64.87158199999976
149,71.2822270000006,56.79492200000004,91.53857400000015,109.23095699999976,95.76904300000024,103.9741210000002,116.9228520000006,106.0258789999998,105.76904300000024,103.58984400000008,111.0258789999998,107.17968800000017,80.76904300000024,74.61523400000078
150,74.61523400000078,59.61523400000078,95.51269500000035,113.20507799999996,101.15380900000036,107.94873000000007,118.20507799999996,112.17968800000017,113.0771479999994,108.84619099999964,114.74365200000011,111.41015599999992,90.25634799999989,85.0
151,78.20507799999996,63.589844000000085,98.84619099999964,121.0258789999998,107.82031300000017,113.20507799999996,118.7177729999994,116.2822270000006,119.23095699999976,112.05126999999993,117.05126999999993,113.46142599999985,98.46142599999985,91.0258789999998
152,82.17968800000017,68.20507799999996,100.38476599999922,130.2563479999999,112.69238299999961,116.79492200000004,119.87158199999976,117.69238299999961,123.46142599999985,114.10253900000043,118.9741210000002,112.56396500000028,103.0771479999994,90.76904300000024
153,85.25634799999989,71.6665039999998,98.9741210000002,136.15380900000036,111.0258789999998,116.6665039999998,121.53857400000015,115.89746099999957,124.87158199999976,116.0258789999998,120.64111300000059,109.61523400000078,102.43603499999972,85.89746099999957
154,85.12841800000024,71.2822270000006,94.74365200000011,134.61523400000078,101.2822270000006,113.0771479999994,121.79492200000004,111.79492200000004,122.17968800000017,116.79492200000004,121.0258789999998,106.2822270000006,96.79492200000004,78.84619099999964
155,80.76904300000024,65.64111300000059,89.10253900000043,126.0258789999998,87.17968800000017,107.69238299999961,119.10253900000043,106.41015599999992,116.0258789999998,114.48730499999965,118.46142599999985,103.3334960000002,88.0771479999994,71.6665039999998
156,73.7177729999994,56.9228520000006,83.9741210000002,115.38476599999922,75.51269500000035,102.43603499999972,113.3334960000002,101.15380900000036,108.7177729999994,109.23095699999976,113.20507799999996,100.89746099999957,80.51269500000035,65.76904300000024
157,68.20507799999996,49.74365200000011,80.89746099999957,108.3334960000002,70.38476599999922,99.35888699999941,107.30761700000039,97.17968800000017,103.0771479999994,103.58984400000008,107.43603499999972,99.23095699999976,78.20507799999996,63.333496000000196
158,68.58984400000008,48.333496000000196,80.12841800000024,107.30761700000039,72.05126999999993,99.74365200000011,103.7177729999994,95.25634799999989,101.0258789999998,100.76904300000024,103.58984400000008,98.7177729999994,82.56396500000028,65.38476599999922
159,76.2822270000006,53.20507799999996,81.53857400000015,110.64111300000059,77.69238299999961,102.82031300000017,103.9741210000002,96.53857400000015,103.20507799999996,103.0771479999994,103.46142599999985,100.0,91.79492200000004,71.2822270000006
160,88.0771479999994,60.76904300000024,84.87158199999976,114.87158199999976,84.61523400000078,105.89746099999957,107.43603499999972,101.15380900000036,108.84619099999964,109.48730499999965,106.41015599999992,103.20507799999996,101.0258789999998,78.20507799999996
161,97.94873000000007,66.41015599999992,89.48730499999965,117.56396500000028,90.25634799999989,106.9228520000006,112.05126999999993,108.20507799999996,115.76904300000024,116.53857400000015,110.0,107.56396500000028,106.0258789999998,82.82031300000017
162,102.30761700000039,68.0771479999994,94.35888699999941,119.35888699999941,93.3334960000002,105.76904300000024,116.0258789999998,115.25634799999989,121.6665039999998,120.76904300000024,112.56396500000028,112.17968800000017,106.2822270000006,83.7177729999994
163,101.9228520000006,66.9228520000006,98.46142599999985,122.56396500000028,94.61523400000078,104.74365200000011,118.0771479999994,120.0,125.38476599999922,120.89746099999957,113.84619099999964,115.76904300000024,106.41015599999992,82.69238299999961
164,100.51269500000035,65.76904300000024,101.0258789999998,127.94873000000007,95.12841800000024,105.51269500000035,118.20507799999996,120.51269500000035,126.6665039999998,118.3334960000002,114.23095699999976,117.05126999999993,111.0258789999998,82.82031300000017
165,101.15380900000036,66.0258789999998,101.9228520000006,133.20507799999996,94.61523400000078,108.0771479999994,117.56396500000028,116.53857400000015,125.25634799999989,115.0,113.7177729999994,115.76904300000024,120.51269500000035,85.51269500000035
166,104.61523400000078,67.43603499999972,101.2822270000006,134.87158199999976,91.6665039999998,111.2822270000006,116.9228520000006,109.35888699999941,120.0,113.3334960000002,111.9228520000006,112.94873000000007,129.87158199999976,88.7177729999994
167,109.48730499999965,68.9741210000002,99.74365200000011,132.05126999999993,86.15380900000036,113.0771479999994,116.41015599999992,101.9228520000006,111.9228520000006,114.23095699999976,108.9741210000002,110.51269500000035,133.7177729999994,89.61523400000078
168,113.58984400000008,69.87158199999976,98.0771479999994,127.30761700000039,80.38476599999922,112.56396500000028,115.76904300000024,97.17968800000017,103.84619099999964,116.9228520000006,106.15380900000036,109.74365200000011,130.89746099999957,87.82031300000017
169,115.51269500000035,70.25634799999989,97.43603499999972,124.35888699999941,77.43603499999972,110.12841800000024,114.61523400000078,97.56396500000028,99.61523400000078,118.9741210000002,104.35888699999941,110.76904300000024,125.38476599999922,85.64111300000059
170,115.51269500000035,70.64111300000059,98.20507799999996,125.64111300000059,79.23095699999976,107.82031300000017,114.23095699999976,102.17968800000017,101.53857400000015,118.20507799999996,103.84619099999964,112.69238299999961,122.05126999999993,86.15380900000036
171,114.74365200000011,71.15380900000036,99.87158199999976,130.2563479999999,84.61523400000078,106.9228520000006,116.0258789999998,108.58984400000008,108.3334960000002,113.7177729999994,104.48730499999965,114.35888699999941,123.58984400000008,90.0
172,113.3334960000002,71.2822270000006,101.79492200000004,134.48730499999965,89.61523400000078,107.69238299999961,120.12841800000024,113.9741210000002,115.51269500000035,106.79492200000004,105.12841800000024,115.12841800000024,128.7177729999994,95.12841800000024
173,111.15380900000036,70.25634799999989,102.94873000000007,135.0,91.0258789999998,109.10253900000043,124.61523400000078,116.41015599999992,119.23095699999976,100.12841800000024,104.87158199999976,114.74365200000011,132.82031300000017,97.94873000000007
174,108.9741210000002,68.9741210000002,102.82031300000017,131.79492200000004,88.9741210000002,110.64111300000059,126.9228520000006,116.0258789999998,119.10253900000043,97.69238299999961,104.87158199999976,113.46142599999985,132.6923829999996,97.30761700000039
175,108.7177729999994,69.10253900000043,101.9228520000006,128.20507799999996,86.2822270000006,112.17968800000017,126.41015599999992,115.12841800000024,118.7177729999994,102.56396500000028,107.56396500000028,112.30761700000039,129.3588869999994,95.64111300000059
176,111.79492200000004,71.79492200000004,101.53857400000015,127.82031300000017,85.76904300000024,113.9741210000002,124.35888699999941,116.0258789999998,121.15380900000036,113.7177729999994,113.3334960000002,112.56396500000028,126.9228520000006,96.41015599999992
177,116.6665039999998,76.0258789999998,102.30761700000039,130.51269500000035,87.69238299999961,115.89746099999957,123.0771479999994,118.9741210000002,126.2822270000006,125.76904300000024,119.35888699999941,114.35888699999941,128.3334960000002,100.64111300000059
178,119.87158199999976,78.7177729999994,103.9741210000002,133.0771479999994,89.48730499999965,116.2822270000006,123.46142599999985,121.2822270000006,130.2563479999999,131.9228520000006,121.41015599999992,116.9228520000006,132.6923829999996,104.23095699999976
179,118.0771479999994,77.82031300000017,104.74365200000011,132.05126999999993,88.9741210000002,114.48730499999965,124.61523400000078,119.87158199999976,129.3588869999994,129.23095699999976,117.43603499999972,118.3334960000002,136.15380900000036,102.94873000000007
180,111.0258789999998,73.0771479999994,103.20507799999996,127.17968800000017,85.89746099999957,110.64111300000059,124.35888699999941,113.46142599999985,123.0771479999994,121.0258789999998,109.35888699999941,116.53857400000015,135.6411130000006,96.2822270000006
181,102.05126999999993,67.43603499999972,99.74365200000011,121.0258789999998,83.0771479999994,106.15380900000036,121.6665039999998,104.48730499999965,114.61523400000078,113.7177729999994,101.53857400000015,111.53857400000015,131.53857400000015,88.0771479999994
182,96.41015599999992,64.61523400000078,96.79492200000004,117.82031300000017,83.9741210000002,102.82031300000017,117.30761700000039,97.17968800000017,108.84619099999964,111.9228520000006,97.43603499999972,106.2822270000006,127.82031300000017,83.9741210000002
183,96.79492200000004,67.05126999999993,96.41015599999992,120.12841800000024,90.38476599999922,101.53857400000015,114.10253900000043,95.38476599999922,108.9741210000002,115.64111300000059,98.20507799999996,104.23095699999976,128.0771479999994,86.79492200000004
184,101.53857400000015,73.58984400000008,98.58984400000008,126.41015599999992,98.58984400000008,102.30761700000039,113.84619099999964,98.9741210000002,113.46142599999985,120.0,101.53857400000015,106.6665039999998,132.43603499999972,93.7177729999994
185,105.89746099999957,80.0,101.0258789999998,132.43603499999972,102.17968800000017,103.9741210000002,115.89746099999957,103.9741210000002,117.69238299999961,119.87158199999976,103.46142599999985,111.0258789999998,137.17968800000017,98.9741210000002
186,106.41015599999992,82.69238299999961,101.6665039999998,135.0,97.82031300000017,105.76904300000024,117.82031300000017,106.0258789999998,117.82031300000017,114.10253900000043,101.53857400000015,113.46142599999985,138.84619099999964,98.58984400000008
187,103.58984400000008,81.0258789999998,100.0,133.3334960000002,88.58984400000008,106.79492200000004,117.43603499999972,103.58984400000008,114.35888699999941,106.41015599999992,96.9228520000006,111.9228520000006,136.79492200000004,93.46142599999985
188,101.53857400000015,77.17968800000017,97.94873000000007,129.87158199999976,81.2822270000006,106.79492200000004,114.74365200000011,99.23095699999976,110.89746099999957,102.30761700000039,93.46142599999985,107.30761700000039,133.0771479999994,88.46142599999985
189,103.3334960000002,74.23095699999976,97.56396500000028,127.05126999999993,80.51269500000035,106.2822270000006,112.05126999999993,97.17968800000017,110.12841800000024,104.35888699999941,95.0,103.0771479999994,130.51269500000035,87.69238299999961
190,109.10253900000043,73.3334960000002,99.74365200000011,126.6665039999998,85.51269500000035,105.89746099999957,111.41015599999992,99.87158199999976,112.43603499999972,110.25634799999989,101.6665039999998,103.0771479999994,130.76904300000024,91.41015599999992
191,115.51269500000035,74.35888699999941,103.46142599999985,128.7177729999994,91.15380900000036,106.41015599999992,113.58984400000008,106.41015599999992,116.15380900000036,116.0258789999998,110.0,107.56396500000028,133.46142599999985,97.43603499999972
192,118.9741210000002,76.0258789999998,106.41015599999992,131.2822270000006,92.69238299999961,107.69238299999961,116.41015599999992,113.58984400000008,118.84619099999964,119.23095699999976,115.76904300000024,113.9741210000002,136.6665039999998,102.43603499999972
193,118.0771479999994,76.79492200000004,106.6665039999998,132.6923829999996,89.10253900000043,108.58984400000008,117.69238299999961,117.69238299999961,120.12841800000024,120.12841800000024,116.79492200000004,118.3334960000002,138.3334960000002,104.35888699999941
194,115.0,76.2822270000006,104.23095699999976,132.43603499999972,83.20507799999996,107.82031300000017,116.9228520000006,117.69238299999961,120.38476599999922,119.74365200000011,115.12841800000024,118.20507799999996,137.3076170000004,103.84619099999964
195,112.69238299999961,75.0,101.0258789999998,131.2822270000006,79.23095699999976,105.25634799999989,115.51269500000035,115.12841800000024,120.0,118.20507799999996,113.20507799999996,115.0,134.61523400000078,102.30761700000039
196,112.43603499999972,73.58984400000008,99.61523400000078,129.87158199999976,79.35888699999941,102.43603499999972,115.64111300000059,112.69238299999961,118.20507799999996,115.0,112.05126999999993,112.17968800000017,131.53857400000015,101.0258789999998
197,112.94873000000007,72.69238299999961,100.89746099999957,128.58984400000008,83.0771479999994,101.2822270000006,118.0771479999994,112.56396500000028,115.64111300000059,110.51269500000035,110.89746099999957,112.30761700000039,129.87158199999976,100.38476599999922
198,112.30761700000039,72.43603499999972,104.23095699999976,127.69238299999961,88.0771479999994,102.94873000000007,121.79492200000004,115.51269500000035,114.23095699999976,107.43603499999972,109.35888699999941,115.12841800000024,130.0,100.0
199,109.61523400000078,72.17968800000017,107.05126999999993,128.20507799999996,92.43603499999972,107.43603499999972,125.12841800000024,120.12841800000024,115.64111300000059,108.3334960000002,107.69238299999961,117.82031300000017,131.53857400000015,100.0
200,105.12841800000024,70.64111300000059,107.17968800000017,129.7436520000001,94.61523400000078,112.43603499999972,125.89746099999957,123.84619099999964,119.74365200000011,113.46142599999985,105.64111300000059,117.94873000000007,132.17968800000017,99.87158199999976
201,100.12841800000024,67.94873000000007,103.9741210000002,130.76904300000024,92.94873000000007,114.87158199999976,123.3334960000002,124.10253900000043,124.23095699999976,119.48730499999965,102.69238299999961,114.87158199999976,129.48730499999965,98.58984400000008
202,96.9228520000006,65.38476599999922,99.87158199999976,129.48730499999965,87.17968800000017,112.56396500000028,118.9741210000002,120.25634799999989,126.41015599999992,121.41015599999992,98.84619099999964,110.64111300000059,123.7177729999994,96.15380900000036
203,96.9228520000006,65.0,98.0771479999994,126.53857400000015,80.25634799999989,106.79492200000004,116.0258789999998,114.48730499999965,125.64111300000059,117.82031300000017,95.12841800000024,108.0771479999994,118.20507799999996,94.10253900000043
204,100.0,67.82031300000017,100.51269500000035,124.87158199999976,76.53857400000015,100.89746099999957,117.05126999999993,111.2822270000006,123.58984400000008,112.05126999999993,92.82031300000017,108.46142599999985,117.05126999999993,94.74365200000011
205,105.0,73.20507799999996,106.2822270000006,127.94873000000007,79.48730499999965,98.3334960000002,121.9228520000006,113.84619099999964,122.82031300000017,110.51269500000035,92.82031300000017,111.2822270000006,122.05126999999993,99.10253900000043
206,111.0258789999998,80.64111300000059,113.20507799999996,135.89746099999957,88.9741210000002,100.51269500000035,128.20507799999996,122.05126999999993,125.51269500000035,117.30761700000039,95.38476599999922,115.0,130.6411130000006,106.53857400000015
207,116.9228520000006,88.46142599999985,118.9741210000002,145.76904300000024,101.15380900000036,106.41015599999992,132.82031300000017,132.43603499999972,131.6665039999998,129.61523400000078,100.12841800000024,118.58984400000008,138.46142599999985,114.87158199999976
208,121.41015599999992,94.23095699999976,122.43603499999972,152.56396500000028,110.38476599999922,112.69238299999961,133.58984400000008,139.61523400000078,138.46142599999985,139.3588869999994,105.25634799999989,121.0258789999998,141.6665039999998,121.0258789999998
209,122.82031300000017,94.74365200000011,122.82031300000017,152.82031300000017,111.79492200000004,115.25634799999989,130.38476599999922,139.3588869999994,141.41015599999992,139.10253900000043,107.43603499999972,121.79492200000004,139.87158199999976,121.2822270000006
210,119.74365200000011,89.35888699999941,120.12841800000024,146.15380900000036,105.0,112.30761700000039,124.35888699999941,131.15380900000036,138.0771479999994,129.48730499999965,104.23095699999976,120.38476599999922,135.2563479999999,114.48730499999965
211,113.46142599999985,80.89746099999957,114.87158199999976,135.89746099999957,94.48730499999965,106.15380900000036,118.0771479999994,119.23095699999976,130.2563479999999,118.3334960000002,96.15380900000036,117.17968800000017,130.6411130000006,102.82031300000017
212,106.2822270000006,74.23095699999976,108.58984400000008,127.56396500000028,87.30761700000039,100.89746099999957,114.23095699999976,110.25634799999989,122.30761700000039,113.9741210000002,87.05126999999993,113.20507799999996,127.82031300000017,91.6665039999998
213,101.41015599999992,72.69238299999961,103.58984400000008,125.51269500000035,87.56396500000028,99.23095699999976,114.10253900000043,108.84619099999964,118.20507799999996,117.30761700000039,81.0258789999998,110.12841800000024,126.79492200000004,86.6665039999998
214,99.87158199999976,76.0258789999998,101.53857400000015,130.2563479999999,94.74365200000011,100.64111300000059,117.17968800000017,114.61523400000078,119.10253900000043,122.94873000000007,80.38476599999922,108.84619099999964,127.05126999999993,89.74365200000011
215,100.76904300000024,81.53857400000015,103.0771479999994,137.94873000000007,105.0,102.82031300000017,121.9228520000006,123.20507799999996,123.20507799999996,126.2822270000006,84.35888699999941,110.0,128.84619099999964,98.9741210000002
216,103.0771479999994,86.53857400000015,107.30761700000039,144.10253900000043,113.7177729999994,104.10253900000043,126.2822270000006,129.61523400000078,128.46142599999985,126.9228520000006,91.0258789999998,112.94873000000007,133.0771479999994,109.61523400000078
217,106.79492200000004,89.61523400000078,112.82031300000017,145.6411130000006,117.69238299999961,104.10253900000043,129.23095699999976,132.17968800000017,134.10253900000043,127.43603499999972,97.94873000000007,116.2822270000006,139.7436520000001,117.05126999999993
218,111.6665039999998,91.0258789999998,117.17968800000017,142.6923829999996,116.41015599999992,103.7177729999994,130.6411130000006,132.05126999999993,138.9741210000002,128.46142599999985,103.0771479999994,118.58984400000008,146.9228520000006,119.23095699999976
219,116.0258789999998,91.0258789999998,118.3334960000002,137.6923829999996,110.25634799999989,103.46142599999985,129.87158199999976,129.87158199999976,140.12841800000024,128.0771479999994,103.46142599999985,118.46142599999985,150.76904300000024,115.89746099999957
220,116.9228520000006,89.35888699999941,114.87158199999976,132.82031300000017,100.89746099999957,103.46142599999985,126.6665039999998,124.74365200000011,135.2563479999999,123.7177729999994,97.30761700000039,116.41015599999992,147.94873000000007,108.9741210000002
221,113.46142599999985,85.76904300000024,108.3334960000002,129.48730499999965,91.2822270000006,103.0771479999994,121.2822270000006,116.15380900000036,125.51269500000035,114.74365200000011,85.64111300000059,113.84619099999964,138.7177729999994,101.2822270000006
222,107.82031300000017,81.2822270000006,102.30761700000039,128.58984400000008,85.64111300000059,102.94873000000007,115.89746099999957,106.15380900000036,115.12841800000024,104.48730499999965,73.0771479999994,111.79492200000004,127.94873000000007,95.89746099999957
223,103.7177729999994,77.94873000000007,100.12841800000024,129.7436520000001,85.64111300000059,103.46142599999985,113.46142599999985,99.48730499999965,108.84619099999964,98.3334960000002,65.51269500000035,111.2822270000006,122.17968800000017,95.38476599999922
224,103.9741210000002,78.20507799999996,102.94873000000007,132.43603499999972,90.12841800000024,105.64111300000059,115.76904300000024,100.51269500000035,109.48730499999965,101.0258789999998,66.79492200000004,112.05126999999993,124.48730499999965,99.61523400000078
225,108.7177729999994,82.30761700000039,109.35888699999941,134.7436520000001,95.76904300000024,109.23095699999976,122.43603499999972,109.74365200000011,116.6665039999998,111.53857400000015,76.0258789999998,113.84619099999964,132.82031300000017,106.41015599999992
226,115.38476599999922,88.20507799999996,115.89746099999957,135.38476599999922,99.87158199999976,112.82031300000017,130.0,123.20507799999996,127.30761700000039,123.46142599999985,87.82031300000017,115.76904300000024,142.43603499999972,112.82031300000017
227,120.25634799999989,92.17968800000017,118.9741210000002,133.9741210000002,102.17968800000017,115.0,134.87158199999976,134.48730499999965,136.6665039999998,129.61523400000078,96.15380900000036,116.79492200000004,148.58984400000008,116.53857400000015
228,120.64111300000059,91.53857400000015,117.17968800000017,131.41015599999992,103.84619099999964,114.61523400000078,134.87158199999976,138.58984400000008,141.41015599999992,127.82031300000017,97.30761700000039,116.6665039999998,150.38476599999922,117.05126999999993
229,117.69238299999961,87.30761700000039,112.56396500000028,129.48730499999965,106.41015599999992,112.05126999999993,131.6665039999998,135.76904300000024,141.9228520000006,122.56396500000028,93.20507799999996,115.51269500000035,150.2563479999999,115.51269500000035
230,114.74365200000011,84.61523400000078,109.48730499999965,128.9741210000002,110.51269500000035,109.61523400000078,128.9741210000002,130.89746099999957,140.76904300000024,121.0258789999998,89.10253900000043,114.87158199999976,151.9228520000006,114.48730499999965
231,114.74365200000011,87.82031300000017,111.41015599999992,130.0,115.12841800000024,109.23095699999976,129.48730499999965,128.84619099999964,140.89746099999957,125.38476599999922,89.61523400000078,115.76904300000024,156.53857400000015,115.89746099999957
232,117.94873000000007,96.0258789999998,117.43603499999972,132.05126999999993,117.56396500000028,110.38476599999922,132.43603499999972,131.0258789999998,142.43603499999972,131.53857400000015,95.38476599999922,117.82031300000017,161.9228520000006,119.10253900000043
233,121.6665039999998,104.10253900000043,122.94873000000007,134.3588869999994,116.0258789999998,111.53857400000015,133.84619099999964,134.87158199999976,143.46142599999985,133.58984400000008,102.05126999999993,119.87158199999976,164.23095699999976,122.05126999999993
234,123.7177729999994,106.79492200000004,123.58984400000008,135.76904300000024,111.0258789999998,111.79492200000004,131.0258789999998,136.53857400000015,142.43603499999972,129.87158199999976,105.38476599999922,120.51269500000035,161.79492200000004,122.69238299999961
235,122.94873000000007,103.0771479999994,118.46142599999985,135.76904300000024,104.87158199999976,111.6665039999998,125.0,134.23095699999976,139.3588869999994,124.10253900000043,103.58984400000008,119.10253900000043,156.6665039999998,121.0258789999998
236,120.0,95.76904300000024,110.51269500000035,133.9741210000002,100.12841800000024,111.15380900000036,118.58984400000008,128.3334960000002,135.51269500000035,120.12841800000024,98.3334960000002,115.76904300000024,151.53857400000015,118.20507799999996
237,115.64111300000059,88.46142599999985,103.46142599999985,129.48730499999965,97.94873000000007,110.12841800000024,114.35888699999941,120.25634799999989,131.0258789999998,118.84619099999964,92.43603499999972,111.6665039999998,147.56396500000028,114.48730499999965
238,110.25634799999989,82.82031300000017,99.35888699999941,122.69238299999961,97.94873000000007,108.46142599999985,112.17968800000017,111.6665039999998,125.89746099999957,117.82031300000017,87.56396500000028,107.94873000000007,144.23095699999976,109.87158199999976
239,104.35888699999941,79.74365200000011,97.82031300000017,115.64111300000059,99.87158199999976,106.53857400000015,111.6665039999998,103.9741210000002,119.87158199999976,114.87158199999976,83.58984400000008,105.25634799999989,140.2563479999999,104.35888699999941
240,99.74365200000011,79.61523400000078,97.69238299999961,111.9228520000006,103.0771479999994,105.51269500000035,112.30761700000039,99.87158199999976,114.10253900000043,108.9741210000002,80.64111300000059,103.9741210000002,135.6411130000006,99.48730499999965
241,98.58984400000008,81.9228520000006,98.46142599999985,113.7177729999994,106.6665039999998,106.15380900000036,113.84619099999964,100.89746099999957,110.76904300000024,101.41015599999992,79.61523400000078,103.84619099999964,132.56396500000028,97.17968800000017
242,100.76904300000024,85.76904300000024,99.74365200000011,119.74365200000011,108.7177729999994,108.0771479999994,115.51269500000035,105.89746099999957,111.15380900000036,95.25634799999989,81.41015599999992,103.9741210000002,133.0771479999994,98.0771479999994
243,103.7177729999994,89.61523400000078,100.89746099999957,125.89746099999957,107.56396500000028,109.74365200000011,116.53857400000015,111.15380900000036,114.61523400000078,94.35888699999941,85.0,103.84619099999964,137.56396500000028,100.51269500000035
244,104.10253900000043,91.9228520000006,100.51269500000035,128.20507799999996,103.58984400000008,109.61523400000078,115.38476599999922,113.0771479999994,118.3334960000002,99.35888699999941,87.30761700000039,103.0771479999994,143.0771479999994,101.53857400000015
245,100.76904300000024,90.64111300000059,97.69238299999961,124.87158199999976,98.84619099999964,107.17968800000017,111.41015599999992,110.51269500000035,119.10253900000043,106.2822270000006,85.38476599999922,101.53857400000015,144.48730499999965,99.10253900000043
246,95.25634799999989,85.38476599999922,93.0771479999994,117.56396500000028,95.51269500000035,103.58984400000008,105.12841800000024,104.35888699999941,115.12841800000024,108.7177729999994,78.58984400000008,99.61523400000078,138.84619099999964,93.58984400000008
247,90.76904300000024,78.9741210000002,88.20507799999996,110.25634799999989,94.61523400000078,100.89746099999957,98.84619099999964,97.69238299999961,107.05126999999993,104.74365200000011,70.38476599999922,98.3334960000002,127.94873000000007,87.56396500000028
248,90.12841800000024,76.2822270000006,85.89746099999957,107.69238299999961,95.89746099999957,100.25634799999989,96.0258789999998,93.84619099999964,99.35888699999941,98.46142599999985,65.89746099999957,98.84619099999964,117.69238299999961,84.61523400000078
249,93.9741210000002,80.38476599999922,88.3334960000002,111.9228520000006,98.9741210000002,102.17968800000017,98.9741210000002,95.51269500000035,97.05126999999993,96.41015599999992,68.58984400000008,101.53857400000015,114.74365200000011,87.17968800000017
250,100.25634799999989,89.87158199999976,95.51269500000035,120.76904300000024,102.69238299999961,106.0258789999998,106.41015599999992,102.17968800000017,102.56396500000028,101.0258789999998,77.17968800000017,105.12841800000024,120.38476599999922,94.23095699999976
251,105.64111300000059,98.7177729999994,103.7177729999994,129.3588869999994,105.38476599999922,110.51269500000035,114.61523400000078,110.38476599999922,112.94873000000007,108.84619099999964,87.05126999999993,107.56396500000028,130.2563479999999,101.41015599999992
252,107.30761700000039,101.0258789999998,107.69238299999961,133.0771479999994,106.2822270000006,114.10253900000043,118.9741210000002,115.25634799999989,121.41015599999992,113.9741210000002,91.9228520000006,107.43603499999972,137.17968800000017,103.7177729999994
253,104.48730499999965,95.12841800000024,104.61523400000078,130.2563479999999,105.25634799999989,115.38476599999922,117.17968800000017,113.9741210000002,122.30761700000039,112.30761700000039,89.35888699999941,104.87158199999976,136.41015599999992,99.23095699999976
254,99.23095699999976,85.12841800000024,96.79492200000004,123.20507799999996,103.0771479999994,114.61523400000078,111.15380900000036,107.94873000000007,114.74365200000011,105.38476599999922,81.15380900000036,101.9228520000006,128.46142599999985,91.15380900000036
255,95.0,77.69238299999961,90.0,116.15380900000036,101.0258789999998,112.30761700000039,105.25634799999989,101.79492200000004,104.23095699999976,97.56396500000028,72.43603499999972,100.64111300000059,117.82031300000017,84.74365200000011
256,94.87158199999976,77.17968800000017,88.20507799999996,112.82031300000017,99.74365200000011,109.74365200000011,102.94873000000007,100.51269500000035,98.20507799999996,93.7177729999994,67.56396500000028,101.9228520000006,110.25634799999989,84.10253900000043
257,98.20507799999996,82.43603499999972,91.53857400000015,113.46142599999985,98.7177729999994,107.82031300000017,104.35888699999941,105.38476599999922,100.64111300000059,94.87158199999976,67.82031300000017,104.48730499999965,108.7177729999994,88.9741210000002
258,101.41015599999992,87.43603499999972,96.15380900000036,116.0258789999998,95.76904300000024,106.6665039999998,107.56396500000028,113.20507799999996,109.23095699999976,98.7177729999994,71.15380900000036,106.41015599999992,112.17968800000017,95.51269500000035
259,101.15380900000036,86.79492200000004,98.20507799999996,117.05126999999993,89.74365200000011,105.89746099999957,109.35888699999941,118.0771479999994,117.30761700000039,101.9228520000006,74.61523400000078,106.2822270000006,116.15380900000036,99.48730499999965
260,96.53857400000015,79.10253900000043,96.41015599999992,114.35888699999941,82.82031300000017,104.74365200000011,108.84619099999964,116.0258789999998,119.87158199999976,102.69238299999961,76.41015599999992,104.23095699999976,117.05126999999993,99.10253900000043
261,90.38476599999922,68.7177729999994,92.94873000000007,108.9741210000002,79.35888699999941,103.7177729999994,107.17968800000017,108.58984400000008,116.6665039999998,101.79492200000004,76.9228520000006,102.17968800000017,114.61523400000078,96.0258789999998
262,87.17968800000017,63.20507799999996,91.15380900000036,105.25634799999989,83.46142599999985,103.9741210000002,107.05126999999993,101.9228520000006,111.79492200000004,101.6665039999998,78.3334960000002,102.43603499999972,112.17968800000017,93.84619099999964
263,89.74365200000011,67.30761700000039,93.84619099999964,108.58984400000008,93.46142599999985,106.41015599999992,110.25634799999989,102.17968800000017,110.25634799999989,104.23095699999976,82.30761700000039,106.9228520000006,113.58984400000008,95.25634799999989
264,96.9228520000006,79.35888699999941,100.25634799999989,119.10253900000043,103.3334960000002,110.12841800000024,115.51269500000035,110.38476599999922,113.58984400000008,109.10253900000043,88.0771479999994,114.10253900000043,118.46142599999985,100.12841800000024
265,103.9741210000002,91.41015599999992,106.6665039999998,131.2822270000006,106.2822270000006,112.43603499999972,118.7177729999994,120.25634799999989,118.9741210000002,112.56396500000028,92.30761700000039,119.48730499999965,123.0771479999994,104.87158199999976
266,106.53857400000015,95.12841800000024,108.58984400000008,137.3076170000004,100.12841800000024,110.64111300000059,116.15380900000036,123.58984400000008,122.30761700000039,110.89746099999957,91.53857400000015,119.61523400000078,123.46142599999985,106.15380900000036
267,103.58984400000008,89.10253900000043,105.25634799999989,133.58984400000008,89.35888699999941,105.51269500000035,108.7177729999994,117.05126999999993,121.0258789999998,104.10253900000043,85.38476599999922,114.35888699999941,119.35888699999941,103.3334960000002
268,98.58984400000008,79.35888699999941,100.0,123.9741210000002,81.2822270000006,101.0258789999998,101.2822270000006,105.76904300000024,116.2822270000006,96.79492200000004,77.30761700000039,107.94873000000007,113.58984400000008,99.23095699999976
269,95.76904300000024,73.7177729999994,97.56396500000028,115.51269500000035,81.2822270000006,100.89746099999957,98.84619099999964,97.82031300000017,111.79492200000004,94.74365200000011,72.56396500000028,104.23095699999976,110.38476599999922,96.41015599999992
270,96.9228520000006,76.2822270000006,100.12841800000024,113.7177729999994,89.61523400000078,105.25634799999989,102.30761700000039,98.0771479999994,110.64111300000059,100.0,73.58984400000008,105.0,111.53857400000015,96.2822270000006
271,99.61523400000078,85.0,106.0258789999998,118.7177729999994,102.30761700000039,111.0258789999998,108.20507799999996,105.25634799999989,113.3334960000002,109.74365200000011,79.10253900000043,108.46142599999985,115.64111300000059,97.94873000000007
272,100.64111300000059,93.7177729999994,111.53857400000015,126.15380900000036,113.0771479999994,114.35888699999941,112.17968800000017,113.20507799999996,117.43603499999972,117.69238299999961,84.61523400000078,111.79492200000004,119.23095699999976,100.0
273,98.3334960000002,96.9228520000006,113.3334960000002,130.2563479999999,116.15380900000036,113.7177729999994,112.30761700000039,115.76904300000024,119.10253900000043,118.7177729999994,86.0258789999998,112.30761700000039,119.10253900000043,101.2822270000006
274,93.3334960000002,93.0771479999994,110.76904300000024,127.82031300000017,109.87158199999976,110.12841800000024,109.23095699999976,110.89746099999957,116.53857400000015,111.9228520000006,82.17968800000017,109.10253900000043,114.10253900000043,100.64111300000059
275,88.84619099999964,86.15380900000036,105.38476599999922,120.12841800000024,97.94873000000007,106.9228520000006,106.53857400000015,102.30761700000039,111.15380900000036,101.9228520000006,75.0,104.48730499999965,106.6665039999998,97.30761700000039
276,86.6665039999998,81.41015599999992,100.38476599999922,112.17968800000017,87.43603499999972,106.2822270000006,106.9228520000006,96.53857400000015,106.2822270000006,95.25634799999989,68.20507799999996,101.53857400000015,100.51269500000035,91.9228520000006
277,86.9228520000006,81.41015599999992,98.20507799999996,108.9741210000002,83.7177729999994,107.82031300000017,111.0258789999998,97.56396500000028,105.12841800000024,95.25634799999989,64.74365200000011,101.6665039999998,98.20507799999996,86.2822270000006
278,87.56396500000028,84.10253900000043,98.58984400000008,111.0258789999998,88.3334960000002,109.74365200000011,116.0258789999998,104.10253900000043,108.0771479999994,100.25634799999989,64.61523400000078,103.84619099999964,99.10253900000043,82.82031300000017
279,86.79492200000004,86.6665039999998,100.0,115.0,98.3334960000002,110.64111300000059,118.3334960000002,110.64111300000059,112.82031300000017,105.25634799999989,66.53857400000015,105.38476599999922,101.0258789999998,82.69238299999961
280,85.0,87.94873000000007,100.89746099999957,117.05126999999993,108.20507799999996,111.15380900000036,116.2822270000006,111.9228520000006,116.41015599999992,106.79492200000004,69.74365200000011,105.38476599999922,103.20507799999996,86.2822270000006
281,84.23095699999976,88.58984400000008,101.6665039999998,116.41015599999992,112.17968800000017,112.30761700000039,111.53857400000015,107.05126999999993,117.30761700000039,104.74365200000011,74.48730499999965,104.61523400000078,106.53857400000015,92.56396500000028
282,86.15380900000036,89.87158199999976,103.20507799999996,114.74365200000011,108.58984400000008,114.23095699999976,107.30761700000039,99.87158199999976,116.0258789999998,102.17968800000017,81.2822270000006,104.48730499999965,111.9228520000006,99.74365200000011
283,90.89746099999957,92.82031300000017,106.41015599999992,114.87158199999976,100.89746099999957,115.76904300000024,106.2822270000006,95.89746099999957,114.10253900000043,102.17968800000017,88.9741210000002,106.15380900000036,118.9741210000002,105.76904300000024
284,97.30761700000039,97.43603499999972,110.89746099999957,117.82031300000017,95.38476599999922,115.64111300000059,109.10253900000043,98.84619099999964,113.20507799999996,105.89746099999957,94.61523400000078,109.23095699999976,125.76904300000024,110.51269500000035
285,102.94873000000007,102.56396500000028,115.12841800000024,123.20507799999996,96.6665039999998,113.46142599999985,113.7177729999994,107.43603499999972,114.10253900000043,111.79492200000004,95.76904300000024,112.17968800000017,129.87158199999976,114.23095699999976
286,105.89746099999957,107.56396500000028,117.69238299999961,128.84619099999964,103.58984400000008,109.87158199999976,117.69238299999961,116.6665039999998,116.6665039999998,117.05126999999993,92.69238299999961,113.58984400000008,129.87158199999976,117.43603499999972
287,106.0258789999998,112.17968800000017,118.0771479999994,132.82031300000017,111.0258789999998,105.89746099999957,119.10253900000043,121.6665039999998,119.87158199999976,120.25634799999989,88.20507799999996,113.20507799999996,126.0258789999998,119.35888699999941
288,104.23095699999976,115.38476599999922,116.41015599999992,133.7177729999994,114.10253900000043,102.94873000000007,117.82031300000017,120.25634799999989,122.05126999999993,120.38476599999922,85.12841800000024,111.0258789999998,120.89746099999957,119.10253900000043
289,101.53857400000015,115.38476599999922,113.3334960000002,130.2563479999999,111.41015599999992,101.41015599999992,114.35888699999941,113.84619099999964,121.15380900000036,117.05126999999993,84.23095699999976,107.56396500000028,116.41015599999992,115.64111300000059
290,97.56396500000028,110.12841800000024,108.84619099999964,123.3334960000002,105.25634799999989,101.41015599999992,109.61523400000078,106.15380900000036,116.2822270000006,109.87158199999976,84.10253900000043,103.58984400000008,112.69238299999961,109.74365200000011
291,92.56396500000028,100.51269500000035,103.9741210000002,116.0258789999998,98.9741210000002,103.20507799999996,105.12841800000024,100.51269500000035,108.3334960000002,100.89746099999957,83.20507799999996,100.64111300000059,108.7177729999994,102.94873000000007
292,88.0771479999994,90.64111300000059,100.0,111.9228520000006,94.87158199999976,106.2822270000006,102.17968800000017,98.7177729999994,100.38476599999922,94.35888699999941,81.15380900000036,100.0,104.10253900000043,97.94873000000007
293,86.15380900000036,85.25634799999989,98.20507799999996,112.43603499999972,93.7177729999994,109.23095699999976,101.41015599999992,100.0,96.2822270000006,93.9741210000002,78.84619099999964,101.2822270000006,100.64111300000059,96.53857400000015
294,87.43603499999972,86.2822270000006,98.84619099999964,115.76904300000024,95.12841800000024,110.25634799999989,102.05126999999993,102.05126999999993,98.3334960000002,100.12841800000024,78.84619099999964,103.0771479999994,100.64111300000059,98.58984400000008
295,91.15380900000036,91.9228520000006,101.2822270000006,119.10253900000043,98.7177729999994,108.84619099999964,102.82031300000017,103.46142599999985,105.0,109.23095699999976,81.79492200000004,104.35888699999941,104.74365200000011,101.79492200000004
296,95.38476599999922,98.58984400000008,103.58984400000008,120.0,103.3334960000002,106.53857400000015,103.0771479999994,103.58984400000008,112.17968800000017,115.89746099999957,86.0258789999998,104.61523400000078,111.2822270000006,103.9741210000002
297,98.84619099999964,103.0771479999994,104.48730499999965,117.94873000000007,107.30761700000039,106.0258789999998,103.84619099999964,103.0771479999994,116.41015599999992,116.41015599999992,88.0771479999994,103.9741210000002,117.17968800000017,103.7177729999994
298,101.15380900000036,104.48730499999965,103.46142599999985,114.61523400000078,108.20507799999996,108.7177729999994,105.89746099999957,102.82031300000017,116.15380900000036,111.2822270000006,85.38476599999922,102.94873000000007,120.12841800000024,101.9228520000006
299,102.05126999999993,104.10253900000043,101.53857400000015,112.69238299999961,105.38476599999922,113.0771479999994,109.23095699999976,102.94873000000007,113.20507799999996,104.48730499999965,79.61523400000078,102.17968800000017,119.48730499999965,100.12841800000024
300,101.53857400000015,103.3334960000002,100.38476599999922,113.7177729999994,100.76904300000024,116.0258789999998,112.17968800000017,103.3334960000002,110.25634799999989,100.51269500000035,74.48730499999965,101.9228520000006,116.9228520000006,100.0
301,99.48730499999965,102.94873000000007,100.51269500000035,116.6665039999998,97.94873000000007,115.51269500000035,112.69238299999961,102.82031300000017,108.46142599999985,100.12841800000024,73.3334960000002,101.9228520000006,113.7177729999994,101.6665039999998
302,95.38476599999922,102.69238299999961,101.15380900000036,119.35888699999941,100.12841800000024,111.6665039999998,110.25634799999989,101.0258789999998,107.30761700000039,101.53857400000015,76.2822270000006,101.6665039999998,110.25634799999989,103.58984400000008
303,90.76904300000024,102.43603499999972,101.53857400000015,119.87158199999976,107.69238299999961,106.79492200000004,106.9228520000006,98.20507799999996,105.76904300000024,102.56396500000028,81.0258789999998,101.2822270000006,106.9228520000006,104.23095699999976
304,88.58984400000008,102.17968800000017,101.79492200000004,118.7177729999994,116.9228520000006,103.3334960000002,105.25634799999989,96.15380900000036,103.7177729999994,102.69238299999961,84.74365200000011,101.2822270000006,104.61523400000078,103.46142599999985
305,91.0258789999998,102.05126999999993,102.17968800000017,117.43603499999972,121.53857400000015,102.30761700000039,106.79492200000004,95.89746099999957,102.05126999999993,102.05126999999993,86.15380900000036,101.9228520000006,103.84619099999964,102.17968800000017
306,96.9228520000006,102.05126999999993,102.56396500000028,116.6665039999998,117.43603499999972,103.3334960000002,110.25634799999989,97.43603499999972,101.0258789999998,100.89746099999957,85.51269500000035,102.69238299999961,104.87158199999976,101.15380900000036
307,102.05126999999993,102.17968800000017,102.69238299999961,116.2822270000006,106.6665039999998,105.25634799999989,112.69238299999961,98.9741210000002,100.12841800000024,99.61523400000078,84.10253900000043,102.82031300000017,107.17968800000017,100.89746099999957
308,103.0771479999994,102.17968800000017,102.17968800000017,116.41015599999992,96.0258789999998,107.43603499999972,112.43603499999972,98.58984400000008,99.48730499999965,98.58984400000008,83.0771479999994,102.17968800000017,109.74365200000011,101.53857400000015
309,99.61523400000078,101.41015599999992,101.41015599999992,116.6665039999998,92.56396500000028,109.74365200000011,110.0,96.53857400000015,99.23095699999976,98.0771479999994,82.82031300000017,101.2822270000006,111.15380900000036,102.17968800000017
310,94.61523400000078,100.25634799999989,100.89746099999957,116.53857400000015,98.46142599999985,112.05126999999993,108.58984400000008,95.38476599999922,100.12841800000024,97.82031300000017,84.23095699999976,101.41015599999992,111.15380900000036,102.56396500000028
311,91.9228520000006,100.0,101.53857400000015,115.89746099999957,109.61523400000078,113.0771479999994,110.64111300000059,98.46142599999985,103.46142599999985,98.46142599999985,87.56396500000028,103.3334960000002,111.6665039999998,103.0771479999994
312,93.3334960000002,101.41015599999992,103.3334960000002,114.61523400000078,118.0771479999994,111.41015599999992,115.89746099999957,105.76904300000024,108.9741210000002,100.76904300000024,91.6665039999998,106.0258789999998,114.35888699999941,103.84619099999964
313,96.79492200000004,102.56396500000028,105.0,113.0771479999994,118.20507799999996,107.17968800000017,120.38476599999922,113.46142599999985,114.35888699999941,104.35888699999941,94.35888699999941,106.79492200000004,117.82031300000017,103.84619099999964
314,98.3334960000002,101.6665039999998,104.61523400000078,111.15380900000036,110.12841800000024,102.43603499999972,120.12841800000024,116.15380900000036,116.6665039999998,107.05126999999993,93.3334960000002,104.23095699999976,118.46142599999985,102.17968800000017
315,96.2822270000006,98.84619099999964,102.05126999999993,109.87158199999976,100.12841800000024,100.38476599999922,114.74365200000011,112.69238299999961,115.25634799999989,107.82031300000017,88.9741210000002,100.25634799999989,115.51269500000035,99.87158199999976
316,93.46142599999985,96.79492200000004,99.61523400000078,110.25634799999989,96.0258789999998,102.82031300000017,108.46142599999985,107.17968800000017,112.94873000000007,108.46142599999985,84.87158199999976,98.58984400000008,112.43603499999972,100.25634799999989
317,93.9741210000002,98.20507799999996,99.48730499999965,113.0771479999994,100.76904300000024,108.7177729999994,106.41015599999992,105.38476599999922,113.7177729999994,111.53857400000015,85.76904300000024,101.6665039999998,113.84619099999964,105.25634799999989
318,98.46142599999985,102.30761700000039,102.17968800000017,117.30761700000039,110.76904300000024,113.9741210000002,110.0,109.61523400000078,118.7177729999994,117.43603499999972,92.43603499999972,108.0771479999994,120.25634799999989,112.05126999999993
319,103.58984400000008,106.41015599999992,105.38476599999922,120.38476599999922,119.35888699999941,115.51269500000035,116.2822270000006,117.17968800000017,125.0,122.69238299999961,100.76904300000024,113.3334960000002,127.30761700000039,115.51269500000035
320,105.38476599999922,108.20507799999996,106.2822270000006,120.64111300000059,122.30761700000039,113.20507799999996,120.64111300000059,123.0771479999994,129.23095699999976,123.84619099999964,104.48730499999965,113.58984400000008,130.38476599999922,112.82031300000017
321,102.82031300000017,107.30761700000039,103.84619099999964,118.3334960000002,120.51269500000035,110.0,120.64111300000059,124.87158199999976,129.87158199999976,119.87158199999976,101.2822270000006,108.9741210000002,128.7177729999994,106.2822270000006
322,98.0771479999994,105.0,99.87158199999976,115.38476599999922,117.56396500000028,109.48730499999965,117.69238299999961,123.7177729999994,128.9741210000002,113.84619099999964,94.87158199999976,103.58984400000008,126.15380900000036,101.9228520000006
323,94.48730499999965,102.56396500000028,96.9228520000006,113.20507799999996,116.41015599999992,112.30761700000039,115.0,122.56396500000028,129.61523400000078,110.89746099999957,91.79492200000004,101.9228520000006,127.43603499999972,103.84619099999964
324,94.74365200000011,101.53857400000015,97.30761700000039,112.82031300000017,117.69238299999961,116.2822270000006,115.0,123.84619099999964,133.20507799999996,114.74365200000011,96.15380900000036,105.89746099999957,135.0,111.9228520000006
325,98.46142599999985,102.30761700000039,100.89746099999957,114.10253900000043,119.87158199999976,118.3334960000002,117.94873000000007,127.17968800000017,138.3334960000002,124.87158199999976,105.76904300000024,112.56396500000028,145.6411130000006,121.41015599999992
326,102.94873000000007,104.23095699999976,105.51269500000035,116.41015599999992,121.15380900000036,117.30761700000039,121.9228520000006,129.7436520000001,142.05126999999993,136.6665039999998,115.12841800000024,116.9228520000006,153.58984400000008,127.17968800000017
327,105.25634799999989,105.51269500000035,108.3334960000002,118.58984400000008,120.64111300000059,114.10253900000043,123.9741210000002,129.10253900000043,141.6665039999998,143.3334960000002,118.46142599999985,115.64111300000059,154.23095699999976,126.53857400000015
328,103.9741210000002,104.74365200000011,107.94873000000007,119.35888699999941,118.0771479999994,110.76904300000024,122.05126999999993,124.74365200000011,136.6665039999998,140.6411130000006,114.61523400000078,109.74365200000011,147.6923829999996,120.89746099999957
329,98.84619099999964,101.9228520000006,104.61523400000078,117.17968800000017,113.84619099999964,109.35888699999941,116.6665039999998,118.20507799999996,129.3588869999994,129.10253900000043,106.15380900000036,102.94873000000007,137.17968800000017,113.20507799999996
330,90.76904300000024,97.17968800000017,99.23095699999976,111.53857400000015,109.10253900000043,110.64111300000059,109.87158199999976,111.0258789999998,122.43603499999972,114.23095699999976,96.15380900000036,98.84619099999964,126.2822270000006,105.76904300000024
331,81.79492200000004,91.2822270000006,93.84619099999964,104.35888699999941,105.64111300000059,113.7177729999994,104.61523400000078,104.61523400000078,117.56396500000028,102.94873000000007,86.79492200000004,98.3334960000002,117.30761700000039,99.10253900000043
332,74.35888699999941,85.25634799999989,90.25634799999989,99.35888699999941,105.12841800000024,116.0258789999998,102.30761700000039,100.0,114.35888699999941,98.84619099999964,79.35888699999941,100.25634799999989,110.64111300000059,92.94873000000007
333,70.64111300000059,80.51269500000035,89.48730499999965,98.9741210000002,107.56396500000028,116.53857400000015,103.46142599999985,98.46142599999985,111.79492200000004,100.25634799999989,75.25634799999989,102.56396500000028,106.2822270000006,88.20507799999996
334,70.38476599999922,78.46142599999985,90.51269500000035,102.56396500000028,111.53857400000015,115.25634799999989,107.17968800000017,100.25634799999989,110.0,102.69238299999961,75.38476599999922,103.20507799999996,104.35888699999941,86.6665039999998
335,72.17968800000017,79.74365200000011,92.94873000000007,107.30761700000039,115.25634799999989,113.84619099999964,111.53857400000015,104.35888699999941,110.0,102.82031300000017,79.74365200000011,102.05126999999993,105.0,88.7177729999994
336,75.0,84.35888699999941,95.89746099999957,111.15380900000036,118.20507799999996,113.84619099999964,114.74365200000011,108.84619099999964,113.0771479999994,101.6665039999998,87.17968800000017,100.12841800000024,107.82031300000017,93.3334960000002
337,79.48730499999965,91.9228520000006,99.61523400000078,114.23095699999976,120.51269500000035,114.61523400000078,116.2822270000006,113.0771479999994,119.23095699999976,102.82031300000017,95.89746099999957,99.87158199999976,112.17968800000017,98.7177729999994
338,86.53857400000015,101.41015599999992,103.7177729999994,118.9741210000002,122.94873000000007,115.12841800000024,117.30761700000039,118.3334960000002,126.79492200000004,109.61523400000078,104.10253900000043,102.69238299999961,118.20507799999996,104.87158199999976
339,95.89746099999957,111.0258789999998,107.69238299999961,126.53857400000015,125.38476599999922,114.74365200000011,119.35888699999941,125.12841800000024,134.23095699999976,121.53857400000015,111.0258789999998,108.46142599999985,126.41015599999992,111.9228520000006
340,103.84619099999964,117.56396500000028,110.12841800000024,135.51269500000035,126.6665039999998,112.94873000000007,122.56396500000028,131.79492200000004,139.48730499999965,133.0771479999994,116.0258789999998,114.48730499999965,134.7436520000001,119.10253900000043
341,106.15380900000036,117.05126999999993,109.23095699999976,142.05126999999993,125.12841800000024,110.12841800000024,125.25634799999989,133.7177729999994,140.2563479999999,137.6923829999996,117.69238299999961,117.05126999999993,138.3334960000002,122.17968800000017
342,100.38476599999922,109.10253900000043,105.25634799999989,142.43603499999972,120.12841800000024,106.79492200000004,124.87158199999976,127.94873000000007,135.2563479999999,132.43603499999972,114.48730499999965,114.23095699999976,132.94873000000007,117.43603499999972
343,88.7177729999994,98.0771479999994,99.87158199999976,136.6665039999998,114.23095699999976,104.10253900000043,120.51269500000035,116.9228520000006,125.38476599999922,120.89746099999957,107.17968800000017,107.17968800000017,119.87158199999976,105.38476599999922
344,77.82031300000017,91.0258789999998,96.53857400000015,128.84619099999964,111.53857400000015,102.94873000000007,114.87158199999976,107.43603499999972,115.89746099999957,110.38476599999922,99.61523400000078,100.38476599999922,106.0258789999998,91.9228520000006
345,73.58984400000008,91.9228520000006,97.30761700000039,124.23095699999976,113.9741210000002,104.10253900000043,111.41015599999992,105.64111300000059,111.9228520000006,106.79492200000004,95.89746099999957,97.56396500000028,99.61523400000078,85.25634799999989
346,77.94873000000007,97.94873000000007,101.15380900000036,125.25634799999989,118.9741210000002,107.05126999999993,111.2822270000006,111.0258789999998,115.25634799999989,109.61523400000078,97.05126999999993,99.74365200000011,102.82031300000017,88.84619099999964
347,86.6665039999998,102.94873000000007,104.48730499999965,130.12841800000024,121.6665039999998,110.51269500000035,112.82031300000017,118.0771479999994,122.56396500000028,114.10253900000043,100.64111300000059,104.10253900000043,110.89746099999957,98.7177729999994
348,93.9741210000002,103.3334960000002,104.48730499999965,134.7436520000001,119.61523400000078,113.0771479999994,113.46142599999985,121.15380900000036,128.58984400000008,116.53857400000015,102.82031300000017,106.53857400000015,117.05126999999993,107.94873000000007
349,97.05126999999993,101.53857400000015,101.41015599999992,136.53857400000015,115.76904300000024,114.61523400000078,112.82031300000017,120.0,131.0258789999998,118.0771479999994,102.94873000000007,105.25634799999989,118.7177729999994,112.69238299999961
350,97.69238299999961,102.69238299999961,99.23095699999976,136.0258789999998,115.12841800000024,115.38476599999922,112.43603499999972,119.23095699999976,131.6665039999998,122.43603499999972,103.20507799999996,101.79492200000004,118.84619099999964,114.23095699999976
351,99.35888699999941,109.10253900000043,101.0258789999998,135.2563479999999,118.58984400000008,115.64111300000059,113.7177729999994,122.69238299999961,133.20507799999996,130.2563479999999,106.41015599999992,99.74365200000011,121.9228520000006,116.41015599999992
352,102.82031300000017,117.05126999999993,106.6665039999998,135.38476599999922,121.2822270000006,115.12841800000024,116.0258789999998,129.23095699999976,136.0258789999998,137.3076170000004,111.9228520000006,101.53857400000015,127.82031300000017,120.25634799999989
353,105.25634799999989,120.12841800000024,111.79492200000004,135.38476599999922,117.43603499999972,113.9741210000002,116.41015599999992,132.6923829999996,137.3076170000004,137.17968800000017,116.53857400000015,106.0258789999998,132.3076170000004,123.0771479999994
354,104.87158199999976,115.64111300000059,112.69238299999961,134.48730499999965,107.56396500000028,112.30761700000039,112.82031300000017,128.9741210000002,134.48730499999965,128.20507799999996,117.82031300000017,110.25634799999989,131.15380900000036,123.20507799999996
355,103.46142599999985,107.43603499999972,109.35888699999941,132.94873000000007,98.7177729999994,111.2822270000006,105.89746099999957,120.76904300000024,128.58984400000008,115.76904300000024,116.41015599999992,111.6665039999998,125.38476599999922,121.6665039999998
356,104.35888699999941,102.82031300000017,104.35888699999941,131.79492200000004,98.0771479999994,111.41015599999992,99.10253900000043,115.0,123.58984400000008,108.3334960000002,115.0,110.64111300000059,120.38476599999922,121.41015599999992
357,108.46142599999985,105.89746099999957,100.76904300000024,131.2822270000006,106.41015599999992,112.56396500000028,96.2822270000006,116.6665039999998,123.84619099999964,110.76904300000024,114.87158199999976,108.9741210000002,120.25634799999989,123.3334960000002
358,113.20507799999996,113.84619099999964,100.38476599999922,130.0,118.20507799999996,113.9741210000002,98.46142599999985,124.10253900000043,130.12841800000024,121.15380900000036,115.12841800000024,108.0771479999994,124.87158199999976,126.0258789999998
359,115.51269500000035,120.51269500000035,103.58984400000008,128.20507799999996,126.53857400000015,114.35888699999941,103.9741210000002,132.3076170000004,139.48730499999965,133.0771479999994,115.38476599999922,108.7177729999994,130.6411130000006,127.30761700000039
360,115.51269500000035,122.17968800000017,109.23095699999976,128.20507799999996,128.46142599999985,113.9741210000002,110.12841800000024,137.17968800000017,147.94873000000007,141.53857400000015,117.17968800000017,111.15380900000036,134.3588869999994,126.53857400000015
361,116.15380900000036,120.25634799999989,115.12841800000024,131.6665039999998,125.25634799999989,113.7177729999994,114.87158199999976,138.9741210000002,153.3334960000002,145.38476599999922,121.9228520000006,114.87158199999976,135.89746099999957,126.0258789999998
362,118.9741210000002,118.20507799999996,118.7177729999994,137.56396500000028,120.38476599999922,114.48730499999965,117.69238299999961,140.12841800000024,155.2563479999999,146.6665039999998,129.10253900000043,118.46142599999985,136.41015599999992,127.94873000000007
363,122.43603499999972,117.69238299999961,118.3334960000002,141.79492200000004,115.76904300000024,115.51269500000035,118.7177729999994,141.9228520000006,154.23095699999976,146.79492200000004,134.61523400000078,119.87158199999976,136.15380900000036,132.05126999999993
364,122.82031300000017,117.17968800000017,113.9741210000002,140.6411130000006,111.53857400000015,115.0,118.84619099999964,142.3076170000004,150.0,144.3588869999994,133.9741210000002,117.94873000000007,133.84619099999964,134.3588869999994
365,118.0771479999994,114.10253900000043,106.9228520000006,134.10253900000043,107.30761700000039,112.05126999999993,118.0771479999994,138.3334960000002,142.3076170000004,137.43603499999972,125.76904300000024,113.46142599999985,127.82031300000017,130.6411130000006
366,109.61523400000078,108.3334960000002,99.61523400000078,125.89746099999957,103.84619099999964,107.94873000000007,115.89746099999957,129.61523400000078,132.56396500000028,126.79492200000004,113.0771479999994,108.3334960000002,118.84619099999964,120.12841800000024
367,100.89746099999957,103.0771479999994,94.10253900000043,120.64111300000059,103.0771479999994,105.12841800000024,112.30761700000039,119.87158199999976,123.7177729999994,116.41015599999992,101.9228520000006,104.10253900000043,110.0,107.17968800000017
368,95.89746099999957,101.9228520000006,91.53857400000015,120.25634799999989,106.9228520000006,105.38476599999922,108.46142599999985,113.84619099999964,118.46142599999985,110.51269500000035,96.6665039999998,101.79492200000004,104.48730499999965,98.7177729999994
369,95.76904300000024,105.51269500000035,91.9228520000006,123.3334960000002,113.46142599999985,108.3334960000002,106.53857400000015,113.58984400000008,117.05126999999993,110.0,97.05126999999993,101.0258789999998,103.20507799999996,98.84619099999964
370,98.84619099999964,111.0258789999998,93.9741210000002,126.79492200000004,118.3334960000002,110.89746099999957,107.30761700000039,116.6665039999998,118.0771479999994,111.53857400000015,99.23095699999976,101.0258789999998,103.84619099999964,105.76904300000024
371,101.2822270000006,114.74365200000011,95.89746099999957,127.82031300000017,117.82031300000017,110.51269500000035,110.0,118.84619099999964,119.10253900000043,111.15380900000036,100.0,101.2822270000006,104.23095699999976,113.3334960000002
372,101.0258789999998,115.0,97.05126999999993,126.53857400000015,113.0771479999994,107.17968800000017,112.94873000000007,118.20507799999996,119.74365200000011,108.20507799999996,99.48730499999965,102.05126999999993,104.61523400000078,117.05126999999993
373,98.9741210000002,113.46142599999985,97.56396500000028,125.25634799999989,110.0,104.48730499999965,114.74365200000011,116.2822270000006,120.64111300000059,105.89746099999957,100.89746099999957,103.84619099999964,107.56396500000028,117.30761700000039
374,98.20507799999996,112.82031300000017,98.46142599999985,126.41015599999992,113.20507799999996,105.64111300000059,114.74365200000011,116.41015599999992,123.0771479999994,108.46142599999985,107.17968800000017,106.6665039999998,113.84619099999964,117.43603499999972
375,100.51269500000035,114.74365200000011,100.38476599999922,131.15380900000036,122.17968800000017,110.25634799999989,114.10253900000043,120.89746099999957,127.17968800000017,116.6665039999998,117.43603499999972,109.87158199999976,121.41015599999992,120.0
376,105.12841800000024,119.23095699999976,103.20507799999996,137.17968800000017,131.41015599999992,114.74365200000011,114.23095699999976,128.20507799999996,131.6665039999998,127.17968800000017,127.30761700000039,112.69238299999961,127.17968800000017,124.61523400000078
377,110.25634799999989,125.0,106.53857400000015,141.41015599999992,135.51269500000035,115.38476599999922,115.51269500000035,135.0,135.51269500000035,135.12841800000024,132.6923829999996,114.35888699999941,129.48730499999965,129.61523400000078
378,114.74365200000011,130.0,110.64111300000059,142.6923829999996,133.46142599999985,111.6665039999998,117.43603499999972,138.20507799999996,139.10253900000043,137.82031300000017,133.20507799999996,114.74365200000011,130.2563479999999,133.3334960000002
379,118.46142599999985,132.82031300000017,115.0,143.0771479999994,128.3334960000002,106.79492200000004,118.58984400000008,137.6923829999996,143.0771479999994,136.15380900000036,131.6665039999998,114.35888699999941,131.79492200000004,135.51269500000035
380,120.76904300000024,132.3076170000004,117.94873000000007,144.7436520000001,124.61523400000078,104.74365200000011,117.82031300000017,135.2563479999999,147.17968800000017,133.46142599999985,130.6411130000006,114.23095699999976,135.12841800000024,135.89746099999957
381,120.25634799999989,128.84619099999964,117.94873000000007,147.6923829999996,124.74365200000011,106.6665039999998,115.51269500000035,133.9741210000002,149.87158199999976,132.94873000000007,131.0258789999998,114.61523400000078,139.10253900000043,134.48730499999965
382,116.2822270000006,124.35888699999941,115.0,149.48730499999965,128.0771479999994,110.64111300000059,113.0771479999994,135.6411130000006,150.2563479999999,135.89746099999957,131.9228520000006,115.25634799999989,142.05126999999993,132.17968800000017
383,111.0258789999998,121.53857400000015,111.53857400000015,148.58984400000008,132.56396500000028,113.7177729999994,112.56396500000028,140.0,148.9741210000002,140.38476599999922,132.94873000000007,115.25634799999989,143.84619099999964,130.38476599999922
