,EEG.AF3,EEG.F7,EEG.F3,EEG.FC5,EEG.T7,EEG.P7,EEG.O1,EEG.O2,EEG.P8,EEG.T8,EEG.FC6,EEG.F4,EEG.F8,EEG.AF4
0,116.0258789999998,126.6665039999998,145.2563479999999,193.84619099999964,113.3334960000002,114.61523400000078,134.23095699999976,125.25634799999989,114.74365200000011,113.58984400000008,112.17968800000017,114.74365200000011,96.79492200000004,119.23095699999976
1,111.2822270000006,117.17968800000017,141.15380900000036,189.87158199999976,101.79492200000004,114.87158199999976,135.76904300000024,122.94873000000007,112.82031300000017,112.56396500000028,110.25634799999989,114.87158199999976,90.64111300000059,112.56396500000028
2,109.48730499999965,109.35888699999941,140.0,189.3588869999994,94.23095699999976,115.76904300000024,134.61523400000078,122.17968800000017,113.84619099999964,118.84619099999964,111.79492200000004,115.51269500000035,86.9228520000006,109.35888699999941
3,111.53857400000015,108.20507799999996,142.6923829999996,192.6923829999996,94.61523400000078,116.79492200000004,132.56396500000028,122.94873000000007,119.48730499999965,131.2822270000006,117.17968800000017,116.41015599999992,89.10253900000043,112.43603499999972
4,115.25634799999989,113.46142599999985,148.3334960000002,196.79492200000004,101.15380900000036,117.30761700000039,131.2822270000006,123.7177729999994,127.56396500000028,143.9741210000002,123.84619099999964,117.56396500000028,95.51269500000035,120.12841800000024
5,116.9228520000006,118.7177729999994,152.94873000000007,197.3076170000004,106.53857400000015,117.05126999999993,131.41015599999992,122.43603499999972,132.94873000000007,148.58984400000008,127.82031300000017,118.3334960000002,100.0,126.2822270000006
6,114.10253900000043,116.79492200000004,153.0771479999994,191.6665039999998,104.35888699999941,116.2822270000006,131.9228520000006,118.3334960000002,130.89746099999957,141.15380900000036,126.53857400000015,118.3334960000002,96.9228520000006,125.51269500000035
7,106.6665039999998,105.76904300000024,148.20507799999996,181.6665039999998,94.35888699999941,115.51269500000035,131.9228520000006,113.84619099999964,122.05126999999993,125.89746099999957,120.89746099999957,117.05126999999993,86.2822270000006,117.69238299999961
8,97.69238299999961,91.53857400000015,140.6411130000006,173.20507799999996,82.56396500000028,115.25634799999989,131.6665039999998,112.17968800000017,112.30761700000039,112.82031300000017,114.10253900000043,114.48730499999965,73.7177729999994,107.82031300000017
9,91.53857400000015,83.0771479999994,134.3588869999994,171.79492200000004,76.0258789999998,115.76904300000024,131.79492200000004,115.38476599999922,107.56396500000028,110.12841800000024,110.12841800000024,111.79492200000004,66.15380900000036,101.2822270000006
10,91.0258789999998,85.25634799999989,132.82031300000017,178.46142599999985,78.46142599999985,116.79492200000004,132.94873000000007,122.30761700000039,110.64111300000059,118.46142599999985,111.2822270000006,110.12841800000024,67.05126999999993,101.0258789999998
11,95.64111300000059,95.12841800000024,137.3076170000004,188.9741210000002,87.30761700000039,117.94873000000007,134.3588869999994,130.12841800000024,119.74365200000011,131.15380900000036,116.53857400000015,110.64111300000059,74.35888699999941,106.0258789999998
12,102.43603499999972,105.0,144.7436520000001,196.9228520000006,96.41015599999992,118.20507799999996,134.48730499999965,134.87158199999976,129.7436520000001,140.0,122.69238299999961,113.0771479999994,81.9228520000006,112.82031300000017
13,108.0771479999994,108.20507799999996,150.38476599999922,198.7177729999994,100.51269500000035,117.17968800000017,132.6923829999996,134.48730499999965,135.12841800000024,141.9228520000006,126.6665039999998,115.38476599999922,84.35888699999941,118.46142599999985
14,111.53857400000015,104.61523400000078,151.0258789999998,195.6411130000006,98.84619099999964,114.87158199999976,129.7436520000001,129.87158199999976,133.7177729999994,140.6411130000006,127.82031300000017,115.89746099999957,81.9228520000006,121.41015599999992
15,113.84619099999964,99.61523400000078,148.3334960000002,193.9741210000002,95.38476599999922,112.69238299999961,128.0771479999994,125.89746099999957,129.10253900000043,142.6923829999996,127.69238299999961,115.0,79.87158199999976,123.3334960000002
16,116.6665039999998,99.10253900000043,146.53857400000015,198.9741210000002,94.35888699999941,112.05126999999993,128.9741210000002,126.53857400000015,127.43603499999972,151.53857400000015,128.58984400000008,115.0,83.58984400000008,126.41015599999992
17,120.64111300000059,105.25634799999989,148.20507799999996,211.0258789999998,97.30761700000039,113.7177729999994,131.79492200000004,131.41015599999992,131.6665039999998,164.10253900000043,130.76904300000024,117.43603499999972,93.0771479999994,131.6665039999998
18,124.48730499999965,114.74365200000011,152.56396500000028,224.48730499999965,101.2822270000006,116.0258789999998,133.9741210000002,136.2822270000006,139.10253900000043,173.58984400000008,133.0771479999994,121.15380900000036,103.46142599999985,137.6923829999996
19,127.43603499999972,121.6665039999998,156.79492200000004,231.9228520000006,101.6665039999998,116.6665039999998,133.46142599999985,136.2822270000006,143.3334960000002,173.58984400000008,134.48730499999965,123.58984400000008,109.61523400000078,142.56396500000028
20,129.61523400000078,122.30761700000039,158.84619099999964,230.6411130000006,96.41015599999992,114.74365200000011,130.76904300000024,130.89746099999957,140.89746099999957,163.9741210000002,135.2563479999999,123.84619099999964,111.53857400000015,145.76904300000024
21,131.9228520000006,117.17968800000017,158.9741210000002,223.9741210000002,87.94873000000007,111.6665039999998,128.84619099999964,124.23095699999976,133.7177729999994,150.51269500000035,136.9228520000006,122.94873000000007,113.0771479999994,148.84619099999964
22,135.89746099999957,110.51269500000035,159.10253900000043,217.94873000000007,81.15380900000036,109.74365200000011,129.3588869999994,121.0258789999998,126.79492200000004,140.89746099999957,140.12841800000024,122.30761700000039,119.10253900000043,153.46142599999985
23,141.79492200000004,107.17968800000017,161.2822270000006,217.17968800000017,79.23095699999976,110.0,131.41015599999992,122.94873000000007,124.10253900000043,140.12841800000024,145.2563479999999,122.69238299999961,131.2822270000006,160.12841800000024
24,149.7436520000001,110.76904300000024,165.6411130000006,222.6923829999996,81.41015599999992,112.17968800000017,132.05126999999993,127.30761700000039,126.0258789999998,147.6923829999996,151.6665039999998,124.23095699999976,146.2822270000006,168.3334960000002
25,159.3588869999994,122.82031300000017,170.2563479999999,232.43603499999972,84.48730499999965,114.74365200000011,129.3588869999994,129.87158199999976,129.3588869999994,158.58984400000008,157.82031300000017,126.2822270000006,158.3334960000002,177.56396500000028
26,170.38476599999922,142.05126999999993,173.9741210000002,243.3334960000002,85.25634799999989,116.15380900000036,124.48730499999965,128.7177729999994,129.61523400000078,166.6665039999998,161.6665039999998,128.0771479999994,164.10253900000043,187.3076170000004
27,182.17968800000017,164.3588869999994,176.2822270000006,253.58984400000008,83.7177729999994,116.15380900000036,120.12841800000024,124.61523400000078,124.74365200000011,167.82031300000017,161.9228520000006,129.3588869999994,164.10253900000043,196.79492200000004
28,193.46142599999985,186.0258789999998,177.56396500000028,263.0771479999994,81.6665039999998,115.25634799999989,117.43603499999972,119.48730499999965,116.53857400000015,161.41015599999992,158.9741210000002,130.12841800000024,161.6665039999998,204.7436520000001
29,203.20507799999996,204.61523400000078,178.0771479999994,272.17968800000017,81.0258789999998,114.48730499999965,116.15380900000036,114.61523400000078,108.58984400000008,150.38476599999922,154.10253900000043,130.76904300000024,159.10253900000043,209.61523400000078
30,210.51269500000035,220.2563479999999,177.94873000000007,280.51269500000035,81.15380900000036,114.48730499999965,115.12841800000024,110.0,103.84619099999964,138.7177729999994,148.9741210000002,130.89746099999957,155.51269500000035,211.53857400000015
31,215.89746099999957,234.7436520000001,178.3334960000002,287.05126999999993,81.6665039999998,115.38476599999922,115.0,105.38476599999922,102.43603499999972,129.87158199999976,144.3588869999994,130.2563479999999,148.9741210000002,212.17968800000017
32,220.6411130000006,250.0,180.12841800000024,291.15380900000036,83.20507799999996,116.53857400000015,116.9228520000006,101.41015599999992,102.56396500000028,125.89746099999957,140.76904300000024,129.3588869999994,138.9741210000002,213.58984400000008
33,226.2822270000006,266.79492200000004,183.84619099999964,294.3588869999994,86.79492200000004,117.05126999999993,121.15380900000036,98.9741210000002,101.9228520000006,127.05126999999993,138.46142599999985,129.23095699999976,128.20507799999996,216.9228520000006
34,233.46142599999985,284.6152340000008,188.9741210000002,299.3588869999994,91.79492200000004,116.9228520000006,125.89746099999957,98.84619099999964,100.0,131.2822270000006,137.17968800000017,130.51269500000035,119.87158199999976,222.43603499999972
35,240.89746099999957,303.3334960000002,193.3334960000002,307.4360349999997,96.0258789999998,116.41015599999992,128.7177729999994,100.25634799999989,97.94873000000007,135.2563479999999,135.76904300000024,132.82031300000017,115.76904300000024,228.3334960000002
36,247.05126999999993,322.94873000000007,194.87158199999976,317.6923829999996,98.3334960000002,116.0258789999998,127.56396500000028,102.43603499999972,96.79492200000004,135.6411130000006,133.58984400000008,134.23095699999976,113.0771479999994,231.9228520000006
37,250.6411130000006,343.84619099999964,193.20507799999996,327.17968800000017,99.87158199999976,116.0258789999998,123.46142599999985,103.84619099999964,96.9228520000006,131.79492200000004,130.2563479999999,132.3076170000004,106.9228520000006,231.53857400000015
38,251.2822270000006,363.7177729999994,189.7436520000001,333.7177729999994,102.43603499999972,116.2822270000006,119.10253900000043,104.10253900000043,98.3334960000002,125.76904300000024,125.64111300000059,127.17968800000017,93.9741210000002,227.3076170000004
39,249.10253900000043,378.3334960000002,186.0258789999998,335.76904300000024,106.2822270000006,116.79492200000004,117.43603499999972,103.46142599999985,100.89746099999957,120.25634799999989,119.10253900000043,121.41015599999992,74.74365200000011,220.51269500000035
40,243.84619099999964,384.23095699999976,182.3076170000004,333.84619099999964,110.25634799999989,117.43603499999972,118.9741210000002,102.30761700000039,103.7177729999994,116.79492200000004,109.87158199999976,117.82031300000017,53.0771479999994,212.43603499999972
41,235.89746099999957,382.5639650000003,177.94873000000007,330.12841800000024,112.82031300000017,117.69238299999961,121.15380900000036,100.0,103.84619099999964,115.0,98.46142599999985,116.79492200000004,33.46142599999985,203.58984400000008
42,226.9228520000006,379.48730499999965,172.56396500000028,327.3076170000004,113.7177729999994,116.9228520000006,121.15380900000036,95.76904300000024,98.84619099999964,112.82031300000017,87.56396500000028,117.05126999999993,18.974121000000196,194.87158199999976
43,218.9741210000002,381.2822270000006,167.6923829999996,327.5639650000003,113.9741210000002,115.0,118.20507799999996,90.38476599999922,89.35888699999941,108.0771479999994,79.74365200000011,117.05126999999993,10.0,187.94873000000007
44,213.46142599999985,389.48730499999965,165.2563479999999,330.89746099999957,113.7177729999994,113.20507799999996,114.74365200000011,85.38476599999922,78.7177729999994,99.35888699999941,75.12841800000024,116.53857400000015,3.717772999999397,183.58984400000008
45,210.51269500000035,400.3847659999992,165.2563479999999,333.9741210000002,112.56396500000028,112.56396500000028,113.7177729999994,82.05126999999993,71.15380900000036,87.94873000000007,71.2822270000006,116.0258789999998,-3.2050779999999577,181.0258789999998
46,208.7177729999994,408.46142599999985,166.41015599999992,332.4360349999997,110.25634799999989,113.3334960000002,115.0,80.25634799999989,67.94873000000007,77.94873000000007,65.76904300000024,115.51269500000035,-12.307617000000391,177.56396500000028
47,205.89746099999957,410.6411130000006,166.79492200000004,323.5898440000001,108.3334960000002,114.74365200000011,116.15380900000036,78.7177729999994,67.43603499999972,72.82031300000017,58.333496000000196,114.61523400000078,-22.820557000000008,170.76904300000024
48,200.0,406.79492200000004,164.48730499999965,309.23095699999976,108.0771479999994,115.89746099999957,113.7177729999994,76.41015599999992,66.41015599999992,71.79492200000004,49.61523400000078,112.94873000000007,-34.48706099999981,160.12841800000024
49,189.48730499999965,398.7177729999994,158.3334960000002,293.9741210000002,109.61523400000078,115.89746099999957,107.56396500000028,72.82031300000017,62.56396500000028,69.61523400000078,40.12841800000024,110.25634799999989,-47.435790999999426,146.6665039999998
50,175.51269500000035,389.23095699999976,149.61523400000078,281.6665039999998,112.43603499999972,115.12841800000024,100.76904300000024,68.84619099999964,56.79492200000004,61.666503999999804,30.641113000000587,106.79492200000004,-61.53857400000015,132.6923829999996
51,161.53857400000015,381.2822270000006,141.15380900000036,273.3334960000002,115.76904300000024,114.35888699999941,97.05126999999993,66.0258789999998,52.69238299999961,49.61523400000078,22.94873000000007,103.0771479999994,-74.23071300000038,121.15380900000036
52,151.0258789999998,377.6923829999996,135.89746099999957,267.94873000000007,118.7177729999994,114.10253900000043,97.43603499999972,65.51269500000035,53.974121000000196,40.76904300000024,18.717772999999397,100.51269500000035,-81.92309599999999,114.10253900000043
53,145.6411130000006,379.3588869999994,134.61523400000078,263.7177729999994,121.15380900000036,114.61523400000078,100.51269500000035,66.79492200000004,60.76904300000024,41.53857400000015,18.974121000000196,100.12841800000024,-82.30761700000039,111.0258789999998
54,144.48730499999965,385.0,135.38476599999922,258.5898440000001,123.7177729999994,115.76904300000024,103.58984400000008,68.58984400000008,69.74365200000011,51.153809000000365,22.43603499999972,101.79492200000004,-76.53857400000015,109.74365200000011
55,144.3588869999994,391.15380900000036,134.61523400000078,251.2822270000006,127.30761700000039,116.6665039999998,105.12841800000024,68.9741210000002,75.38476599999922,61.53857400000015,25.897460999999566,103.46142599999985,-68.84619099999964,106.9228520000006
56,141.79492200000004,393.7177729999994,130.2563479999999,241.6665039999998,132.17968800000017,116.2822270000006,104.23095699999976,66.41015599999992,73.84619099999964,63.974121000000196,25.128418000000238,103.0771479999994,-64.48706099999981,100.76904300000024
57,134.48730499999965,389.10253900000043,123.0771479999994,230.89746099999957,136.15380900000036,114.61523400000078,101.6665039999998,60.76904300000024,66.2822270000006,56.666503999999804,17.82031300000017,99.74365200000011,-66.53857400000015,91.53857400000015
58,123.58984400000008,378.0771479999994,116.0258789999998,220.38476599999922,136.53857400000015,113.20507799999996,98.58984400000008,53.46142599999985,57.69238299999961,44.48730499999965,5.512695000000349,94.61523400000078,-74.48706099999981,82.05126999999993
59,112.56396500000028,365.0,111.53857400000015,210.89746099999957,132.82031300000017,113.20507799999996,96.15380900000036,48.0771479999994,53.333496000000196,34.48730499999965,-6.41015600000037,89.61523400000078,-84.35888699999987,74.48730499999965
60,104.35888699999941,355.12841800000024,110.38476599999922,203.0771479999994,127.94873000000007,114.35888699999941,94.35888699999941,47.56396500000028,55.38476599999922,30.641113000000587,-12.435790999999426,86.41015599999992,-92.56420900000057,69.87158199999976
61,98.58984400000008,349.6152340000008,110.89746099999957,196.2822270000006,125.38476599999922,114.74365200000011,92.69238299999961,52.05126999999993,61.2822270000006,30.769043000000238,-10.897461000000021,85.51269500000035,-97.17944299999999,66.6665039999998
62,92.30761700000039,345.12841800000024,110.25634799999989,188.7177729999994,126.15380900000036,112.69238299999961,90.38476599999922,57.43603499999972,66.53857400000015,28.589844000000085,-5.897461000000021,86.53857400000015,-99.10253899999998,61.79492200000004
63,83.58984400000008,336.9228520000006,106.79492200000004,177.94873000000007,128.3334960000002,109.10253900000043,87.94873000000007,59.48730499999965,67.17968800000017,19.102539000000434,-4.358886999999868,87.56396500000028,-99.61547900000005,53.46142599999985
64,73.84619099999964,324.6152340000008,101.15380900000036,163.0771479999994,130.51269500000035,106.2822270000006,87.05126999999993,57.56396500000028,63.20507799999996,4.230956999999762,-8.71801800000003,86.9228520000006,-98.58984399999963,43.974121000000196
65,67.69238299999961,312.4360349999997,96.9228520000006,146.15380900000036,132.17968800000017,106.0258789999998,89.35888699999941,54.35888699999941,58.589844000000085,-8.58984399999963,-15.512939000000188,84.87158199999976,-93.84619099999964,38.333496000000196
66,67.94873000000007,304.87158199999976,96.9228520000006,130.51269500000035,133.58984400000008,108.46142599999985,95.25634799999989,53.974121000000196,58.333496000000196,-12.948729999999614,-17.564209000000574,83.58984400000008,-83.33325200000036,41.025878999999804
67,72.94873000000007,302.4360349999997,100.76904300000024,117.69238299999961,133.9741210000002,112.43603499999972,101.79492200000004,57.69238299999961,64.23095699999976,-8.333252000000357,-11.538574000000153,85.0,-67.82055700000001,50.76904300000024
68,77.82031300000017,301.4101559999999,104.87158199999976,106.53857400000015,132.3076170000004,115.76904300000024,105.0,63.333496000000196,73.3334960000002,-0.12841800000023795,0.256347999999889,88.3334960000002,-50.38452099999995,61.9228520000006
69,78.58984400000008,298.20507799999996,105.89746099999957,94.61523400000078,129.23095699999976,117.17968800000017,103.0771479999994,67.82031300000017,81.0258789999998,6.922852000000603,12.43603499999972,91.2822270000006,-34.10253899999998,67.69238299999961
70,75.38476599999922,291.2822270000006,104.35888699999941,80.64111300000059,126.6665039999998,116.0258789999998,97.94873000000007,69.35888699999941,84.74365200000011,11.666503999999804,21.025878999999804,92.69238299999961,-19.74365200000011,66.15380900000036
71,70.51269500000035,281.53857400000015,102.69238299999961,66.15380900000036,126.41015599999992,113.46142599999985,93.3334960000002,68.84619099999964,85.25634799999989,15.256347999999889,25.897460999999566,93.58984400000008,-6.025634999999966,60.38476599999922
72,66.15380900000036,269.7436520000001,102.82031300000017,53.589844000000085,127.82031300000017,110.25634799999989,91.79492200000004,67.82031300000017,85.25634799999989,17.17968800000017,28.589844000000085,94.74365200000011,8.333496000000196,55.38476599999922
73,62.94873000000007,257.05126999999993,104.23095699999976,43.846190999999635,129.48730499999965,107.17968800000017,92.56396500000028,67.43603499999972,85.89746099999957,16.153809000000365,30.897460999999566,95.64111300000059,22.82031300000017,53.7177729999994
74,60.12841800000024,244.10253900000043,105.0,35.38476599999922,130.0,104.23095699999976,93.20507799999996,67.05126999999993,86.41015599999992,12.17968800000017,33.20507799999996,94.74365200000011,36.2822270000006,54.48730499999965
75,56.79492200000004,231.9228520000006,103.9741210000002,26.794922000000042,128.84619099999964,101.79492200000004,91.53857400000015,65.89746099999957,85.25634799999989,9.358886999999413,34.74365200000011,91.9228520000006,47.82031300000017,55.25634799999989
76,53.20507799999996,221.9228520000006,101.53857400000015,19.871581999999762,127.05126999999993,101.15380900000036,87.82031300000017,64.10253900000043,82.82031300000017,12.948730000000069,36.153809000000365,89.10253900000043,57.56396500000028,54.48730499999965
77,50.76904300000024,215.76904300000024,99.74365200000011,18.461425999999847,127.30761700000039,102.82031300000017,85.38476599999922,64.10253900000043,81.41015599999992,24.615234000000783,39.48730499999965,88.46142599999985,66.6665039999998,53.20507799999996
78,50.64111300000059,214.10253900000043,99.87158199999976,24.615234000000783,131.0258789999998,106.0258789999998,87.43603499999972,68.20507799999996,83.9741210000002,39.35888699999941,46.79492200000004,90.64111300000059,75.76904300000024,54.23095699999976
79,52.43603499999972,214.3588869999994,101.41015599999992,34.48730499999965,136.6665039999998,108.58984400000008,93.58984400000008,75.89746099999957,90.76904300000024,48.974121000000196,57.17968800000017,93.9741210000002,84.10253900000043,57.43603499999972
80,53.46142599999985,212.17968800000017,102.69238299999961,41.53857400000015,139.48730499999965,108.3334960000002,99.35888699999941,83.46142599999985,98.58984400000008,49.102539000000434,66.41015599999992,95.89746099999957,89.10253900000043,60.38476599999922
81,52.56396500000028,204.48730499999965,102.17968800000017,41.025878999999804,136.15380900000036,105.76904300000024,100.76904300000024,86.79492200000004,103.46142599999985,42.69238299999961,70.64111300000059,94.87158199999976,89.74365200000011,60.64111300000059
82,51.025878999999804,192.43603499999972,100.0,34.35888699999941,128.20507799999996,103.20507799999996,97.94873000000007,86.0258789999998,102.82031300000017,37.82031300000017,69.74365200000011,92.30761700000039,87.43603499999972,58.0771479999994
83,51.153809000000365,181.41015599999992,97.56396500000028,27.82031300000017,121.15380900000036,103.84619099999964,95.12841800000024,85.38476599999922,97.82031300000017,40.25634799999989,67.05126999999993,90.51269500000035,85.12841800000024,55.897460999999566
84,53.333496000000196,175.0,96.6665039999998,26.922852000000603,119.87158199999976,108.58984400000008,96.6665039999998,89.48730499999965,93.0771479999994,50.0,67.05126999999993,91.79492200000004,84.48730499999965,57.17968800000017
85,55.12841800000024,172.3076170000004,97.69238299999961,32.43603499999972,124.23095699999976,114.87158199999976,103.20507799999996,98.7177729999994,93.46142599999985,61.79492200000004,71.79492200000004,95.64111300000059,85.64111300000059,61.9228520000006
86,54.102539000000434,169.23095699999976,100.0,39.74365200000011,129.48730499999965,118.20507799999996,110.76904300000024,108.3334960000002,100.76904300000024,70.0,79.48730499999965,99.87158199999976,87.56396500000028,66.41015599999992
87,50.64111300000059,163.0771479999994,101.79492200000004,43.974121000000196,131.0258789999998,116.53857400000015,114.35888699999941,112.94873000000007,111.41015599999992,71.9228520000006,86.9228520000006,101.79492200000004,89.10253900000043,67.30761700000039
88,47.17968800000017,154.61523400000078,102.30761700000039,43.333496000000196,128.3334960000002,111.2822270000006,112.05126999999993,110.76904300000024,119.35888699999941,68.84619099999964,91.15380900000036,100.51269500000035,90.12841800000024,63.589844000000085
89,45.897460999999566,147.17968800000017,101.9228520000006,40.76904300000024,125.12841800000024,106.2822270000006,106.53857400000015,104.74365200000011,120.89746099999957,63.7177729999994,92.43603499999972,97.69238299999961,91.9228520000006,58.589844000000085
90,46.79492200000004,143.0771479999994,101.79492200000004,40.25634799999989,125.38476599999922,104.61523400000078,102.30761700000039,99.48730499999965,116.0258789999998,59.35888699999941,92.30761700000039,96.2822270000006,94.61523400000078,56.153809000000365
91,48.589844000000085,141.9228520000006,101.9228520000006,42.17968800000017,129.10253900000043,106.41015599999992,101.9228520000006,98.3334960000002,108.46142599999985,57.05126999999993,91.53857400000015,97.17968800000017,96.6665039999998,57.05126999999993
92,49.23095699999976,140.51269500000035,101.53857400000015,43.589844000000085,131.53857400000015,109.10253900000043,103.46142599999985,100.25634799999989,101.9228520000006,57.30761700000039,89.35888699999941,98.9741210000002,95.51269500000035,58.7177729999994
93,48.46142599999985,135.6411130000006,99.87158199999976,41.53857400000015,128.3334960000002,109.87158199999976,103.84619099999964,101.9228520000006,98.46142599999985,60.51269500000035,85.76904300000024,99.35888699999941,89.87158199999976,58.20507799999996
94,47.43603499999972,126.6665039999998,97.82031300000017,37.30761700000039,119.87158199999976,107.94873000000007,101.79492200000004,100.76904300000024,97.82031300000017,67.05126999999993,82.56396500000028,98.3334960000002,83.0771479999994,55.25634799999989
95,48.0771479999994,117.17968800000017,97.69238299999961,36.410155999999915,112.82031300000017,105.25634799999989,99.61523400000078,97.94873000000007,99.48730499999965,76.41015599999992,82.30761700000039,97.56396500000028,80.38476599999922,53.0771479999994
96,51.2822270000006,111.9228520000006,100.76904300000024,42.69238299999961,113.84619099999964,105.12841800000024,100.51269500000035,96.2822270000006,101.79492200000004,85.64111300000059,86.79492200000004,98.46142599999985,84.87158199999976,54.87158199999976
97,55.64111300000059,113.0771479999994,106.2822270000006,55.0,123.3334960000002,108.84619099999964,105.51269500000035,97.69238299999961,103.46142599999985,90.51269500000035,94.61523400000078,100.51269500000035,94.74365200000011,61.153809000000365
98,58.589844000000085,117.94873000000007,110.76904300000024,66.53857400000015,133.7177729999994,113.9741210000002,111.6665039999998,100.76904300000024,103.58984400000008,88.0771479999994,101.6665039999998,101.79492200000004,104.10253900000043,68.58984400000008
99,58.46142599999985,121.0258789999998,111.2822270000006,71.15380900000036,136.41015599999992,116.6665039999998,114.10253900000043,102.43603499999972,102.69238299999961,79.61523400000078,104.48730499999965,101.41015599999992,107.17968800000017,72.82031300000017
100,56.666503999999804,119.48730499999965,107.56396500000028,67.43603499999972,129.48730499999965,115.0,110.51269500000035,100.76904300000024,102.05126999999993,71.15380900000036,102.69238299999961,100.12841800000024,103.0771479999994,72.69238299999961
101,56.025878999999804,114.35888699999941,102.94873000000007,60.38476599999922,119.87158199999976,111.15380900000036,103.46142599999985,97.94873000000007,102.56396500000028,67.94873000000007,99.87158199999976,99.23095699999976,95.64111300000059,70.0
102,58.46142599999985,109.74365200000011,100.89746099999957,55.51269500000035,115.89746099999957,108.3334960000002,97.69238299999961,97.43603499999972,104.10253900000043,70.64111300000059,98.9741210000002,99.48730499999965,90.25634799999989,67.82031300000017
103,61.53857400000015,107.56396500000028,101.79492200000004,55.38476599999922,119.10253900000043,108.7177729999994,95.76904300000024,99.61523400000078,104.61523400000078,74.35888699999941,100.0,100.51269500000035,88.3334960000002,66.6665039999998
104,61.2822270000006,106.2822270000006,103.0771479999994,57.56396500000028,123.84619099999964,111.41015599999992,96.53857400000015,101.79492200000004,102.82031300000017,73.0771479999994,100.0,100.89746099999957,87.43603499999972,64.23095699999976
105,56.79492200000004,104.10253900000043,102.30761700000039,58.846190999999635,124.35888699999941,114.10253900000043,97.82031300000017,101.53857400000015,99.61523400000078,65.89746099999957,97.43603499999972,100.0,85.25634799999989,59.74365200000011
106,52.05126999999993,101.15380900000036,100.0,58.20507799999996,120.38476599999922,114.61523400000078,99.23095699999976,99.87158199999976,98.7177729999994,57.94873000000007,94.74365200000011,98.58984400000008,82.69238299999961,55.76904300000024
107,51.9228520000006,99.48730499999965,98.84619099999964,58.589844000000085,116.79492200000004,113.20507799999996,101.53857400000015,100.12841800000024,103.0771479999994,56.153809000000365,94.87158199999976,98.0771479999994,82.43603499999972,56.53857400000015
108,57.17968800000017,98.9741210000002,101.0258789999998,63.20507799999996,117.30761700000039,111.9228520000006,105.51269500000035,103.84619099999964,111.53857400000015,63.20507799999996,98.0771479999994,99.10253900000043,86.0258789999998,63.20507799999996
109,64.23095699999976,98.7177729999994,105.64111300000059,72.56396500000028,121.79492200000004,112.30761700000039,109.61523400000078,109.61523400000078,119.35888699999941,75.64111300000059,101.15380900000036,101.15380900000036,91.79492200000004,71.9228520000006
110,69.10253900000043,97.43603499999972,109.35888699999941,82.82031300000017,126.2822270000006,114.10253900000043,111.53857400000015,113.58984400000008,121.79492200000004,86.79492200000004,101.2822270000006,102.56396500000028,96.41015599999992,76.6665039999998
111,70.0,95.76904300000024,109.48730499999965,89.35888699999941,127.69238299999961,115.76904300000024,110.0,113.20507799999996,118.58984400000008,91.6665039999998,97.69238299999961,102.69238299999961,96.9228520000006,74.74365200000011
112,67.94873000000007,93.58984400000008,106.53857400000015,90.38476599999922,124.87158199999976,115.89746099999957,105.76904300000024,109.10253900000043,113.3334960000002,90.12841800000024,93.20507799999996,101.9228520000006,92.69238299999961,68.0771479999994
113,65.25634799999989,89.74365200000011,103.0771479999994,87.43603499999972,119.74365200000011,114.35888699999941,101.6665039999998,104.23095699999976,110.25634799999989,85.76904300000024,90.89746099999957,100.89746099999957,86.53857400000015,61.79492200000004
114,63.0771479999994,83.9741210000002,101.0258789999998,84.35888699999941,114.61523400000078,111.79492200000004,100.0,100.89746099999957,110.25634799999989,82.94873000000007,91.79492200000004,100.51269500000035,82.05126999999993,59.23095699999976
115,61.79492200000004,77.69238299999961,100.38476599999922,83.46142599999985,110.51269500000035,110.0,100.51269500000035,99.74365200000011,111.15380900000036,82.30761700000039,93.84619099999964,100.38476599999922,81.9228520000006,60.64111300000059
116,60.51269500000035,73.0771479999994,99.23095699999976,83.9741210000002,106.2822270000006,110.51269500000035,100.89746099999957,99.35888699999941,109.74365200000011,81.2822270000006,93.46142599999985,100.0,85.12841800000024,62.82031300000017
117,58.846190999999635,71.53857400000015,96.53857400000015,83.9741210000002,101.15380900000036,113.20507799999996,99.48730499999965,98.7177729999994,104.87158199999976,76.79492200000004,88.84619099999964,99.23095699999976,87.82031300000017,62.43603499999972
118,57.17968800000017,72.56396500000028,93.58984400000008,82.56396500000028,97.56396500000028,116.15380900000036,97.69238299999961,99.10253900000043,100.38476599999922,69.87158199999976,81.53857400000015,98.84619099999964,86.53857400000015,59.23095699999976
119,57.43603499999972,74.74365200000011,92.82031300000017,81.0258789999998,99.35888699999941,117.56396500000028,99.48730499999965,102.94873000000007,101.2822270000006,66.0258789999998,76.2822270000006,99.35888699999941,82.05126999999993,55.0
120,60.76904300000024,76.2822270000006,95.51269500000035,81.41015599999992,108.0771479999994,117.17968800000017,106.2822270000006,110.38476599999922,109.61523400000078,70.89746099999957,77.30761700000039,101.0258789999998,78.84619099999964,52.56396500000028
121,66.15380900000036,75.64111300000059,99.74365200000011,83.58984400000008,119.10253900000043,116.2822270000006,114.87158199999976,118.0771479999994,120.38476599999922,83.0771479999994,83.84619099999964,102.69238299999961,81.41015599999992,53.0771479999994
122,70.51269500000035,72.43603499999972,102.82031300000017,86.2822270000006,124.74365200000011,115.25634799999989,119.35888699999941,121.0258789999998,125.38476599999922,93.9741210000002,91.2822270000006,103.0771479999994,89.61523400000078,55.76904300000024
123,71.9228520000006,68.3334960000002,103.7177729999994,87.30761700000039,120.51269500000035,114.23095699999976,116.9228520000006,116.9228520000006,120.0,96.0258789999998,95.51269500000035,102.17968800000017,99.74365200000011,59.48730499999965
124,72.69238299999961,67.05126999999993,104.61523400000078,86.6665039999998,109.61523400000078,113.7177729999994,111.15380900000036,109.10253900000043,108.20507799999996,88.7177729999994,97.43603499999972,101.79492200000004,108.3334960000002,64.61523400000078
125,77.43603499999972,71.41015599999992,108.84619099999964,86.9228520000006,101.41015599999992,114.23095699999976,108.7177729999994,104.61523400000078,99.61523400000078,80.51269500000035,100.64111300000059,104.48730499999965,115.64111300000059,72.56396500000028
126,87.56396500000028,80.76904300000024,117.17968800000017,90.51269500000035,103.46142599999985,115.64111300000059,113.3334960000002,108.0771479999994,101.79492200000004,80.64111300000059,107.17968800000017,110.38476599999922,123.58984400000008,82.69238299999961
127,99.35888699999941,89.87158199999976,126.2822270000006,97.30761700000039,113.84619099999964,117.17968800000017,121.9228520000006,116.9228520000006,113.0771479999994,91.0258789999998,114.35888699999941,116.6665039999998,131.2822270000006,91.6665039999998
128,105.76904300000024,92.56396500000028,130.38476599999922,102.94873000000007,123.3334960000002,117.69238299999961,127.94873000000007,123.58984400000008,124.35888699999941,103.84619099999964,117.56396500000028,119.48730499999965,135.38476599999922,94.48730499999965
129,103.84619099999964,87.43603499999972,127.43603499999972,103.3334960000002,123.84619099999964,116.79492200000004,127.17968800000017,123.0771479999994,127.30761700000039,109.10253900000043,114.87158199999976,117.05126999999993,132.94873000000007,89.74365200000011
130,96.2822270000006,79.10253900000043,119.87158199999976,97.17968800000017,115.12841800000024,115.12841800000024,121.2822270000006,116.15380900000036,120.25634799999989,102.94873000000007,109.23095699999976,110.89746099999957,124.10253900000043,80.89746099999957
131,88.0771479999994,73.3334960000002,112.43603499999972,87.69238299999961,103.9741210000002,113.9741210000002,115.64111300000059,108.58984400000008,108.84619099999964,90.76904300000024,104.23095699999976,104.48730499999965,112.43603499999972,73.0771479999994
132,82.56396500000028,71.6665039999998,108.3334960000002,79.48730499999965,98.3334960000002,113.84619099999964,113.9741210000002,104.61523400000078,99.87158199999976,81.53857400000015,101.53857400000015,100.51269500000035,102.17968800000017,69.61523400000078
133,79.35888699999941,71.41015599999992,107.17968800000017,75.51269500000035,101.15380900000036,113.9741210000002,115.64111300000059,103.7177729999994,97.05126999999993,81.15380900000036,99.61523400000078,99.61523400000078,96.79492200000004,69.35888699999941
134,77.17968800000017,69.61523400000078,106.79492200000004,76.41015599999992,109.61523400000078,113.84619099999964,117.17968800000017,103.20507799999996,99.35888699999941,89.35888699999941,96.41015599999992,100.64111300000059,96.9228520000006,70.12841800000024
135,75.89746099999957,65.64111300000059,106.0258789999998,81.0258789999998,117.94873000000007,113.20507799999996,115.89746099999957,101.6665039999998,103.46142599999985,100.38476599999922,91.53857400000015,101.79492200000004,100.12841800000024,70.38476599999922
136,76.41015599999992,62.56396500000028,105.25634799999989,86.53857400000015,121.9228520000006,112.30761700000039,112.17968800000017,100.12841800000024,105.25634799999989,107.82031300000017,87.17968800000017,102.56396500000028,102.43603499999972,70.12841800000024
137,79.23095699999976,62.94873000000007,105.0,89.61523400000078,121.0258789999998,111.2822270000006,108.84619099999964,100.64111300000059,103.9741210000002,108.0771479999994,86.0258789999998,102.94873000000007,101.53857400000015,69.87158199999976
138,83.0771479999994,67.05126999999993,105.12841800000024,87.94873000000007,117.69238299999961,110.64111300000059,108.20507799999996,103.7177729999994,101.41015599999992,102.82031300000017,89.35888699999941,103.58984400000008,98.46142599999985,69.74365200000011
139,85.89746099999957,71.53857400000015,104.87158199999976,81.6665039999998,113.9741210000002,110.64111300000059,110.25634799999989,107.17968800000017,100.51269500000035,96.2822270000006,95.12841800000024,104.10253900000043,96.79492200000004,70.12841800000024
140,85.25634799999989,72.30761700000039,103.46142599999985,73.0771479999994,110.0,111.15380900000036,112.69238299999961,107.94873000000007,101.53857400000015,91.2822270000006,99.23095699999976,103.9741210000002,97.94873000000007,70.38476599999922
141,80.64111300000059,68.46142599999985,101.6665039999998,66.15380900000036,104.74365200000011,111.41015599999992,113.84619099999964,105.12841800000024,102.56396500000028,88.46142599999985,98.58984400000008,103.0771479999994,100.64111300000059,69.74365200000011
142,74.48730499999965,62.43603499999972,101.15380900000036,64.74365200000011,99.48730499999965,111.2822270000006,114.23095699999976,100.89746099999957,102.05126999999993,87.82031300000017,94.87158199999976,101.9228520000006,102.56396500000028,67.82031300000017
143,70.64111300000059,58.7177729999994,102.43603499999972,68.7177729999994,98.0771479999994,110.76904300000024,115.38476599999922,98.9741210000002,100.89746099999957,90.38476599999922,91.9228520000006,101.41015599999992,103.7177729999994,64.48730499999965
144,71.15380900000036,59.102539000000434,103.46142599999985,74.10253900000043,103.3334960000002,110.51269500000035,116.53857400000015,100.51269500000035,100.51269500000035,95.64111300000059,92.43603499999972,101.6665039999998,104.87158199999976,60.12841800000024
145,73.7177729999994,61.9228520000006,100.89746099999957,75.25634799999989,113.46142599999985,110.76904300000024,115.25634799999989,103.20507799999996,101.0258789999998,100.25634799999989,94.23095699999976,102.05126999999993,105.38476599999922,56.2822270000006
146,73.9741210000002,62.69238299999961,94.48730499999965,70.25634799999989,121.9228520000006,111.53857400000015,110.51269500000035,103.58984400000008,101.0258789999998,99.74365200000011,93.58984400000008,101.6665039999998,103.3334960000002,53.846190999999635
147,70.51269500000035,59.35888699999941,87.43603499999972,62.69238299999961,123.9741210000002,112.30761700000039,104.74365200000011,100.51269500000035,100.12841800000024,93.20507799999996,89.10253900000043,100.38476599999922,98.0771479999994,53.589844000000085
148,66.6665039999998,54.48730499999965,84.61523400000078,58.46142599999985,120.38476599999922,113.20507799999996,101.9228520000006,96.53857400000015,99.48730499999965,85.38476599999922,83.46142599999985,99.23095699999976,92.05126999999993,55.51269500000035
149,66.53857400000015,52.69238299999961,87.69238299999961,60.76904300000024,116.2822270000006,113.84619099999964,104.48730499999965,95.12841800000024,100.51269500000035,82.43603499999972,80.76904300000024,98.9741210000002,88.46142599999985,58.46142599999985
150,70.89746099999957,56.025878999999804,94.35888699999941,66.2822270000006,115.64111300000059,114.10253900000043,111.0258789999998,97.56396500000028,102.82031300000017,87.05126999999993,82.94873000000007,99.87158199999976,87.94873000000007,60.64111300000059
151,76.0258789999998,61.153809000000365,99.61523400000078,68.84619099999964,117.17968800000017,113.9741210000002,116.53857400000015,101.2822270000006,104.48730499999965,95.38476599999922,88.3334960000002,100.89746099999957,87.82031300000017,60.64111300000059
152,77.94873000000007,62.69238299999961,99.61523400000078,64.48730499999965,117.43603499999972,113.0771479999994,117.05126999999993,103.0771479999994,103.9741210000002,100.51269500000035,92.94873000000007,100.89746099999957,85.76904300000024,58.7177729999994
153,75.64111300000059,58.974121000000196,94.87158199999976,56.2822270000006,115.89746099999957,112.05126999999993,113.0771479999994,102.17968800000017,102.17968800000017,99.10253900000043,94.61523400000078,100.0,82.82031300000017,57.69238299999961
154,72.56396500000028,54.102539000000434,90.51269500000035,51.9228520000006,115.76904300000024,112.05126999999993,109.74365200000011,101.6665039999998,102.56396500000028,95.25634799999989,94.35888699999941,99.23095699999976,82.69238299999961,60.38476599999922
155,73.58984400000008,53.846190999999635,91.2822270000006,56.410155999999915,121.0258789999998,113.7177729999994,112.05126999999993,104.74365200000011,107.17968800000017,95.64111300000059,95.12841800000024,100.25634799999989,88.3334960000002,67.43603499999972
156,79.61523400000078,59.61523400000078,97.56396500000028,66.6665039999998,130.51269500000035,115.76904300000024,119.74365200000011,110.89746099999957,114.74365200000011,101.6665039999998,98.9741210000002,102.82031300000017,98.9741210000002,75.64111300000059
157,86.9228520000006,66.9228520000006,104.48730499999965,74.23095699999976,138.46142599999985,116.53857400000015,127.94873000000007,115.89746099999957,120.51269500000035,108.3334960000002,103.46142599999985,105.25634799999989,109.10253900000043,80.0
158,89.61523400000078,69.61523400000078,106.2822270000006,73.46142599999985,138.7177729999994,115.89746099999957,130.6411130000006,115.64111300000059,120.64111300000059,108.46142599999985,104.23095699999976,105.25634799999989,113.20507799999996,78.0771479999994
159,85.76904300000024,66.15380900000036,101.53857400000015,66.15380900000036,130.6411130000006,114.74365200000011,126.41015599999992,110.25634799999989,115.25634799999989,100.64111300000059,99.74365200000011,102.94873000000007,110.51269500000035,72.17968800000017
160,78.3334960000002,60.12841800000024,94.35888699999941,59.48730499999965,120.0,113.84619099999964,119.10253900000043,104.48730499999965,108.3334960000002,90.12841800000024,93.0771479999994,100.76904300000024,104.48730499999965,67.43603499999972
161,72.94873000000007,55.76904300000024,89.87158199999976,59.102539000000434,113.20507799999996,113.7177729999994,114.23095699999976,102.56396500000028,103.58984400000008,83.84619099999964,89.23095699999976,100.51269500000035,100.25634799999989,66.9228520000006
162,72.17968800000017,53.974121000000196,89.87158199999976,63.589844000000085,111.6665039999998,114.35888699999941,113.3334960000002,103.84619099999964,101.6665039999998,85.51269500000035,90.38476599999922,101.9228520000006,99.48730499999965,68.84619099999964
163,74.48730499999965,53.20507799999996,91.79492200000004,66.9228520000006,111.79492200000004,115.38476599999922,113.58984400000008,104.61523400000078,100.25634799999989,92.56396500000028,95.0,102.43603499999972,101.0258789999998,69.23095699999976
164,76.53857400000015,52.30761700000039,93.0771479999994,65.25634799999989,110.38476599999922,116.2822270000006,112.69238299999961,102.56396500000028,98.46142599999985,100.51269500000035,100.0,101.41015599999992,102.43603499999972,66.53857400000015
165,77.43603499999972,52.56396500000028,93.9741210000002,61.025878999999804,108.9741210000002,116.6665039999998,111.9228520000006,100.12841800000024,99.35888699999941,106.6665039999998,103.20507799999996,100.12841800000024,102.82031300000017,63.7177729999994
166,79.10253900000043,55.64111300000059,97.05126999999993,60.897460999999566,112.43603499999972,116.41015599999992,114.23095699999976,102.43603499999972,107.30761700000039,112.05126999999993,105.51269500000035,101.2822270000006,103.7177729999994,65.0
167,83.9741210000002,61.9228520000006,103.0771479999994,68.20507799999996,123.9741210000002,116.2822270000006,120.64111300000059,111.6665039999998,122.43603499999972,117.05126999999993,108.58984400000008,105.38476599999922,106.53857400000015,72.05126999999993
168,91.79492200000004,69.35888699999941,110.12841800000024,80.12841800000024,140.12841800000024,116.9228520000006,128.58984400000008,125.0,138.84619099999964,120.12841800000024,113.46142599999985,110.76904300000024,111.15380900000036,81.79492200000004
169,98.84619099999964,75.0,114.48730499999965,89.35888699999941,151.15380900000036,118.3334960000002,133.7177729999994,135.38476599999922,148.3334960000002,118.0771479999994,118.9741210000002,114.10253900000043,116.41015599999992,89.61523400000078
170,101.15380900000036,76.41015599999992,113.84619099999964,91.79492200000004,148.0771479999994,119.10253900000043,132.6923829999996,136.9228520000006,145.89746099999957,110.89746099999957,122.05126999999993,113.46142599999985,121.0258789999998,92.30761700000039
171,97.43603499999972,73.58984400000008,108.9741210000002,88.58984400000008,130.2563479999999,118.20507799999996,125.25634799999989,128.20507799999996,133.46142599999985,102.43603499999972,120.12841800000024,109.10253900000043,125.0,90.0
172,90.64111300000059,69.23095699999976,102.69238299999961,84.23095699999976,107.30761700000039,115.38476599999922,115.12841800000024,113.58984400000008,117.69238299999961,98.0771479999994,113.0771479999994,103.58984400000008,127.56396500000028,85.51269500000035
173,85.0,66.2822270000006,97.94873000000007,82.56396500000028,92.69238299999961,111.79492200000004,106.6665039999998,100.25634799999989,106.41015599999992,100.51269500000035,104.23095699999976,99.74365200000011,128.3334960000002,82.17968800000017
174,84.74365200000011,66.2822270000006,96.6665039999998,84.10253900000043,94.74365200000011,109.23095699999976,103.46142599999985,93.9741210000002,103.9741210000002,108.0771479999994,98.7177729999994,98.7177729999994,127.17968800000017,81.9228520000006
175,90.38476599999922,68.46142599999985,98.46142599999985,86.15380900000036,111.0258789999998,109.10253900000043,105.76904300000024,96.53857400000015,110.12841800000024,116.53857400000015,99.74365200000011,100.38476599999922,125.38476599999922,83.84619099999964
176,99.10253900000043,71.15380900000036,101.79492200000004,86.15380900000036,131.15380900000036,111.53857400000015,111.9228520000006,104.74365200000011,120.12841800000024,122.17968800000017,106.53857400000015,102.69238299999961,125.25634799999989,86.53857400000015
177,105.64111300000059,73.46142599999985,104.23095699999976,84.35888699999941,143.7177729999994,115.25634799999989,119.10253900000043,113.84619099999964,128.58984400000008,123.3334960000002,114.87158199999976,104.10253900000043,127.56396500000028,88.7177729999994
178,106.53857400000015,75.0,105.12841800000024,83.0771479999994,142.6923829999996,118.0771479999994,124.35888699999941,120.0,132.17968800000017,121.2822270000006,120.12841800000024,104.10253900000043,130.76904300000024,90.12841800000024
179,101.6665039999998,75.25634799999989,104.74365200000011,83.7177729999994,130.51269500000035,118.58984400000008,126.2822270000006,121.15380900000036,130.2563479999999,117.43603499999972,120.89746099999957,103.3334960000002,131.53857400000015,90.25634799999989
180,93.84619099999964,73.84619099999964,103.3334960000002,85.0,115.89746099999957,117.17968800000017,124.48730499999965,118.58984400000008,124.87158199999976,112.43603499999972,118.20507799999996,102.94873000000007,127.30761700000039,88.84619099999964
181,86.79492200000004,71.15380900000036,101.6665039999998,84.61523400000078,108.0771479999994,115.51269500000035,120.38476599999922,114.87158199999976,119.23095699999976,106.6665039999998,115.25634799999989,103.0771479999994,119.10253900000043,86.41015599999992
182,83.0771479999994,68.9741210000002,100.38476599999922,82.30761700000039,110.76904300000024,114.87158199999976,116.41015599999992,113.3334960000002,116.9228520000006,102.56396500000028,113.9741210000002,103.0771479999994,111.53857400000015,83.9741210000002
183,83.20507799999996,68.7177729999994,100.12841800000024,80.64111300000059,120.89746099999957,115.38476599999922,115.0,115.38476599999922,119.61523400000078,103.0771479999994,115.25634799999989,103.0771479999994,108.9741210000002,83.3334960000002
184,85.89746099999957,70.51269500000035,101.53857400000015,82.05126999999993,131.41015599999992,116.41015599999992,116.53857400000015,119.23095699999976,126.0258789999998,109.48730499999965,117.17968800000017,103.46142599999985,112.82031300000017,84.87158199999976
185,88.7177729999994,72.17968800000017,103.7177729999994,85.51269500000035,135.38476599999922,116.6665039999998,119.10253900000043,120.64111300000059,131.79492200000004,118.46142599999985,117.30761700000039,103.9741210000002,119.35888699999941,86.53857400000015
186,88.84619099999964,71.2822270000006,104.48730499999965,87.56396500000028,130.76904300000024,115.89746099999957,119.10253900000043,116.6665039999998,132.05126999999993,123.9741210000002,114.74365200000011,103.7177729999994,123.20507799999996,85.76904300000024
187,86.2822270000006,68.20507799999996,102.17968800000017,85.38476599999922,121.41015599999992,114.61523400000078,115.76904300000024,109.10253900000043,125.76904300000024,121.41015599999992,111.79492200000004,102.56396500000028,122.17968800000017,82.56396500000028
188,83.3334960000002,65.76904300000024,98.20507799999996,79.87158199999976,113.84619099999964,114.23095699999976,111.79492200000004,103.0771479999994,117.69238299999961,113.7177729999994,111.6665039999998,101.79492200000004,118.58984400000008,80.38476599999922
189,82.82031300000017,66.9228520000006,95.25634799999989,74.48730499999965,112.30761700000039,114.87158199999976,111.2822270000006,103.0771479999994,113.84619099999964,107.82031300000017,115.0,102.69238299999961,116.53857400000015,82.17968800000017
190,84.61523400000078,70.64111300000059,93.9741210000002,72.56396500000028,114.87158199999976,115.76904300000024,113.9741210000002,108.46142599999985,115.51269500000035,108.58984400000008,118.3334960000002,104.23095699999976,116.6665039999998,86.53857400000015
191,86.53857400000015,72.56396500000028,93.3334960000002,74.10253900000043,116.53857400000015,116.0258789999998,116.53857400000015,113.9741210000002,118.7177729999994,113.20507799999996,116.9228520000006,104.10253900000043,116.79492200000004,88.7177729999994
192,86.2822270000006,70.12841800000024,92.56396500000028,77.30761700000039,114.61523400000078,115.38476599999922,115.76904300000024,115.25634799999989,119.35888699999941,115.76904300000024,110.76904300000024,101.6665039999998,114.87158199999976,85.76904300000024
193,84.74365200000011,65.76904300000024,93.20507799999996,81.41015599999992,111.6665039999998,114.74365200000011,113.20507799999996,112.56396500000028,118.0771479999994,113.7177729999994,105.25634799999989,99.35888699999941,112.69238299999961,80.64111300000059
194,85.76904300000024,64.74365200000011,97.17968800000017,86.9228520000006,112.94873000000007,114.74365200000011,112.82031300000017,110.64111300000059,119.10253900000043,110.64111300000059,107.17968800000017,100.25634799999989,114.10253900000043,79.35888699999941
195,91.53857400000015,70.12841800000024,104.48730499999965,94.35888699999941,120.0,115.51269500000035,117.17968800000017,112.82031300000017,125.12841800000024,111.79492200000004,117.30761700000039,105.25634799999989,120.38476599999922,85.0
196,100.12841800000024,79.35888699999941,111.79492200000004,101.9228520000006,129.3588869999994,116.53857400000015,123.20507799999996,118.20507799999996,133.0771479999994,118.84619099999964,129.23095699999976,111.15380900000036,128.3334960000002,94.87158199999976
197,106.6665039999998,86.6665039999998,115.12841800000024,106.53857400000015,134.48730499999965,117.17968800000017,125.64111300000059,122.94873000000007,137.17968800000017,127.82031300000017,134.3588869999994,114.23095699999976,132.3076170000004,102.17968800000017
198,107.17968800000017,87.69238299999961,113.20507799999996,105.64111300000059,132.43603499999972,116.9228520000006,121.53857400000015,122.94873000000007,133.46142599999985,133.3334960000002,128.7177729999994,112.43603499999972,129.61523400000078,101.53857400000015
199,101.15380900000036,82.56396500000028,107.56396500000028,98.9741210000002,124.74365200000011,116.2822270000006,113.20507799999996,117.69238299999961,123.84619099999964,131.6665039999998,115.64111300000059,106.9228520000006,122.05126999999993,92.94873000000007
200,92.17968800000017,75.12841800000024,101.15380900000036,89.23095699999976,116.9228520000006,115.64111300000059,105.76904300000024,109.74365200000011,113.58984400000008,123.0771479999994,102.30761700000039,100.25634799999989,114.10253900000043,81.6665039999998
201,84.87158199999976,69.87158199999976,96.79492200000004,80.64111300000059,112.56396500000028,115.38476599999922,103.20507799999996,102.94873000000007,108.46142599999985,111.53857400000015,94.87158199999976,95.76904300000024,109.35888699999941,73.58984400000008
202,81.9228520000006,68.20507799999996,95.64111300000059,76.79492200000004,112.30761700000039,115.51269500000035,105.89746099999957,99.74365200000011,109.87158199999976,103.0771479999994,95.51269500000035,95.76904300000024,108.84619099999964,71.79492200000004
203,83.20507799999996,69.10253900000043,98.20507799999996,78.3334960000002,113.7177729999994,115.51269500000035,110.51269500000035,100.25634799999989,114.74365200000011,101.79492200000004,102.05126999999993,100.0,111.6665039999998,75.25634799999989
204,86.53857400000015,70.25634799999989,103.58984400000008,83.3334960000002,115.38476599999922,115.51269500000035,113.20507799999996,102.69238299999961,118.46142599999985,106.2822270000006,109.74365200000011,106.0258789999998,115.51269500000035,81.0258789999998
205,89.35888699999941,70.38476599999922,109.35888699999941,88.20507799999996,117.17968800000017,115.38476599999922,112.05126999999993,105.0,117.82031300000017,110.25634799999989,113.58984400000008,110.25634799999989,117.82031300000017,85.89746099999957
206,89.61523400000078,68.58984400000008,112.43603499999972,90.76904300000024,118.46142599999985,115.25634799999989,107.56396500000028,106.0258789999998,112.43603499999972,107.56396500000028,111.15380900000036,110.64111300000059,116.6665039999998,88.20507799999996
207,86.9228520000006,64.48730499999965,111.15380900000036,90.25634799999989,117.94873000000007,115.38476599999922,102.43603499999972,104.48730499999965,105.12841800000024,97.05126999999993,103.46142599999985,107.43603499999972,112.05126999999993,87.17968800000017
208,82.94873000000007,58.846190999999635,107.17968800000017,87.56396500000028,114.74365200000011,115.51269500000035,99.48730499999965,101.0258789999998,99.23095699999976,84.61523400000078,94.10253900000043,102.82031300000017,106.53857400000015,83.0771479999994
209,80.38476599999922,54.48730499999965,103.3334960000002,84.35888699999941,110.64111300000059,115.64111300000059,100.38476599999922,97.43603499999972,96.79492200000004,78.20507799999996,87.69238299999961,99.48730499999965,103.46142599999985,77.82031300000017
210,81.0258789999998,54.74365200000011,102.56396500000028,82.43603499999972,109.35888699999941,116.0258789999998,104.10253900000043,95.89746099999957,97.94873000000007,82.30761700000039,87.56396500000028,98.7177729999994,104.87158199999976,74.23095699999976
211,84.48730499999965,61.153809000000365,105.38476599999922,83.20507799999996,112.69238299999961,116.79492200000004,108.84619099999964,97.94873000000007,101.6665039999998,95.25634799999989,93.3334960000002,100.89746099999957,109.87158199999976,74.87158199999976
212,88.58984400000008,72.05126999999993,111.0258789999998,87.56396500000028,118.84619099999964,117.56396500000028,113.0771479999994,102.82031300000017,106.79492200000004,110.51269500000035,102.17968800000017,105.25634799999989,115.38476599999922,80.76904300000024
213,91.0258789999998,82.69238299999961,117.05126999999993,94.10253900000043,123.9741210000002,117.69238299999961,116.41015599999992,108.58984400000008,112.30761700000039,120.76904300000024,109.87158199999976,110.25634799999989,118.7177729999994,89.48730499999965
214,91.15380900000036,88.0771479999994,120.76904300000024,100.25634799999989,125.38476599999922,116.53857400000015,118.7177729999994,113.46142599999985,117.05126999999993,122.17968800000017,113.7177729999994,113.84619099999964,119.10253900000043,97.05126999999993
215,90.12841800000024,86.15380900000036,121.15380900000036,103.0771479999994,124.23095699999976,114.48730499999965,119.61523400000078,115.89746099999957,119.87158199999976,116.9228520000006,113.84619099999964,115.12841800000024,118.46142599999985,100.76904300000024
216,90.25634799999989,79.87158199999976,119.35888699999941,102.05126999999993,123.7177729999994,112.94873000000007,119.10253900000043,115.89746099999957,121.2822270000006,112.05126999999993,113.46142599999985,114.87158199999976,119.74365200000011,101.15380900000036
217,93.46142599999985,74.23095699999976,117.94873000000007,98.9741210000002,126.0258789999998,112.69238299999961,117.94873000000007,114.74365200000011,121.53857400000015,112.94873000000007,115.76904300000024,114.35888699999941,124.61523400000078,101.2822270000006
218,98.84619099999964,72.43603499999972,118.20507799999996,96.41015599999992,129.48730499999965,113.9741210000002,117.94873000000007,113.9741210000002,120.76904300000024,118.46142599999985,119.61523400000078,114.23095699999976,131.41015599999992,102.56396500000028
219,104.10253900000043,73.84619099999964,119.10253900000043,95.64111300000059,131.15380900000036,115.89746099999957,119.48730499999965,114.35888699999941,119.10253900000043,123.0771479999994,121.2822270000006,114.35888699999941,136.2822270000006,104.61523400000078
220,107.17968800000017,76.0258789999998,119.10253900000043,96.41015599999992,129.3588869999994,117.17968800000017,122.05126999999993,116.9228520000006,117.69238299999961,122.17968800000017,118.84619099999964,114.23095699999976,136.53857400000015,105.76904300000024
221,108.0771479999994,77.94873000000007,118.58984400000008,98.3334960000002,125.51269500000035,117.17968800000017,125.0,121.6665039999998,117.69238299999961,117.05126999999993,114.48730499999965,114.74365200000011,133.20507799999996,105.64111300000059
222,108.7177729999994,80.64111300000059,118.7177729999994,100.64111300000059,123.7177729999994,116.15380900000036,127.82031300000017,127.30761700000039,120.38476599999922,113.3334960000002,112.82031300000017,116.41015599999992,129.23095699999976,104.87158199999976
223,109.74365200000011,84.35888699999941,119.61523400000078,102.69238299999961,126.0258789999998,115.0,128.9741210000002,131.15380900000036,125.12841800000024,115.38476599999922,115.25634799999989,118.20507799999996,127.17968800000017,104.23095699999976
224,110.12841800000024,87.17968800000017,119.61523400000078,102.94873000000007,130.2563479999999,114.48730499999965,127.17968800000017,129.7436520000001,128.84619099999964,121.2822270000006,118.20507799999996,117.69238299999961,125.89746099999957,103.46142599999985
225,106.6665039999998,85.12841800000024,116.53857400000015,99.61523400000078,131.0258789999998,114.35888699999941,122.05126999999993,122.05126999999993,127.82031300000017,124.74365200000011,116.79492200000004,113.7177729999994,122.05126999999993,100.76904300000024
226,98.0771479999994,75.76904300000024,109.87158199999976,91.9228520000006,124.48730499999965,113.84619099999964,115.38476599999922,110.89746099999957,120.64111300000059,120.38476599999922,109.61523400000078,107.43603499999972,113.7177729999994,94.61523400000078
227,86.53857400000015,61.410155999999915,102.05126999999993,81.79492200000004,112.43603499999972,113.3334960000002,110.0,101.79492200000004,110.64111300000059,109.61523400000078,100.25634799999989,102.17968800000017,103.3334960000002,86.15380900000036
228,77.30761700000039,48.974121000000196,96.9228520000006,73.0771479999994,101.53857400000015,113.46142599999985,107.94873000000007,99.61523400000078,104.35888699999941,100.38476599999922,94.87158199999976,100.51269500000035,96.79492200000004,79.74365200000011
229,75.25634799999989,45.897460999999566,97.30761700000039,70.38476599999922,98.20507799999996,114.35888699999941,109.48730499999965,105.51269500000035,106.41015599999992,100.38476599999922,97.43603499999972,102.82031300000017,98.3334960000002,79.74365200000011
230,81.41015599999992,54.74365200000011,103.3334960000002,75.25634799999989,103.84619099999964,115.0,113.46142599999985,116.15380900000036,115.89746099999957,110.89746099999957,106.6665039999998,108.0771479999994,107.82031300000017,86.53857400000015
231,92.17968800000017,70.38476599999922,111.9228520000006,85.38476599999922,114.35888699999941,114.48730499999965,117.69238299999961,126.0258789999998,126.6665039999998,125.0,116.9228520000006,114.23095699999976,119.48730499999965,96.0258789999998
232,101.79492200000004,84.10253900000043,118.84619099999964,96.15380900000036,123.46142599999985,112.94873000000007,119.87158199999976,130.12841800000024,132.3076170000004,132.6923829999996,122.43603499999972,119.35888699999941,127.17968800000017,102.43603499999972
233,106.15380900000036,89.23095699999976,120.25634799999989,102.56396500000028,126.79492200000004,110.89746099999957,118.84619099999964,127.17968800000017,130.2563479999999,128.7177729999994,120.25634799999989,121.41015599999992,126.79492200000004,102.56396500000028
234,103.84619099999964,84.10253900000043,115.38476599999922,102.56396500000028,123.20507799999996,108.58984400000008,114.35888699999941,119.35888699999941,122.69238299999961,115.64111300000059,111.6665039999998,119.35888699999941,118.7177729999994,96.9228520000006
235,96.6665039999998,72.69238299999961,106.6665039999998,97.56396500000028,114.74365200000011,106.0258789999998,108.0771479999994,109.87158199999976,114.23095699999976,101.0258789999998,101.15380900000036,113.9741210000002,106.9228520000006,89.23095699999976
236,88.46142599999985,60.897460999999566,99.48730499999965,91.15380900000036,105.38476599999922,103.84619099999964,102.94873000000007,102.82031300000017,108.46142599999985,92.05126999999993,93.84619099999964,107.56396500000028,97.30761700000039,83.9741210000002
237,83.58984400000008,54.87158199999976,97.94873000000007,87.05126999999993,99.48730499999965,103.20507799999996,102.17968800000017,101.15380900000036,106.79492200000004,91.53857400000015,93.20507799999996,103.46142599999985,94.61523400000078,83.7177729999994
238,84.48730499999965,57.17968800000017,103.0771479999994,86.9228520000006,99.87158199999976,104.74365200000011,106.9228520000006,106.2822270000006,109.35888699999941,98.7177729999994,98.58984400000008,103.58984400000008,99.35888699999941,88.20507799999996
239,89.87158199999976,66.15380900000036,111.41015599999992,90.64111300000059,105.38476599999922,108.0771479999994,114.74365200000011,116.0258789999998,115.25634799999989,109.74365200000011,106.15380900000036,107.82031300000017,107.94873000000007,94.61523400000078
240,95.64111300000059,76.53857400000015,118.58984400000008,96.6665039999998,111.9228520000006,111.6665039999998,121.2822270000006,125.38476599999922,122.05126999999993,120.25634799999989,112.05126999999993,113.7177729999994,114.61523400000078,100.0
241,99.35888699999941,83.46142599999985,121.79492200000004,103.3334960000002,116.2822270000006,113.9741210000002,123.58984400000008,130.2563479999999,127.30761700000039,126.53857400000015,114.74365200000011,117.94873000000007,116.6665039999998,102.56396500000028
242,101.0258789999998,85.51269500000035,121.53857400000015,109.23095699999976,119.74365200000011,114.23095699999976,122.56396500000028,129.48730499999965,129.7436520000001,128.3334960000002,115.76904300000024,118.7177729999994,115.38476599999922,103.0771479999994
243,102.82031300000017,84.87158199999976,119.87158199999976,113.84619099999964,124.87158199999976,112.69238299999961,120.51269500000035,125.0,128.7177729999994,127.56396500000028,117.05126999999993,116.6665039999998,114.74365200000011,103.46142599999985
244,105.38476599999922,84.10253900000043,118.3334960000002,116.53857400000015,131.0258789999998,110.51269500000035,118.84619099999964,119.48730499999965,123.84619099999964,125.64111300000059,118.3334960000002,113.9741210000002,116.41015599999992,103.9741210000002
245,107.05126999999993,83.58984400000008,116.6665039999998,116.79492200000004,134.10253900000043,109.23095699999976,117.17968800000017,115.0,116.15380900000036,122.30761700000039,117.56396500000028,112.30761700000039,118.84619099999964,103.20507799999996
246,106.53857400000015,82.43603499999972,114.87158199999976,114.87158199999976,131.41015599999992,109.61523400000078,116.15380900000036,112.30761700000039,109.23095699999976,117.30761700000039,113.84619099999964,112.43603499999972,119.61523400000078,101.0258789999998
247,104.61523400000078,80.38476599999922,114.35888699999941,112.17968800000017,124.48730499999965,111.9228520000006,117.05126999999993,112.56396500000028,108.3334960000002,112.17968800000017,108.84619099999964,113.46142599999985,118.58984400000008,99.48730499999965
248,103.58984400000008,78.9741210000002,117.05126999999993,110.51269500000035,118.7177729999994,114.87158199999976,121.15380900000036,116.2822270000006,115.51269500000035,109.35888699999941,106.15380900000036,114.61523400000078,117.56396500000028,101.41015599999992
249,104.48730499999965,80.25634799999989,122.82031300000017,111.2822270000006,117.69238299999961,117.05126999999993,126.9228520000006,122.94873000000007,127.56396500000028,110.0,108.46142599999985,114.74365200000011,118.3334960000002,106.2822270000006
250,107.05126999999993,85.0,128.58984400000008,114.74365200000011,122.05126999999993,117.43603499999972,130.76904300000024,130.2563479999999,138.0771479999994,113.9741210000002,114.61523400000078,114.23095699999976,121.0258789999998,111.15380900000036
251,110.51269500000035,92.17968800000017,131.0258789999998,120.12841800000024,128.3334960000002,116.2822270000006,130.38476599999922,135.6411130000006,142.3076170000004,120.25634799999989,121.9228520000006,113.84619099999964,125.38476599999922,113.0771479999994
252,114.35888699999941,98.3334960000002,128.7177729999994,126.0258789999998,132.17968800000017,115.12841800000024,125.89746099999957,137.3076170000004,140.2563479999999,127.94873000000007,127.17968800000017,113.9741210000002,130.12841800000024,111.6665039999998
253,117.30761700000039,100.51269500000035,123.3334960000002,131.0258789999998,131.2822270000006,115.0,120.64111300000059,135.2563479999999,136.15380900000036,135.38476599999922,127.82031300000017,114.10253900000043,133.58984400000008,109.10253900000043
254,117.82031300000017,97.82031300000017,118.20507799999996,134.10253900000043,127.43603499999972,115.76904300000024,117.69238299999961,131.6665039999998,133.84619099999964,140.89746099999957,123.46142599999985,113.84619099999964,133.3334960000002,107.56396500000028
255,115.12841800000024,91.6665039999998,116.0258789999998,135.2563479999999,124.61523400000078,116.0258789999998,118.3334960000002,128.7177729999994,133.9741210000002,142.94873000000007,115.89746099999957,113.3334960000002,129.10253900000043,107.82031300000017
256,110.38476599999922,85.64111300000059,116.6665039999998,134.87158199999976,125.0,115.12841800000024,120.89746099999957,128.20507799999996,134.3588869999994,142.05126999999993,108.46142599999985,112.94873000000007,123.3334960000002,108.58984400000008
257,105.64111300000059,83.0771479999994,118.58984400000008,133.58984400000008,127.17968800000017,112.94873000000007,123.0771479999994,129.7436520000001,132.6923829999996,139.3588869999994,104.74365200000011,112.94873000000007,119.74365200000011,107.82031300000017
258,103.58984400000008,85.38476599999922,119.61523400000078,132.17968800000017,127.94873000000007,110.38476599999922,123.3334960000002,131.41015599999992,128.58984400000008,136.15380900000036,105.89746099999957,113.58984400000008,120.51269500000035,105.25634799999989
259,104.74365200000011,90.12841800000024,119.48730499999965,131.53857400000015,126.0258789999998,108.7177729999994,122.30761700000039,130.76904300000024,124.10253900000043,131.15380900000036,110.12841800000024,114.87158199999976,124.35888699999941,102.17968800000017
260,107.82031300000017,92.82031300000017,118.7177729999994,131.53857400000015,122.05126999999993,108.9741210000002,120.51269500000035,127.17968800000017,121.0258789999998,123.20507799999996,113.84619099999964,115.76904300000024,127.69238299999961,100.64111300000059
261,110.38476599999922,90.64111300000059,118.0771479999994,131.0258789999998,117.69238299999961,111.15380900000036,118.84619099999964,121.9228520000006,119.61523400000078,112.94873000000007,113.9741210000002,115.38476599999922,126.79492200000004,101.2822270000006
262,110.0,84.61523400000078,117.69238299999961,130.0,115.0,114.10253900000043,117.43603499999972,117.05126999999993,118.9741210000002,104.10253900000043,109.87158199999976,113.84619099999964,121.6665039999998,102.82031300000017
263,106.6665039999998,78.84619099999964,117.43603499999972,130.12841800000024,115.12841800000024,116.0258789999998,116.53857400000015,114.48730499999965,117.69238299999961,100.76904300000024,103.46142599999985,112.43603499999972,115.38476599999922,103.20507799999996
264,101.9228520000006,76.41015599999992,116.9228520000006,132.43603499999972,117.30761700000039,115.76904300000024,116.6665039999998,114.10253900000043,115.76904300000024,103.7177729999994,98.0771479999994,112.17968800000017,111.9228520000006,101.9228520000006
265,98.7177729999994,77.56396500000028,116.6665039999998,135.51269500000035,120.12841800000024,113.9741210000002,118.46142599999985,115.0,114.23095699999976,110.25634799999989,96.53857400000015,113.3334960000002,112.82031300000017,100.12841800000024
266,98.84619099999964,80.76904300000024,117.17968800000017,136.6665039999998,122.30761700000039,111.9228520000006,121.79492200000004,116.2822270000006,115.0,116.53857400000015,99.10253900000043,115.25634799999989,117.82031300000017,99.61523400000078
267,101.2822270000006,84.74365200000011,118.46142599999985,134.10253900000043,123.9741210000002,110.64111300000059,125.0,117.43603499999972,118.3334960000002,120.51269500000035,103.3334960000002,115.64111300000059,124.23095699999976,100.89746099999957
268,103.46142599999985,88.7177729999994,119.61523400000078,128.3334960000002,125.51269500000035,110.0,125.64111300000059,118.46142599999985,122.17968800000017,121.6665039999998,105.38476599999922,112.94873000000007,129.3588869999994,102.94873000000007
269,104.23095699999976,92.17968800000017,119.61523400000078,122.30761700000039,126.41015599999992,109.10253900000043,122.69238299999961,118.84619099999964,123.3334960000002,120.38476599999922,104.10253900000043,108.0771479999994,131.0258789999998,103.9741210000002
270,103.84619099999964,94.23095699999976,118.3334960000002,119.23095699999976,125.38476599999922,107.94873000000007,118.0771479999994,117.43603499999972,120.12841800000024,118.3334960000002,101.0258789999998,104.35888699999941,129.48730499999965,103.0771479999994
271,103.3334960000002,94.23095699999976,116.6665039999998,119.61523400000078,121.6665039999998,106.6665039999998,114.74365200000011,113.46142599999985,113.20507799999996,117.17968800000017,98.58984400000008,103.7177729999994,126.15380900000036,101.0258789999998
272,102.05126999999993,91.53857400000015,115.38476599999922,121.15380900000036,116.15380900000036,106.2822270000006,113.3334960000002,107.69238299999961,105.64111300000059,116.2822270000006,97.82031300000017,105.51269500000035,122.17968800000017,98.58984400000008
273,99.87158199999976,87.17968800000017,114.61523400000078,120.12841800000024,112.30761700000039,107.56396500000028,113.0771479999994,102.69238299999961,100.25634799999989,112.43603499999972,97.69238299999961,107.30761700000039,118.0771479999994,96.15380900000036
274,98.46142599999985,83.46142599999985,114.35888699999941,116.0258789999998,114.10253900000043,110.51269500000035,112.94873000000007,101.6665039999998,99.23095699999976,104.23095699999976,97.43603499999972,108.20507799999996,114.87158199999976,94.35888699999941
275,100.51269500000035,82.69238299999961,115.38476599999922,112.17968800000017,122.05126999999993,114.23095699999976,113.3334960000002,105.25634799999989,102.56396500000028,94.48730499999965,97.82031300000017,108.46142599999985,113.9741210000002,94.35888699999941
276,106.53857400000015,84.48730499999965,117.82031300000017,112.05126999999993,131.0258789999998,117.30761700000039,114.23095699999976,110.64111300000059,108.84619099999964,89.35888699999941,99.48730499999965,108.20507799999996,116.0258789999998,96.6665039999998
277,112.82031300000017,86.15380900000036,120.12841800000024,115.51269500000035,134.3588869999994,117.82031300000017,114.87158199999976,113.3334960000002,114.87158199999976,92.82031300000017,101.9228520000006,107.17968800000017,118.84619099999964,100.25634799999989
278,114.61523400000078,85.0,119.87158199999976,118.58984400000008,129.61523400000078,115.51269500000035,114.23095699999976,110.89746099999957,117.94873000000007,102.69238299999961,103.58984400000008,104.87158199999976,119.35888699999941,102.69238299999961
279,110.25634799999989,81.9228520000006,116.6665039999998,117.17968800000017,120.51269500000035,111.6665039999998,112.69238299999961,105.51269500000035,117.56396500000028,112.82031300000017,104.35888699999941,102.94873000000007,117.17968800000017,102.30761700000039
280,103.46142599999985,80.89746099999957,113.0771479999994,110.89746099999957,113.84619099999964,108.84619099999964,111.41015599999992,102.30761700000039,115.64111300000059,118.9741210000002,105.64111300000059,103.0771479999994,114.87158199999976,100.25634799999989
281,100.25634799999989,85.38476599999922,112.69238299999961,103.46142599999985,114.61523400000078,108.9741210000002,111.41015599999992,105.25634799999989,115.25634799999989,120.89746099999957,108.9741210000002,106.0258789999998,115.25634799999989,99.61523400000078
282,103.58984400000008,94.87158199999976,116.79492200000004,99.61523400000078,122.56396500000028,111.79492200000004,112.82031300000017,113.20507799999996,117.94873000000007,121.41015599999992,113.58984400000008,110.64111300000059,118.9741210000002,102.17968800000017
283,111.15380900000036,103.9741210000002,123.20507799999996,101.9228520000006,133.0771479999994,115.0,115.0,121.0258789999998,122.94873000000007,122.82031300000017,117.82031300000017,114.23095699999976,124.23095699999976,107.69238299999961
284,117.94873000000007,107.56396500000028,127.69238299999961,108.9741210000002,139.48730499999965,116.41015599999992,117.56396500000028,124.48730499999965,127.82031300000017,125.64111300000059,120.51269500000035,114.61523400000078,127.56396500000028,113.58984400000008
285,119.48730499999965,104.10253900000043,128.0771479999994,116.41015599999992,138.84619099999964,116.0258789999998,121.15380900000036,123.0771479999994,130.89746099999957,128.58984400000008,121.79492200000004,112.05126999999993,126.2822270000006,117.05126999999993
286,114.74365200000011,96.6665039999998,124.87158199999976,119.87158199999976,133.58984400000008,115.12841800000024,125.38476599999922,119.48730499999965,131.15380900000036,129.3588869999994,121.79492200000004,108.84619099999964,120.89746099999957,116.15380900000036
287,105.89746099999957,89.10253900000043,120.51269500000035,117.30761700000039,128.20507799999996,115.0,128.9741210000002,117.05126999999993,128.58984400000008,126.41015599999992,119.10253900000043,106.79492200000004,113.46142599999985,111.15380900000036
288,96.53857400000015,82.69238299999961,116.6665039999998,109.10253900000043,124.48730499999965,115.38476599999922,129.61523400000078,116.15380900000036,122.69238299999961,119.61523400000078,112.17968800000017,105.89746099999957,106.53857400000015,103.58984400000008
289,89.74365200000011,76.2822270000006,113.3334960000002,97.69238299999961,120.89746099999957,115.51269500000035,125.89746099999957,115.0,113.9741210000002,111.0258789999998,101.6665039999998,104.61523400000078,101.6665039999998,96.0258789999998
290,87.05126999999993,69.61523400000078,110.0,87.05126999999993,115.89746099999957,115.25634799999989,119.10253900000043,111.9228520000006,105.64111300000059,103.84619099999964,91.53857400000015,102.43603499999972,99.10253900000043,91.0258789999998
291,89.10253900000043,65.64111300000059,108.0771479999994,81.41015599999992,111.53857400000015,114.61523400000078,112.43603499999972,108.58984400000008,103.20507799999996,101.15380900000036,87.05126999999993,100.0,99.61523400000078,90.64111300000059
292,95.38476599999922,68.20507799999996,109.87158199999976,82.94873000000007,112.17968800000017,114.35888699999941,109.87158199999976,108.46142599999985,109.87158199999976,104.35888699999941,91.41015599999992,100.25634799999989,104.23095699999976,95.89746099999957
293,104.10253900000043,78.0771479999994,116.53857400000015,90.64111300000059,119.61523400000078,115.0,112.69238299999961,113.0771479999994,122.94873000000007,112.05126999999993,103.58984400000008,104.61523400000078,113.3334960000002,105.38476599999922
294,111.6665039999998,90.64111300000059,125.76904300000024,101.2822270000006,130.0,116.2822270000006,118.3334960000002,119.87158199999976,134.23095699999976,121.2822270000006,117.43603499999972,111.79492200000004,124.23095699999976,115.25634799999989
295,114.61523400000078,97.94873000000007,132.43603499999972,110.51269500000035,136.79492200000004,117.43603499999972,121.9228520000006,123.46142599999985,135.76904300000024,127.94873000000007,125.51269500000035,117.30761700000039,132.3076170000004,121.41015599999992
296,113.0771479999994,95.76904300000024,133.20507799999996,116.15380900000036,136.2822270000006,117.30761700000039,120.89746099999957,121.15380900000036,127.56396500000028,129.7436520000001,124.61523400000078,118.0771479999994,134.23095699999976,121.6665039999998
297,111.2822270000006,87.69238299999961,128.20507799999996,118.3334960000002,130.51269500000035,115.38476599999922,117.17968800000017,115.89746099999957,117.43603499999972,127.30761700000039,117.82031300000017,115.0,131.0258789999998,117.94873000000007
298,114.35888699999941,83.20507799999996,122.56396500000028,118.84619099999964,125.38476599999922,113.0771479999994,115.12841800000024,113.3334960000002,114.61523400000078,124.35888699999941,112.17968800000017,111.79492200000004,127.43603499999972,114.23095699999976
299,122.94873000000007,88.7177729999994,121.0258789999998,118.9741210000002,125.25634799999989,112.69238299999961,117.17968800000017,117.69238299999961,122.56396500000028,124.87158199999976,112.56396500000028,111.53857400000015,128.0771479999994,113.84619099999964
300,133.0771479999994,102.82031300000017,125.0,118.0771479999994,130.0,115.0,122.05126999999993,127.43603499999972,136.15380900000036,129.61523400000078,117.94873000000007,113.9741210000002,132.94873000000007,117.82031300000017
301,139.61523400000078,116.9228520000006,130.76904300000024,113.58984400000008,136.0258789999998,117.82031300000017,125.38476599999922,136.53857400000015,146.79492200000004,135.38476599999922,123.9741210000002,116.53857400000015,138.9741210000002,123.7177729999994
302,140.12841800000024,122.69238299999961,133.9741210000002,104.48730499999965,138.9741210000002,117.69238299999961,124.61523400000078,139.10253900000043,148.58984400000008,137.6923829999996,126.79492200000004,117.05126999999993,142.43603499999972,128.46142599999985
303,137.05126999999993,118.20507799999996,133.58984400000008,92.56396500000028,136.9228520000006,113.20507799999996,120.51269500000035,133.58984400000008,142.17968800000017,135.12841800000024,125.76904300000024,115.51269500000035,141.79492200000004,130.12841800000024
304,134.7436520000001,107.82031300000017,131.41015599999992,81.6665039999998,130.76904300000024,107.30761700000039,116.15380900000036,123.3334960000002,132.82031300000017,131.0258789999998,122.69238299999961,113.58984400000008,137.6923829999996,128.84619099999964
305,134.87158199999976,98.20507799999996,130.0,75.0,125.12841800000024,103.9741210000002,113.7177729999994,114.48730499999965,125.64111300000059,129.23095699999976,118.84619099999964,112.82031300000017,132.17968800000017,125.64111300000059
306,135.76904300000024,93.84619099999964,130.0,73.20507799999996,124.35888699999941,104.87158199999976,114.10253900000043,111.9228520000006,122.17968800000017,131.0258789999998,114.87158199999976,113.46142599999985,127.82031300000017,121.9228520000006
307,134.3588869999994,95.25634799999989,129.87158199999976,73.9741210000002,129.23095699999976,108.84619099999964,115.76904300000024,115.51269500000035,120.89746099999957,133.9741210000002,110.89746099999957,114.48730499999965,126.41015599999992,118.84619099999964
308,129.23095699999976,99.48730499999965,127.69238299999961,73.84619099999964,135.51269500000035,112.56396500000028,116.9228520000006,121.41015599999992,120.0,135.0,107.94873000000007,114.48730499999965,127.30761700000039,116.9228520000006
309,121.79492200000004,102.82031300000017,123.0771479999994,70.12841800000024,137.82031300000017,113.84619099999964,116.15380900000036,123.84619099999964,118.9741210000002,131.9228520000006,107.05126999999993,112.69238299999961,127.82031300000017,115.64111300000059
310,114.87158199999976,103.0771479999994,117.69238299999961,63.20507799999996,133.84619099999964,111.9228520000006,114.10253900000043,119.61523400000078,118.7177729999994,125.0,108.7177729999994,110.12841800000024,126.53857400000015,113.9741210000002
311,111.15380900000036,100.76904300000024,114.48730499999965,55.897460999999566,126.41015599999992,108.3334960000002,112.30761700000039,111.0258789999998,119.48730499999965,117.69238299999961,112.43603499999972,108.46142599999985,123.9741210000002,112.05126999999993
312,111.6665039999998,98.7177729999994,115.38476599999922,51.53857400000015,120.76904300000024,106.41015599999992,112.43603499999972,103.58984400000008,120.25634799999989,113.84619099999964,116.79492200000004,108.7177729999994,122.30761700000039,111.41015599999992
313,115.0,99.23095699999976,120.12841800000024,51.410155999999915,121.2822270000006,107.82031300000017,114.87158199999976,102.05126999999993,119.87158199999976,115.0,120.38476599999922,111.15380900000036,121.79492200000004,114.35888699999941
314,118.3334960000002,102.30761700000039,126.0258789999998,54.61523400000078,127.43603499999972,111.9228520000006,118.0771479999994,106.79492200000004,118.46142599999985,118.46142599999985,121.2822270000006,113.9741210000002,121.41015599999992,121.2822270000006
315,119.61523400000078,104.87158199999976,130.38476599999922,57.94873000000007,133.84619099999964,115.0,120.0,114.10253900000043,117.05126999999993,118.9741210000002,118.7177729999994,115.51269500000035,119.61523400000078,128.7177729999994
316,118.3334960000002,104.87158199999976,131.41015599999992,58.589844000000085,135.2563479999999,114.61523400000078,119.23095699999976,119.23095699999976,117.05126999999993,114.48730499999965,113.9741210000002,114.74365200000011,116.53857400000015,131.79492200000004
317,115.51269500000035,103.0771479999994,129.7436520000001,55.76904300000024,130.76904300000024,111.0258789999998,116.2822270000006,119.35888699999941,118.9741210000002,108.46142599999985,110.38476599999922,112.69238299999961,114.10253900000043,128.58984400000008
318,113.20507799999996,102.82031300000017,127.69238299999961,51.9228520000006,125.51269500000035,107.56396500000028,113.0771479999994,116.15380900000036,122.94873000000007,109.10253900000043,111.53857400000015,111.15380900000036,115.51269500000035,122.43603499999972
319,112.94873000000007,106.15380900000036,127.69238299999961,50.64111300000059,125.25634799999989,107.05126999999993,111.79492200000004,113.3334960000002,128.7177729999994,121.41015599999992,117.94873000000007,111.41015599999992,121.79492200000004,119.23095699999976
320,115.0,111.79492200000004,130.38476599999922,53.0771479999994,130.89746099999957,109.87158199999976,113.3334960000002,113.84619099999964,134.87158199999976,142.05126999999993,125.51269500000035,113.46142599999985,130.89746099999957,122.17968800000017
321,117.56396500000028,115.76904300000024,134.10253900000043,56.2822270000006,138.0771479999994,113.7177729999994,116.79492200000004,117.05126999999993,138.9741210000002,159.48730499999965,128.9741210000002,115.51269500000035,137.56396500000028,129.10253900000043
322,118.84619099999964,114.61523400000078,136.2822270000006,56.153809000000365,141.15380900000036,115.89746099999957,120.12841800000024,119.87158199999976,139.10253900000043,163.20507799999996,126.9228520000006,116.0258789999998,137.6923829999996,134.23095699999976
323,118.20507799999996,108.9741210000002,135.76904300000024,51.2822270000006,138.9741210000002,116.15380900000036,121.41015599999992,119.87158199999976,135.51269500000035,152.17968800000017,122.05126999999993,115.25634799999989,131.41015599999992,133.84619099999964
324,116.79492200000004,102.56396500000028,133.20507799999996,43.7177729999994,135.0,115.25634799999989,119.87158199999976,117.43603499999972,131.0258789999998,134.48730499999965,118.7177729999994,114.61523400000078,123.20507799999996,128.7177729999994
325,116.15380900000036,100.12841800000024,131.0258789999998,37.56396500000028,133.84619099999964,114.35888699999941,116.0258789999998,115.51269500000035,127.94873000000007,121.0258789999998,118.84619099999964,114.87158199999976,117.94873000000007,122.94873000000007
326,118.0771479999994,103.84619099999964,132.05126999999993,36.53857400000015,137.94873000000007,113.46142599999985,112.43603499999972,116.6665039999998,127.30761700000039,117.43603499999972,121.2822270000006,115.76904300000024,118.58984400000008,120.76904300000024
327,123.0771479999994,112.82031300000017,137.05126999999993,41.9228520000006,144.61523400000078,113.0771479999994,111.9228520000006,121.79492200000004,128.7177729999994,122.56396500000028,123.84619099999964,116.15380900000036,124.35888699999941,124.35888699999941
328,130.38476599999922,122.82031300000017,144.10253900000043,51.153809000000365,148.7177729999994,113.58984400000008,115.89746099999957,129.10253900000043,131.79492200000004,130.6411130000006,125.64111300000059,116.15380900000036,132.3076170000004,132.17968800000017
329,137.05126999999993,128.7177729999994,149.87158199999976,59.23095699999976,146.79492200000004,114.74365200000011,123.20507799999996,134.7436520000001,135.89746099999957,135.89746099999957,126.79492200000004,116.41015599999992,138.9741210000002,139.48730499999965
330,139.61523400000078,127.43603499999972,151.2822270000006,61.2822270000006,139.3588869999994,115.38476599999922,130.12841800000024,135.89746099999957,140.12841800000024,137.17968800000017,128.58984400000008,117.17968800000017,142.17968800000017,141.9228520000006
331,136.53857400000015,120.12841800000024,147.6923829999996,56.153809000000365,130.89746099999957,114.87158199999976,133.3334960000002,132.43603499999972,143.20507799999996,137.43603499999972,131.2822270000006,117.56396500000028,141.79492200000004,138.20507799999996
332,129.23095699999976,110.64111300000059,141.15380900000036,47.17968800000017,126.79492200000004,113.9741210000002,130.76904300000024,126.9228520000006,143.7177729999994,139.48730499999965,133.46142599999985,116.9228520000006,138.84619099999964,130.89746099999957
333,120.25634799999989,103.58984400000008,134.48730499999965,38.974121000000196,129.23095699999976,113.20507799999996,123.46142599999985,122.56396500000028,140.89746099999957,141.53857400000015,131.9228520000006,114.87158199999976,133.7177729999994,123.46142599999985
334,112.69238299999961,100.51269500000035,129.7436520000001,35.0,134.7436520000001,112.30761700000039,115.12841800000024,121.41015599999992,135.38476599999922,139.23095699999976,125.0,112.05126999999993,126.9228520000006,118.20507799999996
335,109.35888699999941,101.6665039999998,128.20507799999996,35.0,137.17968800000017,111.0258789999998,110.12841800000024,123.46142599999985,130.0,132.56396500000028,115.38476599999922,109.48730499999965,120.25634799999989,116.41015599999992
336,111.9228520000006,106.0258789999998,130.0,37.56396500000028,132.94873000000007,110.51269500000035,111.53857400000015,127.56396500000028,127.94873000000007,126.6665039999998,108.9741210000002,109.10253900000043,117.17968800000017,118.7177729999994
337,119.48730499999965,112.17968800000017,134.23095699999976,40.897460999999566,124.87158199999976,111.41015599999992,119.10253900000043,131.9228520000006,131.2822270000006,127.30761700000039,110.64111300000059,111.53857400000015,120.38476599999922,124.87158199999976
338,127.82031300000017,117.69238299999961,138.58984400000008,43.589844000000085,119.35888699999941,113.46142599999985,129.23095699999976,134.87158199999976,137.82031300000017,134.61523400000078,119.74365200000011,116.0258789999998,128.9741210000002,132.17968800000017
339,131.2822270000006,120.0,139.87158199999976,44.74365200000011,121.41015599999992,114.74365200000011,136.53857400000015,135.76904300000024,142.6923829999996,141.79492200000004,128.9741210000002,119.61523400000078,137.3076170000004,135.6411130000006
340,127.30761700000039,117.82031300000017,136.53857400000015,43.333496000000196,130.0,114.48730499999965,137.3076170000004,133.9741210000002,142.3076170000004,141.6665039999998,130.0,119.48730499999965,138.20507799999996,130.76904300000024
341,118.0771479999994,112.82031300000017,129.87158199999976,39.48730499999965,139.48730499999965,113.3334960000002,132.05126999999993,129.10253900000043,136.9228520000006,132.56396500000028,120.51269500000035,115.12841800000024,130.12841800000024,118.3334960000002
342,108.7177729999994,108.0771479999994,123.0771479999994,35.38476599999922,143.7177729999994,112.82031300000017,124.48730499999965,122.05126999999993,130.0,119.61523400000078,106.53857400000015,108.58984400000008,118.58984400000008,104.74365200000011
343,104.10253900000043,106.0258789999998,119.23095699999976,33.20507799999996,139.7436520000001,113.3334960000002,118.84619099999964,114.74365200000011,124.87158199999976,110.12841800000024,97.17968800000017,102.94873000000007,111.79492200000004,97.17968800000017
344,105.64111300000059,106.2822270000006,118.7177729999994,33.846190999999635,129.10253900000043,114.61523400000078,116.79492200000004,108.9741210000002,121.9228520000006,107.43603499999972,97.17968800000017,100.0,113.3334960000002,98.58984400000008
345,110.51269500000035,106.79492200000004,119.48730499999965,35.38476599999922,116.79492200000004,115.64111300000059,117.43603499999972,105.89746099999957,119.35888699999941,110.51269500000035,103.9741210000002,99.48730499999965,120.64111300000059,106.2822270000006
346,115.51269500000035,106.0258789999998,119.48730499999965,35.897460999999566,109.23095699999976,115.76904300000024,119.10253900000043,105.76904300000024,116.6665039999998,116.0258789999998,110.89746099999957,100.12841800000024,128.46142599999985,114.48730499999965
347,118.46142599999985,105.64111300000059,118.46142599999985,34.74365200000011,109.74365200000011,115.38476599999922,120.64111300000059,108.3334960000002,115.0,120.89746099999957,112.94873000000007,101.0258789999998,133.58984400000008,118.7177729999994
348,118.84619099999964,107.43603499999972,117.17968800000017,32.82031300000017,116.41015599999992,115.38476599999922,121.6665039999998,112.17968800000017,116.0258789999998,122.82031300000017,109.87158199999976,102.05126999999993,134.7436520000001,117.56396500000028
349,116.2822270000006,110.51269500000035,116.41015599999992,31.025878999999804,122.94873000000007,116.15380900000036,121.79492200000004,114.61523400000078,118.58984400000008,120.12841800000024,104.23095699999976,102.82031300000017,132.17968800000017,112.17968800000017
350,110.38476599999922,111.79492200000004,115.38476599999922,28.461425999999847,123.9741210000002,116.53857400000015,120.25634799999989,113.20507799999996,120.51269500000035,112.82031300000017,99.10253900000043,102.43603499999972,127.17968800000017,104.74365200000011
351,102.82031300000017,109.74365200000011,113.20507799999996,24.48730499999965,119.10253900000043,116.15380900000036,116.9228520000006,109.23095699999976,119.61523400000078,104.10253900000043,95.89746099999957,100.76904300000024,122.56396500000028,98.58984400000008
352,97.82031300000017,106.15380900000036,110.89746099999957,20.0,113.84619099999964,115.0,113.3334960000002,106.2822270000006,116.9228520000006,98.7177729999994,94.87158199999976,98.84619099999964,121.0258789999998,96.15380900000036
353,99.61523400000078,104.74365200000011,110.38476599999922,17.69238299999961,113.3334960000002,114.10253900000043,112.43603499999972,108.0771479999994,115.38476599999922,100.25634799999989,96.0258789999998,98.84619099999964,123.0771479999994,98.20507799999996
354,108.9741210000002,107.69238299999961,113.0771479999994,20.25634799999989,118.58984400000008,114.48730499999965,116.2822270000006,115.0,117.69238299999961,109.87158199999976,100.76904300000024,101.53857400000015,127.30761700000039,103.58984400000008
355,122.17968800000017,114.35888699999941,118.20507799999996,27.05126999999993,125.51269500000035,115.89746099999957,123.9741210000002,123.7177729999994,124.10253900000043,124.87158199999976,109.74365200000011,106.79492200000004,132.05126999999993,110.76904300000024
356,132.82031300000017,121.79492200000004,123.7177729999994,34.35888699999941,129.23095699999976,117.69238299999961,131.53857400000015,129.48730499999965,131.53857400000015,138.7177729999994,120.51269500000035,112.82031300000017,135.51269500000035,117.43603499999972
357,135.2563479999999,125.64111300000059,127.17968800000017,37.30761700000039,126.79492200000004,118.46142599999985,134.48730499999965,129.10253900000043,135.6411130000006,144.87158199999976,128.9741210000002,116.9228520000006,136.41015599999992,121.53857400000015
358,128.58984400000008,123.58984400000008,127.69238299999961,33.7177729999994,120.0,117.82031300000017,131.15380900000036,123.46142599999985,134.23095699999976,141.0258789999998,131.79492200000004,116.79492200000004,135.2563479999999,121.53857400000015
359,118.20507799999996,117.05126999999993,126.15380900000036,26.153809000000365,113.84619099999964,115.89746099999957,123.46142599999985,116.6665039999998,128.46142599999985,130.6411130000006,128.58984400000008,112.69238299999961,134.7436520000001,118.0771479999994
360,111.79492200000004,111.41015599999992,124.48730499999965,19.74365200000011,113.0771479999994,114.10253900000043,116.41015599999992,113.0771479999994,123.20507799999996,120.25634799999989,122.69238299999961,107.05126999999993,137.82031300000017,114.23095699999976
361,113.0771479999994,111.53857400000015,124.10253900000043,18.077147999999397,119.10253900000043,113.58984400000008,113.7177729999994,114.61523400000078,122.56396500000028,115.38476599999922,119.48730499999965,103.3334960000002,144.48730499999965,113.20507799999996
362,119.74365200000011,117.69238299999961,124.48730499999965,20.769043000000238,128.9741210000002,114.35888699999941,116.15380900000036,118.9741210000002,127.56396500000028,117.69238299999961,121.41015599999992,102.94873000000007,151.0258789999998,116.0258789999998
363,125.12841800000024,124.61523400000078,124.10253900000043,24.230956999999762,136.53857400000015,115.51269500000035,120.38476599999922,122.30761700000039,134.23095699999976,124.61523400000078,125.76904300000024,104.61523400000078,152.6923829999996,120.0
364,123.9741210000002,125.0,121.41015599999992,24.615234000000783,135.2563479999999,115.76904300000024,122.30761700000039,120.89746099999957,136.41015599999992,131.2822270000006,126.2822270000006,105.64111300000059,147.17968800000017,120.89746099999957
365,116.41015599999992,115.64111300000059,117.05126999999993,21.282227000000603,124.61523400000078,115.0,120.25634799999989,114.87158199999976,131.41015599999992,132.6923829999996,119.48730499999965,104.48730499999965,136.9228520000006,116.53857400000015
366,107.30761700000039,102.43603499999972,113.3334960000002,17.43603499999972,111.41015599999992,113.9741210000002,116.15380900000036,108.9741210000002,122.17968800000017,127.56396500000028,108.84619099999964,102.69238299999961,128.0771479999994,108.3334960000002
367,102.56396500000028,95.64111300000059,112.94873000000007,16.794922000000042,105.38476599999922,114.10253900000043,113.9741210000002,108.20507799999996,115.12841800000024,118.9741210000002,101.9228520000006,102.69238299999961,125.0,100.89746099999957
368,103.58984400000008,100.25634799999989,115.89746099999957,20.25634799999989,110.89746099999957,115.25634799999989,115.25634799999989,113.20507799999996,115.25634799999989,112.69238299999961,102.82031300000017,104.48730499999965,127.30761700000039,97.94873000000007
369,106.2822270000006,111.79492200000004,118.84619099999964,24.615234000000783,122.69238299999961,116.2822270000006,118.0771479999994,118.84619099999964,121.41015599999992,112.05126999999993,109.23095699999976,105.51269500000035,130.76904300000024,99.35888699999941
370,106.2822270000006,120.38476599999922,118.84619099999964,26.538574000000153,131.41015599999992,115.89746099999957,119.35888699999941,119.35888699999941,128.46142599999985,116.6665039999998,115.0,103.7177729999994,131.53857400000015,102.94873000000007
371,102.82031300000017,120.25634799999989,116.2822270000006,25.25634799999989,131.9228520000006,114.23095699999976,118.3334960000002,113.7177729999994,131.79492200000004,124.23095699999976,116.79492200000004,100.51269500000035,129.23095699999976,107.17968800000017
372,99.61523400000078,113.3334960000002,115.0,23.461425999999847,125.89746099999957,113.0771479999994,117.05126999999993,106.79492200000004,131.0258789999998,132.17968800000017,116.2822270000006,99.74365200000011,126.9228520000006,111.15380900000036
373,100.12841800000024,106.79492200000004,117.69238299999961,23.974121000000196,119.74365200000011,112.94873000000007,118.58984400000008,105.76904300000024,128.9741210000002,137.94873000000007,117.69238299999961,103.7177729999994,127.69238299999961,114.74365200000011
374,104.23095699999976,106.6665039999998,123.0771479999994,26.794922000000042,118.58984400000008,113.58984400000008,123.58984400000008,113.7177729999994,128.46142599999985,139.3588869999994,122.30761700000039,110.51269500000035,131.53857400000015,116.79492200000004
375,108.58984400000008,112.82031300000017,127.82031300000017,29.48730499999965,122.56396500000028,113.46142599999985,130.0,126.6665039999998,129.7436520000001,135.76904300000024,126.79492200000004,115.51269500000035,135.2563479999999,116.41015599999992
376,109.35888699999941,119.35888699999941,128.58984400000008,29.230956999999762,127.05126999999993,112.17968800000017,133.84619099999964,136.79492200000004,131.41015599999992,128.84619099999964,126.9228520000006,115.25634799999989,135.2563479999999,112.56396500000028
377,105.25634799999989,119.10253900000043,124.87158199999976,25.25634799999989,126.53857400000015,110.12841800000024,132.6923829999996,138.20507799999996,131.53857400000015,121.9228520000006,120.51269500000035,109.74365200000011,130.51269500000035,105.51269500000035
378,98.58984400000008,111.0258789999998,119.35888699999941,20.25634799999989,120.25634799999989,108.9741210000002,127.17968800000017,131.0258789999998,129.48730499999965,117.56396500000028,110.12841800000024,103.20507799999996,123.9741210000002,98.0771479999994
379,94.10253900000043,101.15380900000036,117.05126999999993,18.205077999999958,112.94873000000007,109.87158199999976,120.89746099999957,121.41015599999992,126.6665039999998,116.53857400000015,102.30761700000039,101.41015599999992,120.64111300000059,94.87158199999976
380,96.15380900000036,98.3334960000002,120.89746099999957,21.922852000000603,111.15380900000036,112.30761700000039,117.94873000000007,116.53857400000015,125.51269500000035,117.43603499999972,103.7177729999994,106.9228520000006,124.23095699999976,98.9741210000002
381,104.10253900000043,105.0,128.9741210000002,29.74365200000011,116.53857400000015,114.87158199999976,119.35888699999941,119.10253900000043,126.6665039999998,118.3334960000002,115.64111300000059,116.15380900000036,132.94873000000007,108.84619099999964
382,111.9228520000006,115.25634799999989,134.3588869999994,36.153809000000365,124.23095699999976,115.89746099999957,122.56396500000028,125.0,128.7177729999994,118.0771479999994,131.41015599999992,121.79492200000004,141.2822270000006,118.20507799999996
383,112.82031300000017,120.38476599999922,132.43603499999972,36.153809000000365,127.05126999999993,115.12841800000024,124.10253900000043,127.82031300000017,130.12841800000024,117.69238299999961,140.89746099999957,119.35888699999941,143.7177729999994,120.89746099999957
