,EEG.AF3,EEG.F7,EEG.F3,EEG.FC5,EEG.T7,EEG.P7,EEG.O1,EEG.O2,EEG.P8,EEG.T8,EEG.FC6,EEG.F4,EEG.F8,EEG.AF4
0,101.2822270000006,707.8203130000002,148.3334960000002,577.5639650000003,147.56396500000028,116.41015599999992,132.82031300000017,139.7436520000001,151.41015599999992,138.84619099999964,-57.17944299999999,106.41015599999992,106.0258789999998,90.76904300000024
1,97.94873000000007,697.6923829999996,149.87158199999976,556.5385740000002,138.20507799999996,115.76904300000024,131.53857400000015,138.84619099999964,147.17968800000017,131.79492200000004,-48.974365000000034,108.84619099999964,86.41015599999992,85.64111300000059
2,99.61523400000078,692.1796880000002,149.87158199999976,548.0771479999994,136.41015599999992,116.15380900000036,132.17968800000017,141.9228520000006,143.7177729999994,127.69238299999961,-15.38452099999995,112.43603499999972,80.51269500000035,85.25634799999989
3,106.0258789999998,691.4101559999999,148.9741210000002,559.2309569999998,142.3076170000004,117.43603499999972,134.7436520000001,147.43603499999972,144.48730499999965,129.61523400000078,20.25634799999989,116.0258789999998,92.56396500000028,89.35888699999941
4,113.9741210000002,692.3076170000004,148.58984400000008,580.1284180000002,150.12841800000024,118.46142599999985,136.79492200000004,151.41015599999992,149.48730499999965,135.2563479999999,35.38476599999922,118.20507799999996,111.79492200000004,94.48730499999965
5,119.23095699999976,690.6411130000006,148.9741210000002,593.5898440000001,152.6923829999996,118.46142599999985,136.41015599999992,150.0,154.10253900000043,138.84619099999964,23.974121000000196,118.3334960000002,123.20507799999996,97.05126999999993
6,119.74365200000011,684.7436520000001,149.10253900000043,589.1025390000004,148.20507799999996,117.43603499999972,133.46142599999985,143.0771479999994,153.9741210000002,136.41015599999992,-3.2050779999999577,116.15380900000036,121.53857400000015,95.51269500000035
7,117.43603499999972,676.4101559999999,148.20507799999996,571.794922,141.41015599999992,116.6665039999998,130.2563479999999,135.12841800000024,149.10253900000043,130.89746099999957,-27.179442999999992,112.82031300000017,115.0,92.30761700000039
8,115.38476599999922,669.6152340000008,146.41015599999992,555.3847659999992,138.84619099999964,116.53857400000015,129.61523400000078,131.15380900000036,144.48730499999965,128.20507799999996,-30.89746100000002,110.0,113.7177729999994,91.53857400000015
9,115.64111300000059,666.5385740000002,145.2563479999999,549.3588869999994,142.94873000000007,116.41015599999992,131.79492200000004,132.17968800000017,143.9741210000002,131.0258789999998,-9.230713000000378,109.74365200000011,118.58984400000008,94.74365200000011
10,116.9228520000006,665.1284180000002,145.38476599999922,551.6665039999998,149.10253900000043,115.89746099999957,134.10253900000043,134.87158199999976,146.9228520000006,135.76904300000024,28.205077999999958,112.17968800000017,121.41015599999992,100.12841800000024
11,117.30761700000039,661.794922,146.41015599999992,553.8461909999996,151.0258789999998,115.0,133.58984400000008,134.87158199999976,149.61523400000078,136.41015599999992,61.2822270000006,115.89746099999957,115.12841800000024,103.84619099999964
12,116.53857400000015,655.3847659999992,148.0771479999994,551.1538090000004,146.9228520000006,114.23095699999976,130.51269500000035,131.2822270000006,148.9741210000002,132.05126999999993,71.6665039999998,118.84619099999964,104.35888699999941,104.10253900000043
13,115.76904300000024,647.3076170000004,150.12841800000024,546.5385740000002,140.76904300000024,113.84619099999964,128.20507799999996,128.0771479999994,146.41015599999992,127.43603499999972,54.35888699999941,120.0,101.79492200000004,102.17968800000017
14,116.2822270000006,639.3588869999994,152.3076170000004,546.5385740000002,137.56396500000028,113.84619099999964,128.84619099999964,129.87158199999976,144.87158199999976,128.7177729999994,19.615234000000783,119.35888699999941,115.51269500000035,100.64111300000059
15,116.6665039999998,632.3076170000004,153.0771479999994,552.8203130000002,139.10253900000043,113.9741210000002,131.79492200000004,137.43603499999972,146.15380900000036,136.79492200000004,-15.0,117.43603499999972,138.9741210000002,100.12841800000024
16,114.35888699999941,625.8974609999996,150.89746099999957,559.8715819999998,143.0771479999994,113.7177729999994,134.23095699999976,146.79492200000004,150.0,146.15380900000036,-34.48706099999981,114.74365200000011,155.51269500000035,98.84619099999964
17,108.58984400000008,620.1284180000002,145.76904300000024,559.7436520000001,145.76904300000024,112.69238299999961,133.46142599999985,152.6923829999996,153.46142599999985,149.61523400000078,-31.28198199999997,111.79492200000004,151.53857400000015,94.87158199999976
18,101.41015599999992,613.7177729999994,139.23095699999976,549.3588869999994,143.84619099999964,111.6665039999998,128.7177729999994,151.9228520000006,153.3334960000002,142.94873000000007,-7.564209000000574,108.9741210000002,128.0771479999994,88.58984400000008
19,95.89746099999957,604.2309569999998,133.58984400000008,532.0512699999999,136.41015599999992,111.6665039999998,121.6665039999998,144.7436520000001,147.56396500000028,127.30761700000039,25.51269500000035,106.41015599999992,99.23095699999976,81.79492200000004
20,93.9741210000002,592.3076170000004,130.12841800000024,514.8715819999998,126.2822270000006,113.0771479999994,115.89746099999957,135.6411130000006,138.20507799999996,110.38476599999922,50.25634799999989,103.9741210000002,82.82031300000017,76.15380900000036
21,95.51269500000035,582.9487300000001,128.9741210000002,503.0771479999994,119.48730499999965,115.38476599999922,114.87158199999976,130.12841800000024,130.89746099999957,101.9228520000006,51.410155999999915,101.79492200000004,89.61523400000078,73.46142599999985
22,98.9741210000002,581.6665039999998,129.3588869999994,497.94873000000007,121.2822270000006,117.56396500000028,119.61523400000078,131.9228520000006,131.0258789999998,108.20507799999996,28.333496000000196,100.64111300000059,116.0258789999998,74.74365200000011
23,102.05126999999993,586.6665039999998,129.87158199999976,498.7177729999994,130.89746099999957,118.84619099999964,127.30761700000039,139.23095699999976,138.3334960000002,125.89746099999957,-2.9487300000000687,100.38476599999922,145.38476599999922,78.3334960000002
24,102.69238299999961,589.1025390000004,129.61523400000078,502.4360349999997,141.41015599999992,118.84619099999964,132.6923829999996,145.76904300000024,146.79492200000004,142.56396500000028,-20.512939000000188,100.64111300000059,157.43603499999972,80.89746099999957
25,100.89746099999957,581.6665039999998,128.7177729999994,505.2563479999999,145.6411130000006,117.56396500000028,132.43603499999972,146.53857400000015,150.0,146.6665039999998,-11.666747999999643,101.15380900000036,143.0771479999994,80.51269500000035
26,98.84619099999964,565.1284180000002,128.84619099999964,502.82031300000017,141.41015599999992,115.64111300000059,127.30761700000039,141.15380900000036,145.89746099999957,135.51269500000035,17.56396500000028,102.69238299999961,111.15380900000036,78.46142599999985
27,98.46142599999985,547.8203130000002,131.15380900000036,493.46142599999985,132.94873000000007,115.0,121.0258789999998,133.46142599999985,138.58984400000008,117.43603499999972,46.153809000000365,105.38476599999922,81.53857400000015,77.17968800000017
28,99.74365200000011,537.9487300000001,134.48730499999965,481.0258789999998,127.17968800000017,116.15380900000036,117.17968800000017,127.94873000000007,132.94873000000007,104.10253900000043,51.410155999999915,107.43603499999972,70.51269500000035,76.79492200000004
29,100.51269500000035,537.4360349999997,135.51269500000035,473.7177729999994,127.43603499999972,117.69238299999961,116.2822270000006,126.15380900000036,131.41015599999992,101.41015599999992,26.282227000000603,106.9228520000006,81.2822270000006,75.38476599999922
30,99.61523400000078,542.3076170000004,132.6923829999996,476.53857400000015,131.41015599999992,117.30761700000039,116.79492200000004,126.6665039999998,132.56396500000028,107.43603499999972,-12.948729999999614,103.46142599999985,105.12841800000024,72.56396500000028
31,98.58984400000008,546.1538090000004,128.9741210000002,486.15380900000036,134.23095699999976,114.48730499999965,117.05126999999993,127.17968800000017,133.46142599999985,115.25634799999989,-37.564209000000574,99.35888699999941,127.05126999999993,71.0258789999998
32,99.35888699999941,545.0,128.58984400000008,492.5639650000003,133.58984400000008,110.76904300000024,117.05126999999993,126.2822270000006,132.43603499999972,118.9741210000002,-28.846190999999635,96.9228520000006,135.0,73.20507799999996
33,101.53857400000015,539.2309569999998,132.43603499999972,486.9228520000006,131.53857400000015,108.3334960000002,117.30761700000039,124.74365200000011,130.76904300000024,117.94873000000007,5.0,97.30761700000039,125.51269500000035,78.20507799999996
34,103.0771479999994,532.3076170000004,136.41015599999992,469.6152340000008,132.17968800000017,108.3334960000002,118.20507799999996,124.74365200000011,130.6411130000006,115.64111300000059,36.53857400000015,99.74365200000011,106.2822270000006,81.6665039999998
35,102.05126999999993,527.4360349999997,135.6411130000006,451.15380900000036,136.9228520000006,110.0,118.9741210000002,127.05126999999993,132.6923829999996,115.38476599999922,42.56396500000028,101.79492200000004,90.25634799999989,80.38476599999922
36,98.9741210000002,524.4873049999997,129.10253900000043,444.10253900000043,142.82031300000017,111.53857400000015,119.10253900000043,130.0,134.3588869999994,117.05126999999993,21.794922000000042,102.17968800000017,86.41015599999992,74.87158199999976
37,96.2822270000006,521.1538090000004,121.15380900000036,452.6923829999996,145.6411130000006,111.41015599999992,118.0771479999994,130.2563479999999,133.3334960000002,117.43603499999972,-6.153809000000365,100.89746099999957,94.61523400000078,70.0
38,97.05126999999993,516.1538090000004,117.43603499999972,468.9741210000002,144.10253900000043,109.35888699999941,117.17968800000017,127.30761700000039,130.2563479999999,115.25634799999989,-18.974365000000034,100.0,108.20507799999996,71.15380900000036
39,103.3334960000002,511.15380900000036,121.79492200000004,480.12841800000024,141.15380900000036,107.69238299999961,118.58984400000008,124.35888699999941,129.23095699999976,113.0771479999994,-7.692382999999609,102.30761700000039,121.0258789999998,80.51269500000035
40,114.23095699999976,508.3334960000002,133.7177729999994,478.7177729999994,140.76904300000024,108.58984400000008,124.10253900000043,126.15380900000036,133.58984400000008,115.51269500000035,18.717772999999397,108.58984400000008,131.53857400000015,95.12841800000024
41,125.89746099999957,506.6665039999998,147.94873000000007,467.6923829999996,143.3334960000002,112.30761700000039,132.43603499999972,134.10253900000043,142.56396500000028,124.10253900000043,41.9228520000006,116.79492200000004,141.41015599999992,108.46142599999985
42,132.94873000000007,501.6665039999998,157.6923829999996,456.15380900000036,145.2563479999999,116.53857400000015,138.9741210000002,143.84619099999964,151.2822270000006,134.23095699999976,49.102539000000434,122.30761700000039,150.0,114.10253900000043
43,132.3076170000004,490.51269500000035,158.58984400000008,450.89746099999957,142.94873000000007,117.94873000000007,139.23095699999976,148.58984400000008,154.48730499999965,138.58984400000008,41.9228520000006,122.05126999999993,153.7177729999994,110.51269500000035
44,125.89746099999957,476.4101559999999,152.43603499999972,450.76904300000024,136.79492200000004,115.76904300000024,132.82031300000017,145.38476599999922,151.0258789999998,134.23095699999976,33.846190999999635,117.17968800000017,149.87158199999976,102.30761700000039
45,118.58984400000008,465.76904300000024,145.38476599999922,449.23095699999976,130.51269500000035,111.9228520000006,123.46142599999985,136.6665039999998,144.7436520000001,124.48730499999965,37.82031300000017,111.15380900000036,139.61523400000078,96.53857400000015
46,114.48730499999965,462.6923829999996,142.3076170000004,440.51269500000035,127.05126999999993,109.48730499999965,116.15380900000036,128.20507799999996,140.12841800000024,116.41015599999992,55.897460999999566,107.56396500000028,127.05126999999993,96.41015599999992
47,114.23095699999976,465.3847659999992,143.0771479999994,426.4101559999999,127.17968800000017,109.74365200000011,113.7177729999994,124.35888699999941,139.3588869999994,114.35888699999941,77.94873000000007,107.17968800000017,116.0258789999998,99.61523400000078
48,115.89746099999957,469.3588869999994,144.7436520000001,414.87158199999976,129.87158199999976,112.56396500000028,115.89746099999957,126.0258789999998,141.53857400000015,118.20507799999996,90.0,109.48730499999965,109.35888699999941,101.9228520000006
49,118.3334960000002,471.0258789999998,144.7436520000001,413.46142599999985,133.84619099999964,116.0258789999998,120.12841800000024,131.6665039999998,145.12841800000024,125.64111300000059,85.76904300000024,112.43603499999972,109.61523400000078,102.56396500000028
50,120.38476599999922,468.46142599999985,142.82031300000017,420.6411130000006,137.3076170000004,118.3334960000002,123.3334960000002,137.6923829999996,148.7177729999994,133.3334960000002,69.74365200000011,114.10253900000043,116.9228520000006,102.43603499999972
51,120.76904300000024,461.15380900000036,139.7436520000001,426.4101559999999,138.0771479999994,118.20507799999996,122.94873000000007,140.12841800000024,151.15380900000036,138.0771479999994,51.153809000000365,112.69238299999961,128.20507799999996,101.6665039999998
52,118.7177729999994,450.12841800000024,136.53857400000015,421.4101559999999,135.38476599999922,115.38476599999922,118.9741210000002,137.17968800000017,150.51269500000035,137.3076170000004,37.56396500000028,108.84619099999964,136.6665039999998,98.7177729999994
53,115.38476599999922,438.7177729999994,134.23095699999976,406.2822270000006,129.87158199999976,111.15380900000036,114.10253900000043,131.0258789999998,147.05126999999993,131.15380900000036,32.69238299999961,105.0,136.6665039999998,93.9741210000002
54,113.9741210000002,431.4101559999999,134.3588869999994,392.4360349999997,124.48730499999965,107.30761700000039,112.56396500000028,127.05126999999993,143.0771479999994,123.46142599999985,38.46142599999985,104.61523400000078,128.84619099999964,91.79492200000004
55,117.94873000000007,430.12841800000024,138.46142599999985,391.79492200000004,122.43603499999972,106.53857400000015,116.9228520000006,128.58984400000008,141.53857400000015,119.74365200000011,53.46142599999985,108.9741210000002,119.23095699999976,95.76904300000024
56,126.9228520000006,433.0771479999994,145.6411130000006,405.51269500000035,125.51269500000035,109.48730499999965,125.51269500000035,135.0,144.10253900000043,122.69238299999961,71.79492200000004,116.53857400000015,114.23095699999976,105.0
57,136.41015599999992,436.0258789999998,152.3076170000004,421.15380900000036,132.3076170000004,114.35888699999941,133.3334960000002,142.3076170000004,149.10253900000043,130.89746099999957,86.79492200000004,122.94873000000007,115.76904300000024,113.3334960000002
58,140.76904300000024,434.87158199999976,153.9741210000002,423.0771479999994,138.3334960000002,118.0771479999994,135.76904300000024,146.41015599999992,152.56396500000028,138.58984400000008,94.74365200000011,124.23095699999976,120.0,114.74365200000011
59,137.05126999999993,427.82031300000017,148.84619099999964,406.0258789999998,139.23095699999976,118.3334960000002,132.05126999999993,145.51269500000035,150.76904300000024,139.87158199999976,96.0258789999998,119.74365200000011,120.38476599999922,107.94873000000007
60,126.2822270000006,416.79492200000004,138.7177729999994,378.46142599999985,134.10253900000043,115.89746099999957,124.87158199999976,139.7436520000001,143.84619099999964,132.6923829999996,92.94873000000007,111.53857400000015,112.94873000000007,96.9228520000006
61,112.82031300000017,406.2822270000006,127.43603499999972,355.3847659999992,125.89746099999957,113.0771479999994,118.46142599999985,131.41015599999992,135.12841800000024,120.89746099999957,87.56396500000028,103.58984400000008,98.46142599999985,86.53857400000015
62,101.6665039999998,399.48730499999965,118.0771479999994,346.53857400000015,119.10253900000043,111.41015599999992,115.12841800000024,123.58984400000008,129.23095699999976,111.41015599999992,81.6665039999998,98.3334960000002,83.20507799999996,80.12841800000024
63,96.15380900000036,396.4101559999999,112.05126999999993,350.6411130000006,116.41015599999992,111.2822270000006,114.48730499999965,118.0771479999994,127.56396500000028,109.35888699999941,77.82031300000017,96.6665039999998,74.61523400000078,77.43603499999972
64,96.53857400000015,393.20507799999996,109.74365200000011,358.46142599999985,117.69238299999961,111.9228520000006,115.0,115.51269500000035,127.94873000000007,113.20507799999996,77.43603499999972,97.69238299999961,76.0258789999998,76.53857400000015
65,99.87158199999976,385.89746099999957,111.0258789999998,360.89746099999957,120.64111300000059,113.0771479999994,115.38476599999922,115.76904300000024,127.69238299999961,117.05126999999993,80.12841800000024,99.61523400000078,83.46142599999985,75.38476599999922
66,102.82031300000017,374.3588869999994,114.48730499999965,354.7436520000001,122.94873000000007,114.74365200000011,115.89746099999957,118.84619099999964,126.15380900000036,115.89746099999957,83.9741210000002,100.89746099999957,89.35888699999941,73.58984400000008
67,103.3334960000002,362.05126999999993,117.94873000000007,343.7177729999994,123.7177729999994,115.64111300000059,116.6665039999998,124.10253900000043,124.87158199999976,109.74365200000011,86.79492200000004,100.64111300000059,88.3334960000002,72.05126999999993
68,101.41015599999992,353.7177729999994,119.35888699999941,333.0771479999994,123.20507799999996,115.12841800000024,117.56396500000028,129.61523400000078,125.64111300000059,103.20507799999996,87.17968800000017,99.35888699999941,81.15380900000036,71.9228520000006
69,98.46142599999985,351.9228520000006,118.20507799999996,325.89746099999957,121.15380900000036,113.0771479999994,117.69238299999961,132.82031300000017,128.3334960000002,101.15380900000036,84.61523400000078,98.0771479999994,72.43603499999972,73.0771479999994
70,96.9228520000006,355.2563479999999,115.64111300000059,321.53857400000015,118.20507799999996,110.76904300000024,116.41015599999992,132.05126999999993,130.6411130000006,104.23095699999976,81.15380900000036,97.43603499999972,67.30761700000039,73.9741210000002
71,98.84619099999964,359.87158199999976,114.35888699999941,317.94873000000007,115.89746099999957,109.48730499999965,115.0,128.58984400000008,130.38476599999922,110.0,79.74365200000011,98.20507799999996,67.56396500000028,74.48730499999965
72,104.61523400000078,362.4360349999997,116.6665039999998,314.10253900000043,117.30761700000039,109.61523400000078,115.89746099999957,125.76904300000024,128.3334960000002,115.38476599999922,83.9741210000002,100.89746099999957,71.79492200000004,76.2822270000006
73,112.30761700000039,361.2822270000006,123.20507799999996,312.4360349999997,123.20507799999996,110.38476599999922,119.87158199999976,126.53857400000015,127.17968800000017,118.46142599999985,94.61523400000078,105.0,76.15380900000036,80.64111300000059
74,118.0771479999994,356.2822270000006,131.2822270000006,315.12841800000024,130.38476599999922,110.76904300000024,124.74365200000011,129.61523400000078,127.56396500000028,118.0771479999994,108.58984400000008,108.7177729999994,76.53857400000015,86.53857400000015
75,118.58984400000008,348.84619099999964,135.89746099999957,321.2822270000006,134.10253900000043,109.74365200000011,126.79492200000004,129.87158199999976,126.9228520000006,113.7177729999994,120.0,109.61523400000078,71.6665039999998,89.74365200000011
76,112.94873000000007,341.0258789999998,133.7177729999994,325.89746099999957,132.3076170000004,107.56396500000028,123.58984400000008,123.3334960000002,122.05126999999993,105.64111300000059,122.82031300000017,106.6665039999998,63.46142599999985,87.05126999999993
77,104.23095699999976,335.2563479999999,125.76904300000024,324.10253900000043,127.17968800000017,105.64111300000059,117.05126999999993,111.53857400000015,112.69238299999961,96.0258789999998,115.38476599999922,101.6665039999998,57.17968800000017,79.23095699999976
78,97.56396500000028,332.3076170000004,117.17968800000017,315.6411130000006,123.0771479999994,106.15380900000036,112.05126999999993,100.51269500000035,102.94873000000007,88.7177729999994,102.94873000000007,97.94873000000007,57.17968800000017,71.2822270000006
79,96.9228520000006,331.15380900000036,113.0771479999994,304.48730499999965,123.3334960000002,109.35888699999941,112.05126999999993,95.76904300000024,97.94873000000007,87.05126999999993,94.10253900000043,98.20507799999996,63.7177729999994,68.0771479999994
80,101.41015599999992,328.9741210000002,113.9741210000002,294.87158199999976,127.56396500000028,113.3334960000002,115.76904300000024,98.46142599999985,100.12841800000024,91.2822270000006,93.9741210000002,101.15380900000036,71.41015599999992,70.38476599999922
81,106.0258789999998,323.7177729999994,116.9228520000006,289.87158199999976,132.05126999999993,115.0,118.46142599999985,104.10253900000043,106.2822270000006,98.46142599999985,100.89746099999957,103.3334960000002,74.10253900000043,74.48730499999965
82,105.51269500000035,313.9741210000002,117.82031300000017,289.87158199999976,131.79492200000004,113.0771479999994,115.76904300000024,106.41015599999992,110.25634799999989,103.20507799999996,108.46142599999985,101.53857400000015,68.20507799999996,75.25634799999989
83,98.3334960000002,301.4101559999999,115.12841800000024,292.5639650000003,124.48730499999965,109.10253900000043,107.94873000000007,102.69238299999961,108.46142599999985,101.79492200000004,111.9228520000006,96.15380900000036,56.2822270000006,70.64111300000059
84,88.46142599999985,290.0,110.76904300000024,292.82031300000017,112.30761700000039,106.6665039999998,99.35888699999941,95.38476599999922,102.17968800000017,94.87158199999976,111.15380900000036,90.51269500000035,43.846190999999635,62.56396500000028
85,81.79492200000004,283.84619099999964,107.82031300000017,286.4101559999999,101.2822270000006,107.94873000000007,95.38476599999922,90.38476599999922,96.41015599999992,86.53857400000015,109.48730499999965,88.0771479999994,37.17968800000017,55.64111300000059
86,81.9228520000006,283.5898440000001,108.7177729999994,274.48730499999965,97.43603499999972,112.17968800000017,98.7177729999994,91.9228520000006,95.64111300000059,82.43603499999972,109.35888699999941,90.25634799999989,39.35888699999941,54.35888699999941
87,88.3334960000002,287.17968800000017,113.84619099999964,263.5898440000001,102.56396500000028,116.2822270000006,107.05126999999993,100.0,101.0258789999998,86.0258789999998,111.41015599999992,95.51269500000035,48.974121000000196,60.25634799999989
88,97.43603499999972,291.4101559999999,121.15380900000036,260.89746099999957,114.10253900000043,117.94873000000007,115.76904300000024,111.0258789999998,110.25634799999989,95.64111300000059,115.12841800000024,100.89746099999957,60.0,70.76904300000024
89,105.12841800000024,294.10253900000043,127.30761700000039,267.6923829999996,126.53857400000015,117.17968800000017,120.89746099999957,120.51269500000035,119.74365200000011,107.05126999999993,120.64111300000059,104.61523400000078,66.2822270000006,81.0258789999998
90,108.7177729999994,294.3588869999994,129.48730499999965,277.4360349999997,135.12841800000024,115.76904300000024,121.53857400000015,125.64111300000059,126.41015599999992,115.12841800000024,128.3334960000002,105.64111300000059,65.76904300000024,86.79492200000004
91,107.56396500000028,291.9228520000006,126.15380900000036,282.3076170000004,137.17968800000017,115.0,119.48730499999965,125.51269500000035,128.20507799999996,117.30761700000039,137.17968800000017,103.9741210000002,60.897460999999566,86.53857400000015
92,102.43603499999972,287.4360349999997,118.0771479999994,278.7177729999994,133.9741210000002,115.12841800000024,116.9228520000006,121.53857400000015,125.25634799999989,114.61523400000078,143.46142599999985,100.0,56.2822270000006,81.2822270000006
93,95.76904300000024,281.2822270000006,107.94873000000007,269.23095699999976,128.58984400000008,115.51269500000035,115.25634799999989,116.0258789999998,119.23095699999976,109.48730499999965,142.3076170000004,94.23095699999976,54.48730499999965,73.3334960000002
94,89.61523400000078,273.9741210000002,98.9741210000002,259.6152340000008,123.3334960000002,115.38476599999922,114.48730499999965,110.51269500000035,112.17968800000017,104.23095699999976,132.56396500000028,88.20507799999996,55.0,64.87158199999976
95,85.76904300000024,265.89746099999957,93.7177729999994,253.20507799999996,119.23095699999976,114.23095699999976,114.10253900000043,105.76904300000024,105.51269500000035,99.74365200000011,118.84619099999964,83.58984400000008,54.74365200000011,58.333496000000196
96,84.48730499999965,257.6923829999996,92.94873000000007,250.12841800000024,116.2822270000006,111.9228520000006,113.58984400000008,101.6665039999998,100.25634799999989,95.25634799999989,107.82031300000017,81.9228520000006,50.76904300000024,54.87158199999976
97,85.25634799999989,250.0,95.25634799999989,248.58984400000008,114.10253900000043,109.74365200000011,112.05126999999993,97.94873000000007,96.2822270000006,89.35888699999941,102.69238299999961,83.9741210000002,43.20507799999996,54.48730499999965
98,87.82031300000017,243.84619099999964,98.9741210000002,247.17968800000017,112.82031300000017,109.35888699999941,109.61523400000078,95.25634799999989,93.7177729999994,82.05126999999993,102.30761700000039,88.58984400000008,35.51269500000035,56.2822270000006
99,92.05126999999993,241.2822270000006,103.3334960000002,245.6411130000006,113.9741210000002,111.15380900000036,107.82031300000017,94.74365200000011,93.84619099999964,76.79492200000004,103.7177729999994,94.23095699999976,33.333496000000196,60.0
100,97.94873000000007,244.23095699999976,108.20507799999996,244.61523400000078,119.10253900000043,114.35888699999941,109.48730499999965,98.20507799999996,98.3334960000002,78.7177729999994,105.89746099999957,98.9741210000002,40.12841800000024,65.76904300000024
101,105.25634799999989,252.6923829999996,113.7177729999994,246.0258789999998,128.0771479999994,117.43603499999972,115.76904300000024,106.0258789999998,107.30761700000039,90.25634799999989,109.48730499999965,101.53857400000015,53.974121000000196,72.69238299999961
102,112.56396500000028,261.4101559999999,118.7177729999994,251.15380900000036,137.3076170000004,118.84619099999964,123.9741210000002,116.15380900000036,117.82031300000017,107.17968800000017,115.0,101.79492200000004,67.56396500000028,79.74365200000011
103,117.05126999999993,261.79492200000004,120.89746099999957,258.46142599999985,141.0258789999998,117.43603499999972,128.9741210000002,123.58984400000008,124.23095699999976,120.25634799999989,120.89746099999957,100.38476599999922,72.69238299999961,84.48730499999965
104,115.76904300000024,248.9741210000002,118.3334960000002,262.17968800000017,136.41015599999992,113.7177729999994,126.53857400000015,123.20507799999996,122.30761700000039,120.89746099999957,124.10253900000043,98.0771479999994,66.15380900000036,84.35888699999941
105,107.43603499999972,226.79492200000004,111.2822270000006,256.79492200000004,125.38476599999922,108.9741210000002,117.17968800000017,114.35888699999941,112.56396500000028,108.58984400000008,121.6665039999998,95.0,52.82031300000017,78.7177729999994
106,95.51269500000035,207.05126999999993,102.69238299999961,241.6665039999998,114.87158199999976,105.89746099999957,106.41015599999992,102.82031300000017,100.76904300000024,92.43603499999972,113.58984400000008,91.41015599999992,41.9228520000006,70.12841800000024
107,86.41015599999992,201.15380900000036,96.79492200000004,223.3334960000002,111.6665039999998,106.79492200000004,100.76904300000024,96.15380900000036,95.12841800000024,84.23095699999976,103.7177729999994,88.20507799999996,40.897460999999566,63.333496000000196
108,85.12841800000024,211.15380900000036,95.0,210.51269500000035,117.82031300000017,111.41015599999992,103.46142599999985,98.20507799999996,98.9741210000002,89.48730499999965,97.56396500000028,86.2822270000006,49.61523400000078,62.17968800000017
109,91.53857400000015,228.3334960000002,96.6665039999998,209.10253900000043,128.46142599999985,116.9228520000006,111.6665039999998,105.89746099999957,109.23095699999976,104.35888699999941,99.61523400000078,86.15380900000036,62.56396500000028,67.56396500000028
110,101.15380900000036,240.0,99.48730499999965,218.20507799999996,135.6411130000006,119.61523400000078,119.61523400000078,112.69238299999961,118.84619099999964,118.84619099999964,110.0,87.43603499999972,72.43603499999972,76.41015599999992
111,109.48730499999965,238.84619099999964,102.69238299999961,230.89746099999957,135.89746099999957,118.0771479999994,122.56396500000028,114.10253900000043,122.82031300000017,125.51269500000035,124.23095699999976,90.51269500000035,75.89746099999957,84.48730499999965
112,114.74365200000011,227.6923829999996,106.41015599999992,238.0771479999994,132.17968800000017,114.10253900000043,120.12841800000024,110.51269500000035,121.2822270000006,122.94873000000007,135.6411130000006,95.38476599999922,74.61523400000078,88.58984400000008
113,117.05126999999993,215.76904300000024,110.89746099999957,235.12841800000024,130.6411130000006,110.89746099999957,115.51269500000035,106.15380900000036,117.94873000000007,116.2822270000006,139.23095699999976,100.76904300000024,72.56396500000028,88.58984400000008
114,117.05126999999993,210.76904300000024,115.25634799999989,224.48730499999965,134.61523400000078,110.51269500000035,113.0771479999994,104.61523400000078,116.0258789999998,111.53857400000015,135.51269500000035,104.35888699999941,72.43603499999972,86.2822270000006
115,115.38476599999922,212.82031300000017,117.69238299999961,213.3334960000002,141.53857400000015,112.17968800000017,114.23095699999976,106.41015599999992,115.51269500000035,110.89746099999957,129.23095699999976,104.61523400000078,73.46142599999985,83.7177729999994
116,112.05126999999993,215.38476599999922,116.79492200000004,207.43603499999972,145.76904300000024,113.7177729999994,117.30761700000039,108.7177729999994,114.23095699999976,111.41015599999992,125.12841800000024,101.53857400000015,72.82031300000017,81.41015599999992
117,107.43603499999972,211.41015599999992,112.05126999999993,206.9228520000006,142.17968800000017,112.94873000000007,118.46142599999985,107.82031300000017,110.76904300000024,108.3334960000002,124.35888699999941,96.2822270000006,68.0771479999994,78.7177729999994
118,102.05126999999993,199.87158199999976,104.61523400000078,207.82031300000017,130.6411130000006,108.84619099999964,115.51269500000035,102.69238299999961,105.12841800000024,100.12841800000024,124.87158199999976,90.38476599999922,59.87158199999976,74.48730499999965
119,96.9228520000006,185.6411130000006,97.43603499999972,205.51269500000035,116.41015599999992,103.46142599999985,109.61523400000078,95.76904300000024,98.9741210000002,90.76904300000024,124.61523400000078,85.64111300000059,51.666503999999804,70.0
120,93.58984400000008,175.51269500000035,93.7177729999994,199.10253900000043,107.56396500000028,100.25634799999989,103.9741210000002,91.2822270000006,94.87158199999976,86.0258789999998,123.9741210000002,83.58984400000008,47.43603499999972,67.56396500000028
121,93.58984400000008,172.3076170000004,95.38476599999922,191.79492200000004,108.58984400000008,101.0258789999998,101.6665039999998,91.9228520000006,94.61523400000078,88.84619099999964,124.87158199999976,85.51269500000035,48.7177729999994,69.74365200000011
122,97.17968800000017,174.48730499999965,100.76904300000024,188.20507799999996,117.82031300000017,104.74365200000011,103.20507799999996,97.94873000000007,99.35888699999941,96.9228520000006,128.84619099999964,90.38476599999922,53.846190999999635,77.30761700000039
123,102.56396500000028,178.58984400000008,106.9228520000006,189.10253900000043,128.7177729999994,108.3334960000002,107.94873000000007,106.6665039999998,107.82031300000017,105.76904300000024,134.7436520000001,96.0258789999998,59.87158199999976,87.82031300000017
124,108.0771479999994,182.05126999999993,111.53857400000015,192.3076170000004,135.38476599999922,109.61523400000078,113.46142599999985,114.87158199999976,117.30761700000039,112.43603499999972,139.3588869999994,100.12841800000024,64.61523400000078,96.79492200000004
125,113.20507799999996,184.3588869999994,114.87158199999976,194.48730499999965,136.6665039999998,108.84619099999964,117.69238299999961,121.2822270000006,125.64111300000059,117.56396500000028,140.51269500000035,101.9228520000006,67.82031300000017,101.41015599999992
126,119.10253900000043,185.0,118.3334960000002,194.61523400000078,135.2563479999999,107.94873000000007,119.61523400000078,126.53857400000015,131.79492200000004,123.0771479999994,138.84619099999964,102.69238299999961,71.41015599999992,102.05126999999993
127,125.38476599999922,182.94873000000007,123.0771479999994,193.46142599999985,133.7177729999994,107.82031300000017,119.87158199999976,131.15380900000036,135.76904300000024,129.48730499999965,137.82031300000017,104.23095699999976,76.53857400000015,101.79492200000004
128,130.0,177.17968800000017,127.94873000000007,191.41015599999992,132.17968800000017,109.23095699999976,119.61523400000078,133.9741210000002,137.43603499999972,133.7177729999994,139.7436520000001,107.30761700000039,82.43603499999972,103.0771479999994
129,131.0258789999998,168.9741210000002,130.38476599999922,187.56396500000028,129.61523400000078,111.2822270000006,119.61523400000078,133.58984400000008,136.41015599999992,132.82031300000017,143.84619099999964,110.51269500000035,86.9228520000006,105.76904300000024
130,128.3334960000002,160.0,128.84619099999964,182.43603499999972,126.6665039999998,112.82031300000017,119.23095699999976,130.38476599999922,133.46142599999985,126.6665039999998,147.82031300000017,111.6665039999998,88.3334960000002,107.05126999999993
131,123.9741210000002,151.0258789999998,123.84619099999964,178.7177729999994,125.0,112.82031300000017,117.94873000000007,126.2822270000006,130.0,118.3334960000002,148.9741210000002,109.23095699999976,86.41015599999992,104.87158199999976
132,119.48730499999965,140.6411130000006,117.82031300000017,179.23095699999976,124.23095699999976,111.6665039999998,115.51269500000035,122.43603499999972,126.2822270000006,112.05126999999993,146.41015599999992,103.84619099999964,81.6665039999998,98.84619099999964
133,115.25634799999989,127.56396500000028,113.3334960000002,182.6923829999996,122.05126999999993,110.64111300000059,113.0771479999994,118.46142599999985,121.9228520000006,109.10253900000043,141.0258789999998,98.0771479999994,75.0,90.64111300000059
134,110.76904300000024,112.82031300000017,111.15380900000036,183.3334960000002,116.53857400000015,110.51269500000035,111.6665039999998,113.9741210000002,116.6665039999998,107.69238299999961,134.10253900000043,94.61523400000078,67.94873000000007,83.46142599999985
135,106.53857400000015,100.12841800000024,110.51269500000035,175.6411130000006,110.51269500000035,111.15380900000036,111.79492200000004,109.74365200000011,111.41015599999992,105.12841800000024,126.79492200000004,94.61523400000078,63.46142599999985,80.38476599999922
136,104.35888699999941,94.48730499999965,110.25634799999989,160.89746099999957,108.84619099999964,111.53857400000015,113.20507799999996,107.82031300000017,108.3334960000002,101.15380900000036,120.89746099999957,97.94873000000007,64.23095699999976,82.56396500000028
137,105.64111300000059,96.6665039999998,110.38476599999922,147.17968800000017,114.74365200000011,111.2822270000006,114.74365200000011,108.9741210000002,108.58984400000008,98.46142599999985,118.20507799999996,103.0771479999994,70.76904300000024,87.94873000000007
138,109.10253900000043,102.82031300000017,110.64111300000059,141.79492200000004,125.25634799999989,110.25634799999989,114.87158199999976,111.41015599999992,111.9228520000006,100.64111300000059,120.38476599999922,107.56396500000028,79.61523400000078,92.17968800000017
139,112.05126999999993,105.89746099999957,110.51269500000035,146.15380900000036,133.9741210000002,108.7177729999994,113.0771479999994,112.17968800000017,116.0258789999998,107.43603499999972,126.9228520000006,109.87158199999976,86.0258789999998,91.9228520000006
140,112.82031300000017,101.6665039999998,110.0,154.87158199999976,135.2563479999999,107.30761700000039,110.51269500000035,109.74365200000011,118.3334960000002,114.87158199999976,135.38476599999922,110.12841800000024,87.56396500000028,88.3334960000002
141,112.69238299999961,92.56396500000028,110.51269500000035,161.2822270000006,128.58984400000008,106.79492200000004,109.10253900000043,105.76904300000024,118.0771479999994,118.7177729999994,142.43603499999972,110.64111300000059,85.64111300000059,85.0
142,114.10253900000043,84.61523400000078,113.3334960000002,162.05126999999993,119.35888699999941,107.56396500000028,110.51269500000035,103.3334960000002,116.15380900000036,117.69238299999961,146.53857400000015,113.0771479999994,84.10253900000043,85.89746099999957
143,118.0771479999994,82.43603499999972,118.0771479999994,158.46142599999985,115.25634799999989,109.10253900000043,113.9741210000002,104.35888699999941,114.74365200000011,115.25634799999989,149.3588869999994,117.69238299999961,86.0258789999998,91.41015599999992
144,123.58984400000008,85.0,122.56396500000028,154.3588869999994,120.12841800000024,110.51269500000035,117.17968800000017,108.0771479999994,115.0,115.38476599999922,153.46142599999985,123.20507799999996,91.2822270000006,98.9741210000002
145,127.82031300000017,87.43603499999972,124.61523400000078,153.20507799999996,131.15380900000036,111.41015599999992,117.69238299999961,112.30761700000039,116.9228520000006,118.9741210000002,159.23095699999976,127.30761700000039,96.6665039999998,105.25634799999989
146,127.94873000000007,85.76904300000024,122.94873000000007,154.61523400000078,139.61523400000078,111.15380900000036,115.12841800000024,114.61523400000078,118.46142599999985,122.69238299999961,162.94873000000007,127.94873000000007,98.0771479999994,107.94873000000007
147,122.82031300000017,79.74365200000011,117.69238299999961,155.12841800000024,138.58984400000008,109.61523400000078,110.89746099999957,114.23095699999976,117.94873000000007,122.43603499999972,159.61523400000078,124.10253900000043,94.35888699999941,106.2822270000006
148,115.12841800000024,72.43603499999972,111.15380900000036,151.79492200000004,128.3334960000002,107.43603499999972,107.69238299999961,111.9228520000006,115.38476599999922,117.94873000000007,148.58984400000008,117.43603499999972,88.20507799999996,102.05126999999993
149,110.12841800000024,67.17968800000017,106.2822270000006,145.76904300000024,116.0258789999998,106.0258789999998,107.69238299999961,110.38476599999922,113.58984400000008,113.46142599999985,135.38476599999922,112.05126999999993,84.23095699999976,97.94873000000007
150,111.6665039999998,64.74365200000011,105.38476599999922,141.79492200000004,109.35888699999941,106.53857400000015,111.2822270000006,112.05126999999993,116.0258789999998,114.10253900000043,128.58984400000008,111.53857400000015,85.76904300000024,97.05126999999993
151,118.20507799999996,63.333496000000196,107.82031300000017,142.82031300000017,110.89746099999957,108.7177729999994,116.15380900000036,116.9228520000006,122.69238299999961,121.15380900000036,133.0771479999994,115.25634799999989,91.79492200000004,100.25634799999989
152,125.0,60.897460999999566,110.89746099999957,147.6923829999996,117.17968800000017,110.64111300000059,119.48730499999965,122.17968800000017,129.7436520000001,130.89746099999957,146.6665039999998,120.0,99.10253900000043,105.76904300000024
153,128.46142599999985,57.82031300000017,112.94873000000007,153.7177729999994,123.7177729999994,110.89746099999957,119.35888699999941,125.38476599999922,134.10253900000043,137.56396500000028,162.43603499999972,122.82031300000017,104.87158199999976,111.15380900000036
154,128.9741210000002,56.025878999999804,114.48730499999965,159.7436520000001,128.46142599999985,109.61523400000078,116.9228520000006,127.05126999999993,134.7436520000001,138.9741210000002,174.10253900000043,123.46142599999985,108.3334960000002,114.87158199999976
155,129.48730499999965,56.79492200000004,116.79492200000004,166.15380900000036,131.41015599999992,108.0771479999994,114.87158199999976,129.23095699999976,133.9741210000002,137.05126999999993,179.3588869999994,123.20507799999996,111.0258789999998,117.69238299999961
156,131.6665039999998,57.94873000000007,120.25634799999989,170.89746099999957,132.6923829999996,107.69238299999961,115.25634799999989,132.56396500000028,134.23095699999976,135.0,179.10253900000043,123.46142599999985,113.3334960000002,119.74365200000011
157,134.3588869999994,54.87158199999976,122.94873000000007,169.87158199999976,132.3076170000004,108.7177729999994,118.20507799999996,135.2563479999999,136.15380900000036,134.61523400000078,175.38476599999922,123.9741210000002,114.23095699999976,120.38476599999922
158,134.87158199999976,44.87158199999976,122.82031300000017,160.6411130000006,130.76904300000024,110.25634799999989,121.15380900000036,135.0,138.3334960000002,134.61523400000078,169.3588869999994,123.46142599999985,112.43603499999972,118.58984400000008
159,131.9228520000006,29.48730499999965,119.23095699999976,146.9228520000006,129.48730499999965,110.76904300000024,121.53857400000015,131.2822270000006,138.9741210000002,132.82031300000017,162.94873000000007,121.6665039999998,108.0771479999994,114.87158199999976
160,125.89746099999957,13.077147999999397,113.0771479999994,136.15380900000036,129.3588869999994,110.25634799999989,118.9741210000002,126.0258789999998,136.6665039999998,128.84619099999964,158.58984400000008,119.61523400000078,102.30761700000039,110.12841800000024
161,118.46142599999985,-1.0258789999998044,106.53857400000015,132.94873000000007,129.3588869999994,109.61523400000078,115.76904300000024,121.6665039999998,131.2822270000006,123.58984400000008,158.0771479999994,118.0771479999994,96.15380900000036,105.0
162,111.0258789999998,-12.564209000000574,101.0258789999998,134.48730499999965,127.30761700000039,109.74365200000011,113.84619099999964,119.10253900000043,124.87158199999976,118.9741210000002,160.6411130000006,117.05126999999993,89.10253900000043,99.48730499999965
163,104.61523400000078,-23.205077999999958,97.56396500000028,133.3334960000002,122.94873000000007,110.25634799999989,113.84619099999964,118.0771479999994,120.12841800000024,115.76904300000024,162.94873000000007,115.25634799999989,81.79492200000004,93.84619099999964
164,100.51269500000035,-34.35888699999987,96.2822270000006,124.10253900000043,118.0771479999994,110.76904300000024,114.61523400000078,117.56396500000028,118.84619099999964,114.10253900000043,162.05126999999993,111.6665039999998,75.51269500000035,88.46142599999985
165,98.7177729999994,-45.89746100000002,96.53857400000015,107.69238299999961,115.76904300000024,111.9228520000006,114.61523400000078,116.79492200000004,120.76904300000024,112.94873000000007,156.15380900000036,106.41015599999992,72.17968800000017,83.9741210000002
166,97.82031300000017,-57.435790999999426,96.2822270000006,90.38476599999922,116.6665039999998,113.46142599999985,112.69238299999961,113.84619099999964,122.30761700000039,111.0258789999998,145.76904300000024,101.15380900000036,71.9228520000006,80.38476599999922
167,95.38476599999922,-68.84619099999964,93.46142599999985,78.3334960000002,119.10253900000043,114.87158199999976,108.84619099999964,108.3334960000002,119.48730499999965,107.30761700000039,135.0,97.82031300000017,72.82031300000017,77.56396500000028
168,90.89746099999957,-80.25634799999989,88.0771479999994,74.35888699999941,120.51269500000035,115.38476599999922,104.23095699999976,101.53857400000015,111.9228520000006,102.43603499999972,129.23095699999976,97.69238299999961,72.56396500000028,75.76904300000024
169,86.9228520000006,-90.89746100000002,83.46142599999985,77.43603499999972,119.48730499999965,115.64111300000059,101.6665039999998,97.43603499999972,103.7177729999994,98.20507799999996,132.43603499999972,100.38476599999922,70.51269500000035,76.0258789999998
170,86.9228520000006,-100.25634799999989,83.84619099999964,83.46142599999985,116.9228520000006,116.53857400000015,102.30761700000039,98.3334960000002,100.0,96.41015599999992,143.0771479999994,104.48730499999965,68.20507799999996,78.58984400000008
171,91.0258789999998,-108.58984399999963,89.61523400000078,87.30761700000039,114.23095699999976,117.30761700000039,104.87158199999976,102.56396500000028,102.56396500000028,97.17968800000017,154.48730499999965,108.58984400000008,68.3334960000002,82.94873000000007
172,96.41015599999992,-116.53857400000015,97.82031300000017,86.2822270000006,111.79492200000004,117.17968800000017,106.41015599999992,105.51269500000035,108.84619099999964,99.74365200000011,161.0258789999998,111.2822270000006,71.79492200000004,87.56396500000028
173,100.0,-123.71801800000003,103.46142599999985,81.2822270000006,110.38476599999922,115.89746099999957,105.76904300000024,105.0,114.87158199999976,103.46142599999985,161.6665039999998,112.17968800000017,78.3334960000002,91.2822270000006
174,101.53857400000015,-129.35888699999987,104.23095699999976,76.41015599999992,111.0258789999998,114.87158199999976,104.23095699999976,102.43603499999972,118.58984400000008,108.9741210000002,161.41015599999992,111.53857400000015,86.2822270000006,94.61523400000078
175,102.69238299999961,-133.46142599999985,101.6665039999998,74.35888699999941,115.0,114.74365200000011,104.35888699999941,101.9228520000006,120.64111300000059,116.6665039999998,165.12841800000024,111.0258789999998,94.35888699999941,98.20507799999996
176,105.38476599999922,-137.179443,99.35888699999941,75.0,121.9228520000006,115.51269500000035,106.6665039999998,104.87158199999976,122.56396500000028,124.61523400000078,172.94873000000007,111.2822270000006,101.2822270000006,101.79492200000004
177,109.74365200000011,-141.923096,99.35888699999941,75.51269500000035,129.10253900000043,116.2822270000006,109.35888699999941,109.87158199999976,125.51269500000035,129.61523400000078,180.12841800000024,112.05126999999993,105.38476599999922,104.87158199999976
178,113.58984400000008,-149.4870609999998,101.41015599999992,73.3334960000002,132.82031300000017,116.79492200000004,109.87158199999976,113.58984400000008,128.3334960000002,130.2563479999999,181.53857400000015,112.43603499999972,105.89746099999957,105.76904300000024
179,114.23095699999976,-160.89746100000002,102.56396500000028,67.43603499999972,131.0258789999998,116.41015599999992,107.17968800000017,113.3334960000002,128.46142599999985,127.30761700000039,176.53857400000015,111.9228520000006,102.82031300000017,103.3334960000002
180,110.76904300000024,-176.02563499999997,100.89746099999957,60.12841800000024,124.48730499999965,114.48730499999965,102.69238299999961,108.84619099999964,124.87158199999976,122.82031300000017,169.48730499999965,110.38476599999922,96.9228520000006,97.94873000000007
181,105.0,-192.56420900000057,96.2822270000006,54.87158199999976,116.53857400000015,111.41015599999992,98.58984400000008,102.05126999999993,118.84619099999964,118.3334960000002,164.61523400000078,107.69238299999961,90.25634799999989,91.53857400000015
182,100.25634799999989,-207.43579099999943,91.0258789999998,53.333496000000196,110.12841800000024,109.23095699999976,96.2822270000006,96.6665039999998,113.0771479999994,114.61523400000078,162.82031300000017,104.61523400000078,85.0,87.43603499999972
183,99.61523400000078,-217.820557,88.58984400000008,54.35888699999941,107.69238299999961,109.23095699999976,96.0258789999998,96.0258789999998,110.76904300000024,112.17968800000017,161.79492200000004,102.94873000000007,83.46142599999985,87.56396500000028
184,104.23095699999976,-223.20507799999996,91.15380900000036,54.61523400000078,109.74365200000011,111.41015599999992,98.0771479999994,100.89746099999957,113.3334960000002,112.69238299999961,160.38476599999922,103.84619099999964,86.9228520000006,92.43603499999972
185,112.30761700000039,-225.1281740000004,98.3334960000002,52.56396500000028,115.12841800000024,114.10253900000043,102.69238299999961,109.10253900000043,120.25634799999989,117.82031300000017,159.7436520000001,107.17968800000017,94.23095699999976,99.87158199999976
186,120.12841800000024,-227.179443,107.05126999999993,49.23095699999976,121.9228520000006,115.89746099999957,109.10253900000043,117.17968800000017,128.46142599999985,126.2822270000006,161.53857400000015,110.76904300000024,102.05126999999993,106.79492200000004
187,124.10253900000043,-232.56420900000057,112.56396500000028,46.410155999999915,127.43603499999972,116.2822270000006,115.38476599999922,122.17968800000017,133.9741210000002,134.10253900000043,165.38476599999922,112.56396500000028,105.38476599999922,109.48730499999965
188,122.30761700000039,-243.20507799999996,112.17968800000017,43.20507799999996,130.12841800000024,116.0258789999998,119.23095699999976,123.0771479999994,134.10253900000043,136.79492200000004,168.46142599999985,111.53857400000015,102.17968800000017,106.2822270000006
189,116.2822270000006,-257.820557,106.6665039999998,36.79492200000004,129.48730499999965,115.64111300000059,120.0,120.64111300000059,129.61523400000078,133.46142599999985,167.56396500000028,108.58984400000008,94.61523400000078,98.9741210000002
190,109.23095699999976,-273.20507799999996,99.61523400000078,25.51269500000035,126.2822270000006,115.0,118.20507799999996,116.53857400000015,123.0771479999994,126.6665039999998,161.41015599999992,106.0258789999998,87.56396500000028,91.79492200000004
191,104.48730499999965,-286.53857400000015,94.61523400000078,12.56396500000028,122.30761700000039,114.23095699999976,115.12841800000024,112.17968800000017,117.69238299999961,120.12841800000024,152.43603499999972,104.87158199999976,84.35888699999941,88.20507799999996
192,103.0771479999994,-296.15380900000036,93.58984400000008,3.846190999999635,119.10253900000043,113.58984400000008,112.17968800000017,108.7177729999994,114.74365200000011,115.76904300000024,144.23095699999976,105.12841800000024,84.10253900000043,88.46142599999985
193,103.9741210000002,-302.820557,95.0,3.077147999999397,117.30761700000039,113.58984400000008,110.51269500000035,106.41015599999992,113.20507799999996,112.43603499999972,139.10253900000043,105.38476599999922,82.43603499999972,89.74365200000011
194,104.48730499999965,-308.58984399999963,94.87158199999976,6.666503999999804,114.74365200000011,114.23095699999976,109.35888699999941,104.23095699999976,110.64111300000059,108.3334960000002,136.15380900000036,104.10253900000043,76.53857400000015,89.23095699999976
195,102.69238299999961,-314.8718259999996,90.76904300000024,7.43603499999972,109.48730499999965,115.12841800000024,107.05126999999993,100.51269500000035,105.64111300000059,102.56396500000028,133.20507799999996,101.15380900000036,67.17968800000017,85.89746099999957
196,99.10253900000043,-321.41015600000037,84.23095699999976,1.0258789999998044,102.05126999999993,115.89746099999957,102.43603499999972,94.48730499999965,99.23095699999976,96.79492200000004,129.10253900000043,98.3334960000002,58.589844000000085,81.41015599999992
197,97.17968800000017,-326.15380900000036,80.38476599999922,-8.846190999999635,96.9228520000006,115.89746099999957,97.17968800000017,87.69238299999961,94.87158199999976,94.23095699999976,125.76904300000024,97.56396500000028,55.64111300000059,79.10253900000043
198,99.87158199999976,-327.5642090000006,83.3334960000002,-13.846190999999635,98.20507799999996,115.0,94.61523400000078,82.94873000000007,94.61523400000078,96.2822270000006,125.64111300000059,100.25634799999989,60.12841800000024,81.53857400000015
199,106.79492200000004,-326.66674799999964,92.56396500000028,-9.8718259999996,105.76904300000024,113.84619099999964,96.79492200000004,82.69238299999961,97.56396500000028,101.6665039999998,129.10253900000043,104.87158199999976,68.84619099999964,88.84619099999964
200,114.61523400000078,-326.41015600000037,103.46142599999985,-0.769043000000238,114.87158199999976,113.3334960000002,102.30761700000039,86.41015599999992,100.64111300000059,106.53857400000015,133.58984400000008,108.84619099999964,76.41015599999992,98.20507799999996
201,119.61523400000078,-328.97436500000003,110.51269500000035,5.897460999999566,120.38476599999922,113.84619099999964,107.69238299999961,92.05126999999993,102.43603499999972,108.46142599999985,137.17968800000017,110.51269500000035,79.35888699999941,106.15380900000036
202,121.2822270000006,-333.20507799999996,112.56396500000028,5.256347999999889,121.15380900000036,114.87158199999976,110.25634799999989,97.56396500000028,104.35888699999941,109.35888699999941,140.12841800000024,111.0258789999998,79.48730499999965,110.89746099999957
203,121.79492200000004,-336.41015600000037,111.9228520000006,-0.6411130000005869,119.61523400000078,115.51269500000035,109.48730499999965,101.53857400000015,108.58984400000008,112.17968800000017,143.7177729999994,112.05126999999993,81.79492200000004,113.9741210000002
204,123.46142599999985,-337.179443,111.53857400000015,-6.666747999999643,117.82031300000017,115.25634799999989,106.41015599999992,103.46142599999985,114.74365200000011,117.56396500000028,148.20507799999996,113.84619099999964,88.7177729999994,116.79492200000004
205,125.12841800000024,-337.6923829999996,111.0258789999998,-9.8718259999996,115.64111300000059,114.23095699999976,102.69238299999961,102.43603499999972,118.58984400000008,121.9228520000006,151.0258789999998,114.35888699999941,96.6665039999998,118.7177729999994
206,124.10253900000043,-341.923096,108.84619099999964,-11.794922000000042,111.2822270000006,112.82031300000017,99.48730499999965,98.9741210000002,116.41015599999992,121.15380900000036,149.23095699999976,111.9228520000006,99.10253900000043,116.9228520000006
207,119.35888699999941,-350.897461,105.25634799999989,-15.512939000000188,105.0,111.53857400000015,98.46142599999985,94.48730499999965,109.10253900000043,115.0,142.82031300000017,107.82031300000017,93.46142599999985,110.38476599999922
208,113.7177729999994,-362.0512700000004,103.0771479999994,-20.25634799999989,100.0,111.2822270000006,100.51269500000035,91.2822270000006,101.6665039999998,107.30761700000039,135.89746099999957,105.0,83.84619099999964,102.05126999999993
209,112.43603499999972,-369.61547900000005,104.61523400000078,-22.051270000000386,100.38476599999922,112.43603499999972,105.12841800000024,90.76904300000024,99.74365200000011,103.46142599999985,134.10253900000043,105.51269500000035,78.46142599999985,97.05126999999993
210,117.69238299999961,-369.61547900000005,109.87158199999976,-17.179442999999992,106.9228520000006,114.61523400000078,110.25634799999989,93.9741210000002,104.61523400000078,105.64111300000059,139.87158199999976,109.10253900000043,83.20507799999996,98.9741210000002
211,127.17968800000017,-362.4357909999994,116.15380900000036,-7.948729999999614,115.89746099999957,116.79492200000004,113.3334960000002,100.0,112.82031300000017,112.05126999999993,151.41015599999992,114.23095699999976,97.43603499999972,106.79492200000004
212,135.12841800000024,-354.4870609999998,120.76904300000024,-2.1796869999998307,121.2822270000006,118.20507799999996,113.46142599999985,106.0258789999998,119.61523400000078,118.3334960000002,162.56396500000028,118.9741210000002,114.10253900000043,115.38476599999922
213,136.41015599999992,-353.33325200000036,122.43603499999972,-6.794922000000042,119.23095699999976,118.58984400000008,111.2822270000006,108.84619099999964,122.05126999999993,121.15380900000036,167.05126999999993,121.53857400000015,124.74365200000011,118.84619099999964
214,130.51269500000035,-362.3076170000004,121.53857400000015,-21.153809000000365,110.76904300000024,118.46142599999985,107.56396500000028,107.05126999999993,120.0,119.87158199999976,162.56396500000028,121.0258789999998,124.61523400000078,114.87158199999976
215,121.6665039999998,-377.4357909999994,119.23095699999976,-37.17944299999999,100.89746099999957,118.0771479999994,103.7177729999994,102.56396500000028,115.89746099999957,116.15380900000036,152.56396500000028,117.17968800000017,115.51269500000035,105.89746099999957
216,115.12841800000024,-390.0,116.53857400000015,-45.25634799999989,95.25634799999989,117.43603499999972,100.38476599999922,98.7177729999994,112.56396500000028,112.30761700000039,144.10253900000043,111.41015599999992,103.84619099999964,97.17968800000017
217,113.20507799999996,-393.71801800000003,113.58984400000008,-42.30761700000039,95.51269500000035,116.53857400000015,98.58984400000008,97.82031300000017,110.64111300000059,110.25634799999989,142.94873000000007,105.25634799999989,96.41015599999992,93.46142599999985
218,114.74365200000011,-388.20507799999996,109.74365200000011,-33.974365000000034,99.35888699999941,115.12841800000024,99.10253900000043,100.51269500000035,110.38476599999922,110.64111300000059,149.3588869999994,100.38476599999922,96.41015599999992,95.0
219,117.05126999999993,-378.97436500000003,105.38476599999922,-28.974365000000034,103.58984400000008,113.84619099999964,102.43603499999972,105.0,111.6665039999998,113.0771479999994,158.9741210000002,97.94873000000007,101.15380900000036,98.7177729999994
220,118.46142599999985,-372.9487299999996,102.17968800000017,-31.28198199999997,105.76904300000024,113.46142599999985,108.46142599999985,108.3334960000002,114.10253900000043,116.15380900000036,165.76904300000024,98.20507799999996,106.0258789999998,101.0258789999998
221,118.7177729999994,-373.84619099999964,101.0258789999998,-37.435790999999426,105.38476599999922,114.10253900000043,115.0,108.3334960000002,116.53857400000015,117.43603499999972,166.9228520000006,100.0,107.43603499999972,99.74365200000011
222,117.69238299999961,-380.38452099999995,100.51269500000035,-40.51293900000019,102.82031300000017,115.0,118.7177729999994,105.0,117.17968800000017,115.89746099999957,163.46142599999985,100.89746099999957,105.38476599999922,95.25634799999989
223,114.61523400000078,-389.102539,97.43603499999972,-38.07690400000001,99.23095699999976,115.38476599999922,117.17968800000017,100.51269500000035,114.74365200000011,112.05126999999993,158.9741210000002,99.23095699999976,101.41015599999992,89.23095699999976
224,109.74365200000011,-396.66674799999964,90.64111300000059,-33.846190999999635,96.53857400000015,115.12841800000024,111.15380900000036,97.17968800000017,110.12841800000024,108.0771479999994,156.9228520000006,95.51269500000035,97.17968800000017,83.84619099999964
225,104.61523400000078,-401.53857400000015,83.0771479999994,-33.20507799999996,96.53857400000015,114.87158199999976,105.0,96.53857400000015,105.89746099999957,105.76904300000024,159.23095699999976,92.43603499999972,94.23095699999976,80.51269500000035
226,102.17968800000017,-402.179443,80.0,-38.07690400000001,100.25634799999989,115.12841800000024,102.82031300000017,98.3334960000002,105.0,106.53857400000015,165.0,92.82031300000017,93.84619099999964,80.0
227,105.0,-397.5642090000006,83.9741210000002,-45.0,106.79492200000004,116.0258789999998,106.0258789999998,101.0258789999998,108.20507799999996,110.38476599999922,172.43603499999972,96.41015599999992,96.6665039999998,82.82031300000017
228,113.20507799999996,-389.102539,93.3334960000002,-48.20507799999996,113.58984400000008,117.05126999999993,111.79492200000004,103.58984400000008,113.84619099999964,115.51269500000035,180.2563479999999,101.0258789999998,102.05126999999993,89.48730499999965
229,123.7177729999994,-380.2563479999999,103.7177729999994,-43.71801800000003,119.10253900000043,117.43603499999972,116.15380900000036,106.0258789999998,119.35888699999941,120.0,188.84619099999964,105.0,107.94873000000007,98.7177729999994
230,132.94873000000007,-375.0,111.79492200000004,-32.69238299999961,122.05126999999993,117.17968800000017,117.69238299999961,108.9741210000002,123.0771479999994,122.94873000000007,198.46142599999985,108.20507799999996,113.0771479999994,107.82031300000017
231,138.20507799999996,-375.0,117.17968800000017,-20.38452099999995,122.69238299999961,116.41015599999992,117.43603499999972,112.43603499999972,124.61523400000078,124.74365200000011,207.56396500000028,111.6665039999998,116.79492200000004,113.84619099999964
232,139.3588869999994,-378.71801800000003,120.12841800000024,-13.076904000000013,121.15380900000036,115.76904300000024,117.69238299999961,115.38476599999922,123.9741210000002,125.25634799999989,213.46142599999985,114.48730499999965,119.23095699999976,115.25634799999989
233,138.0771479999994,-382.820557,120.64111300000059,-13.974365000000034,118.20507799999996,115.89746099999957,118.7177729999994,115.76904300000024,121.41015599999992,124.61523400000078,213.9741210000002,115.51269500000035,119.74365200000011,112.05126999999993
234,135.6411130000006,-385.1281740000004,118.20507799999996,-21.794922000000042,114.23095699999976,116.53857400000015,118.3334960000002,112.30761700000039,116.9228520000006,121.9228520000006,209.3588869999994,113.7177729999994,118.0771479999994,106.2822270000006
235,131.79492200000004,-386.79492200000004,113.58984400000008,-32.948729999999614,109.10253900000043,117.05126999999993,114.35888699999941,105.25634799999989,110.38476599999922,116.41015599999992,201.6665039999998,109.61523400000078,114.23095699999976,100.38476599999922
236,126.15380900000036,-390.38452099999995,108.20507799999996,-43.33325200000036,103.20507799999996,117.17968800000017,106.6665039999998,96.41015599999992,103.0771479999994,108.46142599999985,194.23095699999976,104.61523400000078,108.84619099999964,96.2822270000006
237,119.87158199999976,-396.41015600000037,104.23095699999976,-49.23071300000038,98.20507799999996,116.6665039999998,98.3334960000002,89.61523400000078,97.43603499999972,100.89746099999957,189.23095699999976,100.51269500000035,103.7177729999994,95.51269500000035
238,116.0258789999998,-401.41015600000037,103.46142599999985,-49.35888699999987,96.9228520000006,116.15380900000036,93.9741210000002,88.0771479999994,96.41015599999992,97.69238299999961,188.20507799999996,98.9741210000002,100.89746099999957,97.43603499999972
239,116.53857400000015,-402.0512700000004,106.15380900000036,-45.25634799999989,99.35888699999941,116.0258789999998,96.0258789999998,92.56396500000028,100.25634799999989,100.0,191.2822270000006,100.38476599999922,100.89746099999957,100.38476599999922
240,120.38476599999922,-398.84619099999964,110.38476599999922,-41.153809000000365,102.30761700000039,116.0258789999998,102.05126999999993,99.74365200000011,105.89746099999957,105.64111300000059,196.53857400000015,103.58984400000008,101.53857400000015,101.6665039999998
241,124.74365200000011,-395.38452099999995,113.46142599999985,-40.1281740000004,102.05126999999993,116.15380900000036,107.94873000000007,106.0258789999998,109.87158199999976,110.64111300000059,201.2822270000006,106.6665039999998,100.89746099999957,100.38476599999922
242,127.82031300000017,-393.84619099999964,114.74365200000011,-41.92309599999999,99.35888699999941,116.79492200000004,111.41015599999992,109.87158199999976,111.9228520000006,114.10253900000043,204.3588869999994,109.35888699999941,99.35888699999941,98.58984400000008
243,130.12841800000024,-393.33325200000036,116.15380900000036,-42.948729999999614,98.46142599999985,117.94873000000007,113.9741210000002,113.7177729999994,115.38476599999922,117.82031300000017,206.6665039999998,112.43603499999972,100.12841800000024,99.74365200000011
244,132.3076170000004,-391.53857400000015,119.74365200000011,-39.8718259999996,102.94873000000007,119.23095699999976,118.3334960000002,118.84619099999964,122.05126999999993,123.0771479999994,209.7436520000001,116.2822270000006,105.12841800000024,105.51269500000035
245,133.9741210000002,-388.20507799999996,124.23095699999976,-32.82055700000001,110.51269500000035,119.61523400000078,123.7177729999994,123.3334960000002,129.61523400000078,127.69238299999961,213.46142599999985,119.35888699999941,112.69238299999961,112.69238299999961
246,132.82031300000017,-386.15380900000036,125.89746099999957,-25.89746100000002,115.25634799999989,118.7177729999994,126.15380900000036,123.7177729999994,133.3334960000002,127.43603499999972,215.51269500000035,119.48730499999965,117.56396500000028,115.38476599999922
247,127.17968800000017,-387.9487299999996,121.6665039999998,-24.487060999999812,113.20507799999996,117.17968800000017,122.82031300000017,118.0771479999994,129.87158199999976,121.0258789999998,213.3334960000002,115.76904300000024,115.51269500000035,110.0
248,118.3334960000002,-393.46142599999985,113.46142599999985,-30.89746100000002,106.41015599999992,115.89746099999957,114.61523400000078,109.23095699999976,121.2822270000006,111.53857400000015,206.79492200000004,109.48730499999965,107.56396500000028,98.3334960000002
249,110.0,-398.84619099999964,105.64111300000059,-41.92309599999999,100.89746099999957,115.51269500000035,106.53857400000015,101.79492200000004,113.3334960000002,105.0,198.58984400000008,103.84619099999964,98.9741210000002,86.53857400000015
250,106.0258789999998,-400.0,102.69238299999961,-51.41015600000037,100.25634799999989,116.0258789999998,103.20507799999996,99.35888699999941,110.76904300000024,104.87158199999976,192.56396500000028,101.15380900000036,95.25634799999989,80.76904300000024
251,107.30761700000039,-396.79492200000004,105.64111300000059,-55.1281740000004,103.20507799999996,116.6665039999998,105.89746099999957,101.6665039999998,113.7177729999994,109.23095699999976,190.76904300000024,101.79492200000004,97.69238299999961,83.20507799999996
252,111.53857400000015,-392.5642090000006,111.53857400000015,-53.46142599999985,106.15380900000036,116.9228520000006,111.41015599999992,105.51269500000035,117.94873000000007,113.7177729999994,192.94873000000007,104.23095699999976,102.94873000000007,91.15380900000036
253,115.76904300000024,-391.41015600000037,116.15380900000036,-50.25634799999989,105.89746099999957,116.41015599999992,114.74365200000011,107.56396500000028,119.23095699999976,115.25634799999989,196.15380900000036,106.2822270000006,106.6665039999998,98.9741210000002
254,117.82031300000017,-394.102539,116.15380900000036,-49.48706099999981,102.43603499999972,115.25634799999989,112.82031300000017,106.15380900000036,115.89746099999957,113.7177729999994,197.6923829999996,106.53857400000015,106.53857400000015,102.30761700000039
255,117.17968800000017,-398.076904,111.41015599999992,-52.69238299999961,97.05126999999993,114.23095699999976,106.41015599999992,101.9228520000006,109.74365200000011,110.76904300000024,196.0258789999998,105.12841800000024,103.3334960000002,100.51269500000035
256,115.25634799999989,-398.84619099999964,105.12841800000024,-57.051270000000386,92.69238299999961,114.23095699999976,99.87158199999976,97.56396500000028,105.12841800000024,108.7177729999994,193.0771479999994,103.3334960000002,99.48730499999965,96.2822270000006
257,114.35888699999941,-393.84619099999964,101.6665039999998,-58.846190999999635,91.6665039999998,115.38476599999922,98.0771479999994,95.76904300000024,105.38476599999922,108.84619099999964,191.9228520000006,102.69238299999961,98.84619099999964,93.84619099999964
258,115.64111300000059,-385.38452099999995,102.82031300000017,-56.41015600000037,94.23095699999976,116.41015599999992,102.43603499999972,97.56396500000028,110.51269500000035,110.51269500000035,193.9741210000002,103.58984400000008,102.30761700000039,95.25634799999989
259,118.0771479999994,-378.46142599999985,106.9228520000006,-51.66674799999964,98.0771479999994,116.53857400000015,109.74365200000011,100.64111300000059,116.2822270000006,111.9228520000006,197.43603499999972,104.87158199999976,107.05126999999993,98.58984400000008
260,120.0,-376.79492200000004,111.0258789999998,-46.92309599999999,100.51269500000035,115.89746099999957,115.25634799999989,103.0771479999994,118.58984400000008,112.17968800000017,198.9741210000002,105.76904300000024,109.74365200000011,101.53857400000015
261,120.51269500000035,-378.71801800000003,113.20507799999996,-42.82055700000001,101.9228520000006,115.64111300000059,116.79492200000004,104.87158199999976,117.43603499999972,112.30761700000039,197.56396500000028,106.41015599999992,109.23095699999976,102.69238299999961
262,119.87158199999976,-379.7436520000001,113.58984400000008,-40.0,104.10253900000043,116.0258789999998,115.64111300000059,107.05126999999993,115.38476599999922,114.35888699999941,195.38476599999922,107.05126999999993,107.69238299999961,103.0771479999994
263,118.7177729999994,-377.0512700000004,112.94873000000007,-40.51293900000019,107.05126999999993,116.2822270000006,115.12841800000024,110.25634799999989,115.38476599999922,117.56396500000028,194.7436520000001,107.82031300000017,107.05126999999993,103.46142599999985
264,117.17968800000017,-372.3076170000004,111.79492200000004,-45.51293900000019,107.94873000000007,115.51269500000035,116.2822270000006,113.0771479999994,116.9228520000006,119.61523400000078,195.51269500000035,107.43603499999972,107.43603499999972,103.84619099999964
265,115.38476599999922,-368.84619099999964,109.87158199999976,-52.948729999999614,104.48730499999965,114.10253900000043,116.79492200000004,113.7177729999994,118.0771479999994,118.0771479999994,195.6411130000006,105.0,108.0771479999994,103.84619099999964
266,113.9741210000002,-368.71801800000003,107.17968800000017,-57.435790999999426,98.20507799999996,112.30761700000039,114.35888699999941,111.0258789999998,116.6665039999998,113.58984400000008,192.94873000000007,101.53857400000015,107.94873000000007,103.20507799999996
267,113.3334960000002,-370.7692869999996,104.10253900000043,-55.64111300000013,93.3334960000002,110.64111300000059,109.23095699999976,105.76904300000024,113.0771479999994,108.58984400000008,187.94873000000007,99.23095699999976,106.41015599999992,102.43603499999972
268,113.84619099999964,-372.5642090000006,101.79492200000004,-48.974365000000034,91.9228520000006,110.12841800000024,104.35888699999941,98.9741210000002,108.20507799999996,104.48730499999965,182.56396500000028,99.61523400000078,103.3334960000002,101.53857400000015
269,114.87158199999976,-372.3076170000004,100.76904300000024,-42.564209000000574,92.56396500000028,111.6665039999998,102.17968800000017,92.05126999999993,102.82031300000017,101.15380900000036,177.94873000000007,101.2822270000006,98.3334960000002,100.38476599999922
270,115.51269500000035,-369.4870609999998,101.15380900000036,-39.48706099999981,93.9741210000002,114.61523400000078,103.20507799999996,87.43603499999972,97.43603499999972,98.0771479999994,173.7177729999994,102.17968800000017,92.30761700000039,98.58984400000008
271,116.41015599999992,-363.58984399999963,103.3334960000002,-38.33325200000036,96.79492200000004,116.9228520000006,106.2822270000006,87.43603499999972,93.9741210000002,96.6665039999998,169.10253900000043,101.53857400000015,87.43603499999972,97.69238299999961
272,117.94873000000007,-355.7692869999996,107.30761700000039,-35.89746100000002,102.30761700000039,116.53857400000015,109.74365200000011,92.30761700000039,94.48730499999965,97.94873000000007,164.23095699999976,100.12841800000024,85.89746099999957,99.23095699999976
273,119.61523400000078,-348.84619099999964,111.6665039999998,-30.641113000000132,107.56396500000028,113.9741210000002,111.9228520000006,99.23095699999976,99.10253900000043,100.76904300000024,160.76904300000024,99.48730499999965,87.43603499999972,102.82031300000017
274,120.12841800000024,-346.15380900000036,113.7177729999994,-24.8718259999996,107.43603499999972,110.89746099999957,111.53857400000015,103.3334960000002,105.0,101.9228520000006,159.7436520000001,99.87158199999976,89.87158199999976,105.76904300000024
275,118.84619099999964,-348.46142599999985,112.56396500000028,-22.30761700000039,100.12841800000024,108.84619099999964,108.7177729999994,102.56396500000028,108.7177729999994,100.38476599999922,160.6411130000006,100.76904300000024,91.2822270000006,106.2822270000006
276,117.17968800000017,-351.41015600000037,109.87158199999976,-24.74365200000011,90.38476599999922,109.23095699999976,105.51269500000035,98.84619099999964,109.35888699999941,99.61523400000078,162.05126999999993,101.2822270000006,92.82031300000017,105.12841800000024
277,117.05126999999993,-349.7436520000001,107.82031300000017,-30.1281740000004,86.6665039999998,111.9228520000006,103.7177729999994,96.79492200000004,108.7177729999994,103.84619099999964,162.6923829999996,101.6665039999998,96.15380900000036,104.35888699999941
278,119.48730499999965,-341.53857400000015,107.94873000000007,-34.48706099999981,93.58984400000008,115.12841800000024,104.23095699999976,99.35888699999941,109.87158199999976,113.3334960000002,162.82031300000017,101.9228520000006,101.9228520000006,105.64111300000059
279,123.46142599999985,-329.8718259999996,110.12841800000024,-34.8718259999996,108.46142599999985,117.05126999999993,105.76904300000024,106.15380900000036,114.61523400000078,123.58984400000008,163.7177729999994,102.94873000000007,108.0771479999994,108.9741210000002
280,127.17968800000017,-319.35888699999987,113.9741210000002,-31.025634999999966,123.20507799999996,116.2822270000006,107.43603499999972,114.10253900000043,122.17968800000017,129.23095699999976,167.05126999999993,104.87158199999976,113.0771479999994,114.10253900000043
281,129.87158199999976,-313.33325200000036,118.0771479999994,-25.89746100000002,130.6411130000006,113.3334960000002,108.84619099999964,119.61523400000078,129.48730499999965,128.20507799999996,172.56396500000028,107.30761700000039,116.79492200000004,120.12841800000024
282,131.53857400000015,-311.66674799999964,120.64111300000059,-23.333252000000357,128.46142599999985,109.61523400000078,110.12841800000024,120.38476599999922,133.58984400000008,122.94873000000007,177.94873000000007,108.84619099999964,119.48730499999965,125.64111300000059
283,132.82031300000017,-312.5642090000006,120.51269500000035,-24.487060999999812,119.35888699999941,107.30761700000039,111.2822270000006,116.53857400000015,132.56396500000028,117.56396500000028,180.2563479999999,108.46142599999985,120.51269500000035,129.10253900000043
284,133.9741210000002,-314.102539,118.46142599999985,-25.89746100000002,108.58984400000008,107.82031300000017,112.05126999999993,110.89746099999957,127.30761700000039,115.12841800000024,179.48730499999965,106.9228520000006,118.9741210000002,129.48730499999965
285,135.2563479999999,-315.2563479999999,116.53857400000015,-22.69238299999961,101.41015599999992,110.76904300000024,112.43603499999972,106.15380900000036,120.76904300000024,116.15380900000036,177.43603499999972,105.38476599999922,114.87158199999976,127.30761700000039
286,135.6411130000006,-315.7692869999996,116.0258789999998,-14.358886999999868,99.87158199999976,114.35888699999941,112.30761700000039,103.3334960000002,115.64111300000059,118.3334960000002,176.53857400000015,104.61523400000078,109.48730499999965,123.58984400000008
287,134.3588869999994,-315.5129390000002,116.15380900000036,-5.897461000000021,102.69238299999961,116.15380900000036,111.15380900000036,101.9228520000006,112.82031300000017,118.7177729999994,177.05126999999993,104.10253900000043,104.87158199999976,119.61523400000078
288,131.15380900000036,-314.61547900000005,115.64111300000059,-3.9741210000001956,105.76904300000024,115.51269500000035,108.58984400000008,100.76904300000024,111.15380900000036,115.89746099999957,178.20507799999996,103.0771479999994,102.82031300000017,116.41015599999992
289,127.43603499999972,-313.20507799999996,114.74365200000011,-9.487060999999812,107.05126999999993,113.7177729999994,105.76904300000024,99.48730499999965,109.35888699999941,111.6665039999998,178.9741210000002,101.6665039999998,103.9741210000002,114.74365200000011
290,125.38476599999922,-310.64111300000013,114.48730499999965,-16.794922000000042,107.43603499999972,112.56396500000028,105.12841800000024,98.58984400000008,108.3334960000002,110.0,178.46142599999985,100.12841800000024,108.3334960000002,115.0
291,126.15380900000036,-306.53857400000015,115.51269500000035,-19.61547900000005,109.61523400000078,112.82031300000017,108.3334960000002,99.61523400000078,110.38476599999922,112.82031300000017,177.05126999999993,99.61523400000078,114.74365200000011,117.05126999999993
292,128.20507799999996,-301.53857400000015,116.9228520000006,-16.153809000000365,113.58984400000008,114.23095699999976,113.84619099999964,102.56396500000028,115.12841800000024,117.82031300000017,175.76904300000024,100.0,120.76904300000024,119.48730499999965
293,128.46142599999985,-297.6923829999996,117.30761700000039,-10.1281740000004,116.9228520000006,115.51269500000035,117.30761700000039,106.0258789999998,119.48730499999965,120.64111300000059,176.15380900000036,101.2822270000006,123.58984400000008,120.51269500000035
294,125.25634799999989,-297.5642090000006,115.76904300000024,-7.435790999999426,117.17968800000017,114.48730499999965,115.38476599999922,107.05126999999993,119.61523400000078,118.3334960000002,178.20507799999996,102.43603499999972,121.2822270000006,119.23095699999976
295,119.23095699999976,-301.28198199999997,112.17968800000017,-11.28198199999997,113.7177729999994,110.0,108.7177729999994,103.58984400000008,114.35888699999941,111.6665039999998,180.51269500000035,102.30761700000039,114.74365200000011,116.53857400000015
296,112.94873000000007,-307.179443,107.30761700000039,-20.1281740000004,107.17968800000017,103.3334960000002,101.6665039999998,95.89746099999957,105.89746099999957,103.0771479999994,180.38476599999922,100.64111300000059,106.2822270000006,113.58984400000008
297,108.84619099999964,-311.79492200000004,102.43603499999972,-28.58984399999963,99.61523400000078,97.56396500000028,98.20507799999996,87.05126999999993,97.94873000000007,95.89746099999957,176.15380900000036,98.84619099999964,99.10253900000043,111.2822270000006
298,108.3334960000002,-312.6923829999996,100.51269500000035,-31.794922000000042,95.0,96.15380900000036,99.48730499999965,81.41015599999992,94.35888699999941,92.82031300000017,168.84619099999964,98.58984400000008,96.2822270000006,110.25634799999989
299,110.89746099999957,-308.84619099999964,102.82031300000017,-28.58984399999963,97.30761700000039,100.25634799999989,103.7177729999994,81.41015599999992,96.41015599999992,94.74365200000011,161.79492200000004,101.15380900000036,98.20507799999996,111.41015599999992
300,113.58984400000008,-302.4357909999994,107.56396500000028,-22.69238299999961,105.51269500000035,107.30761700000039,107.30761700000039,85.25634799999989,101.41015599999992,99.74365200000011,157.94873000000007,105.12841800000024,102.69238299999961,114.23095699999976
301,113.7177729999994,-297.179443,110.89746099999957,-18.71801800000003,114.23095699999976,113.46142599999985,107.43603499999972,88.58984400000008,104.61523400000078,103.46142599999985,157.56396500000028,107.94873000000007,105.64111300000059,116.0258789999998
302,110.64111300000059,-295.7692869999996,110.76904300000024,-18.461425999999847,117.56396500000028,116.2822270000006,104.23095699999976,88.46142599999985,102.69238299999961,102.69238299999961,158.7177729999994,107.94873000000007,104.10253900000043,114.61523400000078
303,107.56396500000028,-296.15380900000036,109.23095699999976,-18.846190999999635,114.35888699999941,116.15380900000036,100.89746099999957,86.0258789999998,97.56396500000028,98.84619099999964,160.12841800000024,105.89746099999957,99.48730499999965,110.89746099999957
304,108.58984400000008,-293.84619099999964,109.87158199999976,-15.641113000000132,108.84619099999964,115.0,101.0258789999998,85.51269500000035,94.48730499999965,97.17968800000017,162.17968800000017,104.10253900000043,96.9228520000006,109.48730499999965
305,115.12841800000024,-286.02563499999997,114.35888699999941,-8.076904000000013,106.0258789999998,113.7177729999994,104.87158199999976,89.35888699999941,97.17968800000017,101.15380900000036,166.41015599999992,104.10253900000043,101.2822270000006,113.20507799999996
306,124.61523400000078,-275.2563479999999,120.51269500000035,-0.8974609999995664,106.79492200000004,112.30761700000039,110.0,96.41015599999992,104.35888699999941,108.46142599999985,172.94873000000007,106.2822270000006,111.15380900000036,121.0258789999998
307,131.9228520000006,-267.4357909999994,124.74365200000011,0.6411130000005869,108.58984400000008,110.76904300000024,112.56396500000028,102.82031300000017,110.64111300000059,113.20507799999996,179.23095699999976,109.23095699999976,120.12841800000024,128.0771479999994
308,134.48730499999965,-265.5129390000002,124.87158199999976,-3.846190999999635,108.58984400000008,109.10253900000043,111.53857400000015,104.74365200000011,111.2822270000006,112.17968800000017,181.9228520000006,111.2822270000006,121.53857400000015,130.6411130000006
309,132.82031300000017,-267.0512700000004,122.17968800000017,-9.102538999999979,107.82031300000017,108.20507799999996,107.94873000000007,101.79492200000004,106.2822270000006,107.69238299999961,179.3588869999994,111.2822270000006,115.38476599999922,128.58984400000008
310,130.2563479999999,-266.28198199999997,119.74365200000011,-9.8718259999996,108.84619099999964,108.7177729999994,104.61523400000078,97.30761700000039,100.51269500000035,104.35888699999941,173.84619099999964,110.0,106.79492200000004,125.0
311,129.7436520000001,-260.64111300000013,120.0,-4.871825999999601,112.82031300000017,110.51269500000035,103.7177729999994,95.38476599999922,99.10253900000043,105.12841800000024,169.48730499999965,109.23095699999976,102.30761700000039,123.3334960000002
312,132.05126999999993,-253.076904,122.94873000000007,2.5639650000002803,116.9228520000006,113.0771479999994,105.38476599999922,97.82031300000017,103.46142599999985,109.35888699999941,170.12841800000024,109.87158199999976,103.7177729999994,125.12841800000024
313,135.51269500000035,-249.4870609999998,126.15380900000036,7.692382999999609,117.69238299999961,115.25634799999989,107.56396500000028,102.05126999999993,110.0,113.58984400000008,174.23095699999976,111.53857400000015,107.94873000000007,128.84619099999964
314,136.79492200000004,-252.6923829999996,125.89746099999957,8.077147999999397,113.3334960000002,115.89746099999957,107.17968800000017,103.3334960000002,112.94873000000007,114.61523400000078,176.6665039999998,112.94873000000007,109.74365200000011,131.2822270000006
315,133.46142599999985,-259.35888699999987,121.0258789999998,4.743652000000111,105.25634799999989,114.74365200000011,103.0771479999994,99.10253900000043,108.9741210000002,111.53857400000015,172.6923829999996,113.58984400000008,106.53857400000015,130.12841800000024
316,127.05126999999993,-262.6923829999996,114.61523400000078,1.2822270000006029,97.56396500000028,112.94873000000007,97.94873000000007,91.79492200000004,101.15380900000036,106.53857400000015,164.48730499999965,113.46142599999985,100.64111300000059,126.53857400000015
317,122.43603499999972,-258.076904,112.17968800000017,1.6665039999998044,95.12841800000024,111.9228520000006,96.41015599999992,87.69238299999961,96.15380900000036,104.48730499999965,159.23095699999976,113.3334960000002,96.53857400000015,124.48730499999965
318,123.7177729999994,-247.179443,116.6665039999998,5.897460999999566,99.61523400000078,112.82031300000017,101.0258789999998,91.79492200000004,99.48730499999965,108.0771479999994,162.6923829999996,114.10253900000043,97.17968800000017,126.9228520000006
319,129.7436520000001,-236.15380900000036,125.25634799999989,10.256347999999889,107.69238299999961,115.76904300000024,109.23095699999976,102.43603499999972,109.74365200000011,115.51269500000035,173.58984400000008,115.76904300000024,101.2822270000006,132.56396500000028
320,134.7436520000001,-230.76928699999962,131.9228520000006,11.025878999999804,113.58984400000008,118.58984400000008,115.38476599999922,112.82031300000017,120.12841800000024,121.41015599999992,183.20507799999996,117.30761700000039,105.0,136.53857400000015
321,133.7177729999994,-232.3076170000004,132.17968800000017,8.077147999999397,113.7177729999994,119.35888699999941,115.25634799999989,116.6665039999998,123.46142599999985,121.2822270000006,183.20507799999996,117.30761700000039,106.15380900000036,134.87158199999976
322,127.56396500000028,-236.53857400000015,127.43603499999972,5.3847659999992175,109.74365200000011,117.56396500000028,109.35888699999941,112.82031300000017,118.58984400000008,115.64111300000059,172.6923829999996,115.89746099999957,105.51269500000035,128.46142599999985
323,121.79492200000004,-238.84619099999964,122.05126999999993,6.153809000000365,106.0258789999998,114.23095699999976,102.82031300000017,105.25634799999989,110.38476599999922,108.58984400000008,158.84619099999964,113.9741210000002,104.74365200000011,122.43603499999972
324,120.38476599999922,-238.58984399999963,119.48730499999965,9.615234000000783,104.61523400000078,110.76904300000024,99.61523400000078,98.7177729999994,103.84619099999964,103.58984400000008,150.2563479999999,112.17968800000017,103.7177729999994,120.89746099999957
325,123.20507799999996,-239.23071300000038,120.12841800000024,12.17968800000017,103.58984400000008,107.94873000000007,99.61523400000078,95.64111300000059,100.38476599999922,100.25634799999989,150.51269500000035,111.15380900000036,100.64111300000059,123.46142599999985
326,127.17968800000017,-242.6923829999996,122.05126999999993,10.769043000000238,100.64111300000059,106.41015599999992,100.38476599999922,94.74365200000011,98.7177729999994,97.05126999999993,156.15380900000036,111.41015599999992,94.23095699999976,126.41015599999992
327,129.23095699999976,-246.15380900000036,124.23095699999976,6.666503999999804,96.6665039999998,106.79492200000004,100.12841800000024,94.35888699999941,97.69238299999961,94.87158199999976,161.53857400000015,113.3334960000002,86.9228520000006,127.43603499999972
328,129.10253900000043,-244.35888699999987,126.53857400000015,4.487304999999651,95.25634799999989,109.10253900000043,100.0,94.10253900000043,98.9741210000002,96.53857400000015,163.46142599999985,116.41015599999992,84.23095699999976,127.05126999999993
329,128.58984400000008,-235.38452099999995,129.3588869999994,8.205077999999958,98.9741210000002,111.9228520000006,101.6665039999998,95.64111300000059,103.7177729999994,102.82031300000017,162.6923829999996,119.48730499999965,89.61523400000078,127.43603499999972
330,129.87158199999976,-224.10253899999998,132.43603499999972,17.56396500000028,106.2822270000006,113.58984400000008,105.25634799999989,99.23095699999976,110.38476599999922,110.89746099999957,161.9228520000006,120.38476599999922,100.51269500000035,129.7436520000001
331,132.43603499999972,-217.6923829999996,134.87158199999976,27.43603499999972,112.05126999999993,113.58984400000008,109.23095699999976,102.69238299999961,115.25634799999989,115.76904300000024,161.9228520000006,118.46142599999985,109.23095699999976,132.82031300000017
332,133.58984400000008,-220.1281740000004,134.7436520000001,31.410155999999915,111.79492200000004,112.30761700000039,110.64111300000059,103.20507799999996,115.0,115.12841800000024,161.15380900000036,114.74365200000011,109.23095699999976,133.9741210000002
333,130.2563479999999,-228.84619099999964,131.41015599999992,26.153809000000365,105.38476599999922,110.64111300000059,108.0771479999994,99.10253900000043,109.48730499999965,110.51269500000035,157.3076170000004,111.41015599999992,100.76904300000024,131.2822270000006
334,121.9228520000006,-237.6923829999996,125.38476599999922,15.128418000000238,96.15380900000036,108.58984400000008,102.69238299999961,92.56396500000028,101.6665039999998,105.12841800000024,151.2822270000006,109.74365200000011,90.38476599999922,125.38476599999922
335,111.6665039999998,-241.923096,119.48730499999965,5.512695000000349,88.58984400000008,106.53857400000015,97.05126999999993,87.30761700000039,95.89746099999957,101.15380900000036,146.15380900000036,110.0,85.25634799999989,118.9741210000002
336,104.10253900000043,-240.76928699999962,116.15380900000036,2.1796880000001693,85.25634799999989,105.38476599999922,93.9741210000002,86.6665039999998,94.61523400000078,98.7177729999994,145.0,111.0258789999998,87.05126999999993,114.87158199999976
337,101.9228520000006,-236.923096,116.41015599999992,4.230956999999762,86.0258789999998,105.76904300000024,93.7177729999994,90.51269500000035,97.17968800000017,97.17968800000017,147.3076170000004,111.6665039999998,91.9228520000006,114.35888699999941
338,104.23095699999976,-233.97436500000003,118.46142599999985,5.512695000000349,88.7177729999994,106.9228520000006,95.25634799999989,95.89746099999957,100.12841800000024,95.12841800000024,149.87158199999976,111.15380900000036,94.61523400000078,116.41015599999992
339,107.43603499999972,-233.84619099999964,120.0,1.9228520000006029,90.64111300000059,107.56396500000028,97.05126999999993,99.61523400000078,101.2822270000006,92.82031300000017,149.10253900000043,109.87158199999976,93.20507799999996,118.84619099999964
340,108.9741210000002,-236.02563499999997,120.51269500000035,-4.487060999999812,90.76904300000024,107.69238299999961,98.58984400000008,100.76904300000024,100.12841800000024,91.41015599999992,144.61523400000078,109.48730499999965,90.25634799999989,119.87158199999976
341,109.48730499999965,-238.20507799999996,121.0258789999998,-7.051270000000386,90.76904300000024,108.20507799999996,100.0,100.25634799999989,98.46142599999985,92.56396500000028,140.0,110.89746099999957,89.35888699999941,119.35888699999941
342,111.0258789999998,-237.820557,123.20507799999996,-1.2822270000006029,92.82031300000017,109.87158199999976,101.41015599999992,100.64111300000059,98.0771479999994,96.9228520000006,139.10253900000043,113.84619099999964,91.41015599999992,118.58984400000008
343,113.9741210000002,-234.10253899999998,126.79492200000004,11.666503999999804,97.82031300000017,112.05126999999993,102.56396500000028,102.69238299999961,100.12841800000024,102.94873000000007,142.6923829999996,116.6665039999998,94.61523400000078,118.84619099999964
344,116.9228520000006,-227.56420900000057,130.12841800000024,24.871581999999762,103.46142599999985,113.3334960000002,103.3334960000002,105.38476599999922,103.7177729999994,107.17968800000017,147.43603499999972,117.69238299999961,96.0258789999998,120.0
345,117.82031300000017,-220.64111300000013,130.38476599999922,31.282227000000603,105.64111300000059,113.0771479999994,103.0771479999994,106.53857400000015,106.6665039999998,107.05126999999993,148.84619099999964,116.9228520000006,93.84619099999964,120.89746099999957
346,115.0,-216.02563499999997,126.2822270000006,27.43603499999972,102.05126999999993,111.53857400000015,101.9228520000006,104.35888699999941,106.0258789999998,102.43603499999972,144.87158199999976,114.35888699999941,88.20507799999996,119.61523400000078
347,108.7177729999994,-216.02563499999997,119.10253900000043,16.025878999999804,94.10253900000043,109.61523400000078,100.0,99.35888699999941,101.0258789999998,95.89746099999957,137.43603499999972,110.89746099999957,81.41015599999992,115.25634799999989
348,101.41015599999992,-220.38452099999995,112.05126999999993,4.358886999999413,85.89746099999957,108.0771479999994,97.69238299999961,93.7177729999994,92.82031300000017,90.38476599999922,130.76904300000024,107.82031300000017,76.9228520000006,109.35888699999941
349,96.79492200000004,-225.5129390000002,108.46142599999985,-0.769043000000238,82.30761700000039,107.69238299999961,96.0258789999998,90.64111300000059,85.51269500000035,88.46142599999985,128.9741210000002,106.15380900000036,77.30761700000039,104.87158199999976
350,97.69238299999961,-226.53857400000015,109.35888699999941,3.4614259999998467,85.12841800000024,108.84619099999964,96.53857400000015,92.43603499999972,84.23095699999976,91.2822270000006,132.82031300000017,106.53857400000015,83.20507799999996,105.12841800000024
351,103.84619099999964,-220.5129390000002,113.58984400000008,13.846190999999635,93.58984400000008,111.15380900000036,99.74365200000011,98.46142599999985,90.76904300000024,98.20507799999996,140.51269500000035,108.46142599999985,91.79492200000004,110.38476599999922
352,111.41015599999992,-210.5129390000002,118.20507799999996,24.102539000000434,102.94873000000007,113.20507799999996,104.10253900000043,105.25634799999989,101.9228520000006,105.89746099999957,147.56396500000028,110.51269500000035,98.58984400000008,117.17968800000017
353,115.76904300000024,-202.820557,120.12841800000024,28.974121000000196,107.94873000000007,113.46142599999985,106.2822270000006,108.0771479999994,110.76904300000024,109.35888699999941,150.2563479999999,111.15380900000036,99.48730499999965,120.76904300000024
354,115.0,-201.28198199999997,118.58984400000008,27.43603499999972,106.53857400000015,110.89746099999957,104.35888699999941,105.38476599999922,111.9228520000006,105.89746099999957,148.0771479999994,109.10253900000043,93.3334960000002,118.9741210000002
355,111.53857400000015,-204.10253899999998,114.87158199999976,23.077147999999397,101.41015599999992,107.43603499999972,100.38476599999922,100.38476599999922,106.41015599999992,98.9741210000002,144.10253900000043,106.15380900000036,84.61523400000078,115.38476599999922
356,109.87158199999976,-204.8718259999996,112.17968800000017,20.769043000000238,98.46142599999985,106.0258789999998,99.10253900000043,98.9741210000002,100.89746099999957,95.38476599999922,143.46142599999985,105.38476599999922,80.51269500000035,115.25634799999989
357,112.56396500000028,-199.35888699999987,113.0771479999994,22.56396500000028,101.41015599999992,108.3334960000002,103.9741210000002,104.10253900000043,101.9228520000006,99.74365200000011,148.7177729999994,109.35888699999941,85.25634799999989,121.2822270000006
358,117.94873000000007,-188.97436500000003,116.79492200000004,26.153809000000365,108.3334960000002,113.20507799999996,113.20507799999996,113.0771479999994,110.25634799999989,109.74365200000011,157.56396500000028,116.6665039999998,96.79492200000004,129.87158199999976
359,121.79492200000004,-179.61547900000005,119.48730499999965,27.43603499999972,113.20507799999996,117.43603499999972,120.64111300000059,119.23095699999976,120.0,118.0771479999994,164.3588869999994,122.30761700000039,107.82031300000017,134.7436520000001
360,121.79492200000004,-176.923096,118.9741210000002,25.128418000000238,111.6665039999998,118.20507799999996,121.41015599999992,117.69238299999961,124.10253900000043,118.58984400000008,164.10253900000043,122.17968800000017,111.79492200000004,132.3076170000004
361,118.84619099999964,-181.28198199999997,116.2822270000006,21.666503999999804,104.87158199999976,115.12841800000024,115.76904300000024,109.48730499999965,120.0,111.53857400000015,156.9228520000006,116.0258789999998,108.0771479999994,125.38476599999922
362,116.2822270000006,-188.46142599999985,114.87158199999976,21.922852000000603,98.20507799999996,110.51269500000035,108.46142599999985,100.38476599999922,111.15380900000036,102.82031300000017,147.3076170000004,107.94873000000007,101.0258789999998,119.87158199999976
363,115.76904300000024,-193.20507799999996,116.15380900000036,28.077147999999397,95.64111300000059,106.9228520000006,103.7177729999994,95.51269500000035,102.94873000000007,97.94873000000007,140.2563479999999,102.69238299999961,95.12841800000024,118.7177729999994
364,116.53857400000015,-192.6923829999996,118.84619099999964,37.30761700000039,97.43603499999972,106.0258789999998,102.43603499999972,96.0258789999998,98.20507799999996,98.0771479999994,138.58984400000008,102.05126999999993,92.17968800000017,120.64111300000059
365,116.41015599999992,-188.46142599999985,120.51269500000035,42.56396500000028,100.64111300000059,107.05126999999993,102.94873000000007,98.7177729999994,96.6665039999998,100.25634799999989,141.6665039999998,104.87158199999976,91.0258789999998,122.43603499999972
366,114.87158199999976,-182.56420900000057,120.51269500000035,38.846190999999635,102.56396500000028,108.3334960000002,103.46142599999985,100.89746099999957,97.43603499999972,101.2822270000006,146.9228520000006,108.7177729999994,91.15380900000036,122.82031300000017
367,113.46142599999985,-176.41015600000037,120.25634799999989,27.82031300000017,103.20507799999996,108.9741210000002,103.9741210000002,101.6665039999998,100.51269500000035,100.51269500000035,150.76904300000024,111.2822270000006,92.94873000000007,123.0771479999994
368,114.23095699999976,-170.76928699999962,120.76904300000024,17.82031300000017,103.7177729999994,109.48730499999965,105.38476599999922,101.9228520000006,105.38476599999922,100.0,151.15380900000036,111.9228520000006,96.53857400000015,124.74365200000011
369,117.05126999999993,-167.0512700000004,122.05126999999993,16.666503999999804,104.48730499999965,110.64111300000059,107.17968800000017,102.43603499999972,110.51269500000035,101.2822270000006,147.6923829999996,110.89746099999957,99.87158199999976,127.05126999999993
370,119.61523400000078,-167.3076170000004,122.43603499999972,25.384765999999217,105.0,111.79492200000004,107.94873000000007,102.69238299999961,112.69238299999961,103.84619099999964,142.6923829999996,108.84619099999964,99.74365200000011,127.17968800000017
371,120.0,-171.15380900000036,121.79492200000004,37.56396500000028,104.48730499999965,111.9228520000006,106.41015599999992,101.53857400000015,110.12841800000024,104.87158199999976,138.7177729999994,106.79492200000004,94.74365200000011,123.3334960000002
372,117.69238299999961,-175.38452099999995,120.64111300000059,44.87158199999976,103.3334960000002,111.41015599999992,103.7177729999994,99.35888699999941,104.35888699999941,102.43603499999972,137.05126999999993,105.89746099999957,87.05126999999993,116.9228520000006
373,114.10253900000043,-176.15380900000036,120.64111300000059,43.46142599999985,102.30761700000039,111.41015599999992,102.17968800000017,97.43603499999972,98.84619099999964,97.56396500000028,137.17968800000017,106.6665039999998,80.89746099999957,111.9228520000006
374,112.05126999999993,-171.53857400000015,122.43603499999972,36.410155999999915,101.79492200000004,113.20507799999996,103.3334960000002,97.56396500000028,96.6665039999998,93.46142599999985,137.6923829999996,108.0771479999994,79.87158199999976,111.6665039999998
375,113.20507799999996,-163.33325200000036,125.64111300000059,30.641113000000587,101.79492200000004,116.41015599999992,106.9228520000006,99.74365200000011,98.58984400000008,92.69238299999961,137.6923829999996,108.9741210000002,84.23095699999976,116.0258789999998
376,116.79492200000004,-156.02563499999997,127.82031300000017,30.641113000000587,101.53857400000015,119.48730499999965,110.12841800000024,101.53857400000015,102.05126999999993,94.87158199999976,136.2822270000006,108.3334960000002,90.12841800000024,120.64111300000059
377,119.48730499999965,-153.97436500000003,126.15380900000036,35.0,99.61523400000078,121.0258789999998,110.25634799999989,100.0,102.94873000000007,96.53857400000015,132.6923829999996,106.0258789999998,92.69238299999961,120.51269500000035
378,118.20507799999996,-158.58984399999963,120.25634799999989,38.846190999999635,96.0258789999998,120.0,106.9228520000006,95.0,98.7177729999994,94.87158199999976,126.6665039999998,103.0771479999994,90.12841800000024,114.48730499999965
379,113.0771479999994,-166.66674799999964,112.94873000000007,39.102539000000434,92.30761700000039,117.17968800000017,102.30761700000039,89.23095699999976,90.89746099999957,89.87158199999976,119.10253900000043,100.25634799999989,84.74365200000011,106.53857400000015
380,107.30761700000039,-173.076904,108.7177729999994,36.9228520000006,90.12841800000024,114.35888699999941,99.48730499999965,86.79492200000004,83.9741210000002,84.48730499999965,112.94873000000007,98.46142599999985,80.76904300000024,101.53857400000015
381,104.61523400000078,-174.10253899999998,110.12841800000024,36.153809000000365,90.51269500000035,113.20507799999996,99.48730499999965,88.9741210000002,81.53857400000015,82.17968800000017,111.0258789999998,98.3334960000002,80.38476599999922,101.53857400000015
382,106.2822270000006,-169.61547900000005,115.76904300000024,39.61523400000078,92.94873000000007,114.10253900000043,101.53857400000015,93.9741210000002,83.9741210000002,83.58984400000008,114.48730499999965,100.0,82.30761700000039,105.76904300000024
383,111.2822270000006,-162.3076170000004,122.30761700000039,46.153809000000365,96.6665039999998,116.0258789999998,104.48730499999965,98.7177729999994,89.48730499999965,87.69238299999961,122.05126999999993,103.0771479999994,84.48730499999965,112.05126999999993
