,EEG.AF3,EEG.F7,EEG.F3,EEG.FC5,EEG.T7,EEG.P7,EEG.O1,EEG.O2,EEG.P8,EEG.T8,EEG.FC6,EEG.F4,EEG.F8,EEG.AF4
0,127.05126999999993,118.46142599999985,125.51269500000035,95.38476599999922,84.87158199999976,116.2822270000006,124.10253900000043,132.17968800000017,125.25634799999989,112.94873000000007,134.10253900000043,117.17968800000017,64.48730499999965,106.9228520000006
1,135.89746099999957,123.84619099999964,131.2822270000006,92.56396500000028,90.51269500000035,117.43603499999972,131.2822270000006,134.7436520000001,135.2563479999999,124.48730499999965,144.48730499999965,119.48730499999965,76.53857400000015,115.38476599999922
2,139.10253900000043,123.9741210000002,132.56396500000028,87.82031300000017,98.3334960000002,117.05126999999993,132.56396500000028,133.9741210000002,138.58984400000008,130.51269500000035,152.82031300000017,120.76904300000024,79.74365200000011,121.15380900000036
3,133.58984400000008,117.82031300000017,127.82031300000017,79.23095699999976,102.94873000000007,114.74365200000011,125.76904300000024,129.10253900000043,132.05126999999993,125.76904300000024,154.10253900000043,119.74365200000011,72.05126999999993,119.74365200000011
4,121.15380900000036,108.0771479999994,119.35888699999941,67.56396500000028,101.53857400000015,112.05126999999993,114.74365200000011,122.69238299999961,118.9741210000002,113.46142599999985,148.0771479999994,116.2822270000006,58.46142599999985,111.2822270000006
5,108.0771479999994,99.48730499999965,111.79492200000004,56.025878999999804,95.12841800000024,111.15380900000036,106.15380900000036,117.82031300000017,106.79492200000004,102.05126999999993,138.9741210000002,111.41015599999992,47.94873000000007,100.25634799999989
6,100.12841800000024,94.61523400000078,108.7177729999994,48.846190999999635,87.17968800000017,112.94873000000007,104.61523400000078,116.15380900000036,101.6665039999998,98.46142599999985,132.94873000000007,106.53857400000015,46.79492200000004,92.43603499999972
7,99.74365200000011,94.23095699999976,110.51269500000035,47.82031300000017,81.6665039999998,115.51269500000035,109.35888699999941,117.17968800000017,104.23095699999976,103.20507799999996,132.6923829999996,103.3334960000002,53.20507799999996,90.76904300000024
8,104.61523400000078,97.05126999999993,114.48730499999965,52.17968800000017,81.0258789999998,115.76904300000024,115.64111300000059,119.10253900000043,111.2822270000006,111.15380900000036,137.43603499999972,102.94873000000007,58.7177729999994,94.10253900000043
9,111.2822270000006,100.89746099999957,117.56396500000028,58.846190999999635,85.38476599999922,112.56396500000028,118.9741210000002,120.25634799999989,117.69238299999961,116.79492200000004,143.46142599999985,105.64111300000059,56.2822270000006,99.10253900000043
10,117.05126999999993,103.7177729999994,118.7177729999994,65.25634799999989,93.3334960000002,107.43603499999972,118.20507799999996,119.74365200000011,119.10253900000043,118.20507799999996,147.6923829999996,110.12841800000024,45.12841800000024,102.82031300000017
11,120.0,103.9741210000002,118.0771479999994,69.61523400000078,100.51269500000035,104.10253900000043,115.38476599999922,117.17968800000017,114.35888699999941,116.79492200000004,148.84619099999964,113.20507799999996,30.897460999999566,103.84619099999964
12,119.35888699999941,100.76904300000024,116.41015599999992,71.79492200000004,102.30761700000039,104.87158199999976,113.3334960000002,112.82031300000017,105.38476599999922,114.61523400000078,147.3076170000004,112.56396500000028,19.102539000000434,101.9228520000006
13,115.25634799999989,94.61523400000078,114.10253900000043,72.56396500000028,96.53857400000015,109.10253900000043,112.82031300000017,107.43603499999972,96.79492200000004,112.94873000000007,144.7436520000001,108.46142599999985,12.82031300000017,98.0771479999994
14,110.51269500000035,88.46142599999985,111.9228520000006,74.35888699999941,86.0258789999998,114.23095699999976,113.0771479999994,104.10253900000043,92.82031300000017,113.20507799999996,143.84619099999964,103.84619099999964,12.051269999999931,94.87158199999976
15,109.23095699999976,85.51269500000035,112.17968800000017,80.12841800000024,77.43603499999972,117.30761700000039,113.58984400000008,105.89746099999957,95.76904300000024,117.17968800000017,148.0771479999994,102.69238299999961,16.153809000000365,96.0258789999998
16,115.25634799999989,87.69238299999961,116.41015599999992,91.15380900000036,76.79492200000004,117.43603499999972,114.61523400000078,114.23095699999976,105.0,126.79492200000004,158.7177729999994,106.15380900000036,24.230956999999762,103.7177729999994
17,128.46142599999985,94.61523400000078,124.35888699999941,106.79492200000004,84.74365200000011,115.76904300000024,116.6665039999998,125.89746099999957,116.2822270000006,141.0258789999998,173.7177729999994,112.43603499999972,34.61523400000078,117.17968800000017
18,144.61523400000078,103.84619099999964,132.82031300000017,124.35888699999941,96.53857400000015,114.48730499999965,118.84619099999964,135.51269500000035,124.10253900000043,155.6411130000006,187.82031300000017,117.94873000000007,45.38476599999922,132.05126999999993
19,158.46142599999985,111.6665039999998,138.58984400000008,141.15380900000036,105.64111300000059,114.74365200000011,119.87158199999976,138.9741210000002,124.61523400000078,165.89746099999957,196.53857400000015,120.0,55.38476599999922,143.7177729999994
20,167.05126999999993,114.87158199999976,140.51269500000035,154.7436520000001,107.56396500000028,116.2822270000006,118.9741210000002,137.05126999999993,119.35888699999941,170.38476599999922,198.84619099999964,119.35888699999941,64.61523400000078,150.89746099999957
21,171.6665039999998,113.0771479999994,141.53857400000015,164.48730499999965,103.46142599999985,117.43603499999972,116.9228520000006,135.12841800000024,114.35888699999941,172.17968800000017,198.58984400000008,119.23095699999976,75.25634799999989,156.6665039999998
22,175.76904300000024,109.10253900000043,144.3588869999994,171.15380900000036,97.94873000000007,117.69238299999961,115.76904300000024,138.3334960000002,114.87158199999976,176.2822270000006,201.0258789999998,122.30761700000039,89.48730499999965,165.2563479999999
23,182.43603499999972,107.56396500000028,149.3588869999994,176.41015599999992,94.74365200000011,117.43603499999972,116.9228520000006,146.0258789999998,120.89746099999957,185.12841800000024,208.58984400000008,128.3334960000002,106.53857400000015,177.82031300000017
24,191.79492200000004,111.6665039999998,153.46142599999985,181.2822270000006,93.58984400000008,117.30761700000039,119.35888699999941,152.05126999999993,126.53857400000015,195.2563479999999,217.6923829999996,134.23095699999976,122.43603499999972,191.79492200000004
25,201.41015599999992,121.0258789999998,153.7177729999994,186.15380900000036,91.15380900000036,117.43603499999972,120.25634799999989,150.12841800000024,125.0,199.61523400000078,221.6665039999998,135.89746099999957,131.2822270000006,201.9228520000006
26,208.9741210000002,134.61523400000078,150.0,190.89746099999957,85.51269500000035,116.79492200000004,117.94873000000007,139.7436520000001,114.87158199999976,193.58984400000008,216.79492200000004,132.05126999999993,129.61523400000078,205.76904300000024
27,215.51269500000035,152.43603499999972,146.79492200000004,196.79492200000004,79.10253900000043,115.25634799999989,113.58984400000008,127.43603499999972,101.2822270000006,179.7436520000001,206.41015599999992,126.0258789999998,119.87158199999976,206.53857400000015
28,224.61523400000078,176.41015599999992,149.61523400000078,206.6665039999998,77.30761700000039,113.84619099999964,110.64111300000059,121.6665039999998,92.94873000000007,166.9228520000006,198.0771479999994,123.7177729999994,109.48730499999965,210.51269500000035
29,238.3334960000002,206.15380900000036,159.48730499999965,221.41015599999992,83.46142599999985,114.23095699999976,111.9228520000006,125.0,94.61523400000078,162.6923829999996,196.9228520000006,127.69238299999961,104.23095699999976,221.6665039999998
30,253.0771479999994,237.17968800000017,171.6665039999998,237.17968800000017,94.61523400000078,116.53857400000015,115.76904300000024,132.17968800000017,102.43603499999972,166.2822270000006,200.51269500000035,134.61523400000078,102.82031300000017,236.15380900000036
31,261.9228520000006,262.82031300000017,178.3334960000002,246.41015599999992,103.3334960000002,119.10253900000043,117.56396500000028,134.10253900000043,106.79492200000004,168.9741210000002,201.15380900000036,138.0771479999994,97.82031300000017,245.0
32,260.76904300000024,279.10253900000043,175.6411130000006,244.23095699999976,104.10253900000043,119.35888699999941,113.58984400000008,126.15380900000036,100.64111300000059,162.6923829999996,193.0771479999994,134.23095699999976,83.0771479999994,242.05126999999993
33,252.94873000000007,288.20507799999996,166.6665039999998,233.3334960000002,99.74365200000011,117.17968800000017,104.87158199999976,111.53857400000015,85.76904300000024,147.3076170000004,177.6923829999996,125.25634799999989,60.51269500000035,229.23095699999976
34,246.53857400000015,296.15380900000036,158.9741210000002,222.56396500000028,98.20507799999996,114.61523400000078,97.17968800000017,98.20507799999996,70.64111300000059,130.2563479999999,161.6665039999998,117.30761700000039,38.333496000000196,215.38476599999922
35,245.76904300000024,308.20507799999996,157.56396500000028,218.84619099999964,104.23095699999976,114.23095699999976,95.51269500000035,92.82031300000017,63.20507799999996,118.58984400000008,150.38476599999922,115.12841800000024,23.333496000000196,208.46142599999985
36,247.6923829999996,323.84619099999964,160.51269500000035,220.38476599999922,114.10253900000043,116.0258789999998,99.87158199999976,94.35888699999941,63.7177729999994,112.69238299999961,143.58984400000008,118.3334960000002,14.615234000000783,209.10253900000043
37,245.51269500000035,337.4360349999997,162.05126999999993,218.46142599999985,118.84619099999964,117.05126999999993,105.0,96.53857400000015,66.53857400000015,106.53857400000015,136.6665039999998,122.17968800000017,5.641113000000587,211.15380900000036
38,235.0,342.94873000000007,157.43603499999972,205.38476599999922,113.3334960000002,115.38476599999922,105.25634799999989,93.84619099999964,65.51269500000035,95.38476599999922,125.76904300000024,121.79492200000004,-9.230713000000378,206.41015599999992
39,218.46142599999985,339.3588869999994,147.05126999999993,181.41015599999992,100.89746099999957,111.41015599999992,99.10253900000043,86.53857400000015,60.38476599999922,81.0258789999998,111.15380900000036,116.41015599999992,-29.358886999999868,191.6665039999998
40,202.56396500000028,331.2822270000006,135.6411130000006,154.23095699999976,91.15380900000036,106.9228520000006,90.64111300000059,79.61523400000078,55.897460999999566,70.64111300000059,97.17968800000017,109.10253900000043,-48.71801800000003,170.6411130000006
41,192.05126999999993,326.0258789999998,128.3334960000002,133.20507799999996,91.41015599999992,104.10253900000043,86.0258789999998,77.43603499999972,57.30761700000039,68.20507799999996,87.82031300000017,104.23095699999976,-60.1281740000004,151.79492200000004
42,187.05126999999993,327.17968800000017,126.9228520000006,121.6665039999998,100.76904300000024,103.84619099999964,88.46142599999985,80.0,64.10253900000043,70.25634799999989,82.94873000000007,104.10253900000043,-61.41015600000037,141.0258789999998
43,182.6923829999996,331.6665039999998,128.20507799999996,114.23095699999976,111.53857400000015,106.0258789999998,96.0258789999998,82.82031300000017,70.89746099999957,67.69238299999961,78.7177729999994,106.2822270000006,-56.66674799999964,138.46142599999985
44,174.10253900000043,331.79492200000004,127.56396500000028,102.43603499999972,115.38476599999922,108.84619099999964,102.82031300000017,82.17968800000017,73.3334960000002,55.0,71.2822270000006,106.53857400000015,-53.07690400000001,138.58984400000008
45,160.0,323.0771479999994,122.30761700000039,82.43603499999972,109.74365200000011,110.12841800000024,103.9741210000002,77.94873000000007,71.41015599999992,36.2822270000006,60.38476599999922,102.94873000000007,-56.025634999999966,135.12841800000024
46,143.46142599999985,308.5898440000001,114.10253900000043,58.974121000000196,99.74365200000011,108.84619099999964,99.35888699999941,72.94873000000007,68.84619099999964,21.410155999999915,49.23095699999976,97.94873000000007,-65.0,125.25634799999989
47,129.23095699999976,297.05126999999993,106.53857400000015,40.38476599999922,93.0771479999994,106.0258789999998,92.69238299999961,70.38476599999922,68.3334960000002,17.69238299999961,40.38476599999922,95.51269500000035,-75.89746100000002,110.89746099999957
48,119.48730499999965,294.6152340000008,102.43603499999972,31.666503999999804,95.25634799999989,103.9741210000002,88.0771479999994,70.76904300000024,69.74365200000011,23.205077999999958,34.102539000000434,97.05126999999993,-83.71801800000003,95.64111300000059
49,112.56396500000028,300.3847659999992,101.0258789999998,30.0,106.15380900000036,103.7177729999994,86.53857400000015,72.56396500000028,70.64111300000059,29.48730499999965,27.94873000000007,99.35888699999941,-86.41015600000037,82.69238299999961
50,106.0258789999998,308.20507799999996,100.64111300000059,27.82031300000017,121.15380900000036,104.74365200000011,86.53857400000015,73.58984400000008,69.48730499999965,29.358886999999413,21.025878999999804,99.10253900000043,-84.10253899999998,73.84619099999964
51,99.23095699999976,312.6923829999996,100.12841800000024,20.0,135.2563479999999,106.0258789999998,87.17968800000017,72.69238299999961,67.05126999999993,21.794922000000042,14.102539000000434,95.51269500000035,-78.58984399999963,69.23095699999976
52,93.58984400000008,312.6923829999996,99.23095699999976,6.153809000000365,144.87158199999976,106.9228520000006,88.58984400000008,70.25634799999989,64.61523400000078,10.641113000000587,9.102539000000434,90.76904300000024,-72.30761700000039,67.82031300000017
53,89.23095699999976,309.6152340000008,96.9228520000006,-10.512939000000188,148.20507799999996,107.05126999999993,90.76904300000024,66.0258789999998,62.30761700000039,-1.5385740000001533,4.871581999999762,87.43603499999972,-68.07690400000001,66.0258789999998
54,83.3334960000002,303.84619099999964,90.64111300000059,-28.71801800000003,144.10253900000043,106.0258789999998,91.41015599999992,58.589844000000085,57.05126999999993,-16.538574000000153,-2.9487300000000687,85.25634799999989,-69.23071300000038,59.35888699999941
55,72.43603499999972,294.6152340000008,79.23095699999976,-49.35888699999987,133.7177729999994,103.84619099999964,87.94873000000007,47.69238299999961,46.666503999999804,-36.79492200000004,-17.69238299999961,82.43603499999972,-75.89746100000002,45.38476599999922
56,56.666503999999804,282.17968800000017,65.38476599999922,-73.71801800000003,121.15380900000036,101.41015599999992,80.64111300000059,36.025878999999804,34.61523400000078,-59.61547900000005,-37.564209000000574,77.82031300000017,-82.82055700000001,27.17968800000017
57,41.410155999999915,269.6152340000008,54.61523400000078,-99.23071300000038,112.56396500000028,100.64111300000059,73.20507799999996,28.846190999999635,28.461425999999847,-75.89746100000002,-55.25634799999989,73.3334960000002,-81.15380900000036,12.051269999999931
58,32.69238299999961,260.76904300000024,51.79492200000004,-121.15380900000036,111.15380900000036,102.56396500000028,70.51269500000035,29.615234000000783,34.23095699999976,-76.15380900000036,-64.23071300000038,71.6665039999998,-64.48706099999981,6.794922000000042
59,32.17968800000017,257.82031300000017,57.05126999999993,-136.28198199999997,114.74365200000011,106.15380900000036,74.10253900000043,37.17968800000017,50.0,-59.61547900000005,-63.71801800000003,74.10253900000043,-33.974365000000034,12.56396500000028
60,36.53857400000015,258.84619099999964,65.51269500000035,-145.5129390000002,117.94873000000007,108.9741210000002,81.2822270000006,45.897460999999566,66.6665039999998,-35.64111300000013,-58.46142599999985,78.84619099999964,1.7949220000000423,24.230956999999762
61,40.38476599999922,259.10253900000043,71.41015599999992,-152.6923829999996,117.30761700000039,108.84619099999964,87.30761700000039,49.35888699999941,74.61523400000078,-18.461425999999847,-54.8718259999996,82.17968800000017,32.43603499999972,33.333496000000196
62,39.35888699999941,253.7177729999994,70.64111300000059,-161.02563499999997,114.23095699999976,105.89746099999957,88.7177729999994,45.12841800000024,69.87158199999976,-16.666747999999643,-56.153809000000365,81.2822270000006,51.666503999999804,33.46142599999985
63,32.69238299999961,240.89746099999957,63.0771479999994,-170.76928699999962,112.56396500000028,101.79492200000004,85.51269500000035,36.666503999999804,57.17968800000017,-27.30761700000039,-61.28198199999997,76.53857400000015,60.64111300000059,24.230956999999762
64,22.82031300000017,224.23095699999976,52.82031300000017,-178.97436500000003,114.74365200000011,98.9741210000002,80.64111300000059,30.128418000000238,45.76904300000024,-38.58984399999963,-65.25634799999989,70.89746099999957,65.38476599999922,11.410155999999915
65,14.615234000000783,210.38476599999922,46.153809000000365,-181.923096,118.7177729999994,99.10253900000043,77.69238299999961,30.51269500000035,43.589844000000085,-39.48706099999981,-62.82055700000001,68.20507799999996,72.56396500000028,3.077147999999397
66,12.17968800000017,204.61523400000078,47.30761700000039,-177.820557,120.89746099999957,101.79492200000004,78.84619099999964,38.589844000000085,51.53857400000015,-26.923095999999987,-51.92309599999999,70.51269500000035,85.38476599999922,4.102539000000434
67,16.794922000000042,206.53857400000015,55.25634799999989,-167.56420900000057,119.87158199999976,105.51269500000035,83.9741210000002,50.76904300000024,64.74365200000011,-7.179442999999992,-34.74365200000011,76.15380900000036,102.30761700000039,13.717772999999397
68,25.51269500000035,209.87158199999976,64.74365200000011,-154.8718259999996,117.43603499999972,108.0771479999994,90.76904300000024,62.69238299999961,76.79492200000004,10.897460999999566,-16.153809000000365,81.9228520000006,118.0771479999994,26.794922000000042
69,33.7177729999994,207.82031300000017,70.51269500000035,-144.35888699999987,116.6665039999998,108.20507799999996,96.2822270000006,70.76904300000024,84.23095699999976,22.43603499999972,-0.512695000000349,85.76904300000024,128.7177729999994,37.05126999999993
70,38.0771479999994,198.58984400000008,71.53857400000015,-138.33325200000036,119.61523400000078,107.17968800000017,99.10253900000043,74.48730499999965,87.17968800000017,28.974121000000196,11.666503999999804,87.30761700000039,133.46142599999985,41.79492200000004
71,39.74365200000011,187.17968800000017,71.2822270000006,-135.5129390000002,125.89746099999957,107.30761700000039,100.0,76.15380900000036,88.9741210000002,35.51269500000035,22.94873000000007,87.82031300000017,135.2563479999999,43.20507799999996
72,41.79492200000004,180.0,74.23095699999976,-132.3076170000004,133.0771479999994,109.35888699999941,100.76904300000024,78.84619099999964,92.69238299999961,44.87158199999976,36.53857400000015,88.7177729999994,137.17968800000017,45.51269500000035
73,46.025878999999804,178.46142599999985,80.89746099999957,-125.76928699999962,137.17968800000017,112.69238299999961,102.17968800000017,83.3334960000002,98.46142599999985,55.64111300000059,52.17968800000017,90.0,139.3588869999994,50.51269500000035
74,50.12841800000024,178.58984400000008,87.30761700000039,-117.05127000000039,134.7436520000001,115.0,103.84619099999964,87.30761700000039,102.94873000000007,62.17968800000017,65.76904300000024,90.64111300000059,139.23095699999976,55.51269500000035
75,51.153809000000365,175.12841800000024,88.9741210000002,-109.74365200000011,125.38476599999922,114.87158199999976,104.23095699999976,87.94873000000007,102.69238299999961,60.76904300000024,72.82031300000017,89.87158199999976,134.61523400000078,55.897460999999566
76,48.20507799999996,166.79492200000004,84.74365200000011,-106.28198199999997,114.10253900000043,113.3334960000002,103.20507799999996,85.51269500000035,98.0771479999994,53.20507799999996,73.0771479999994,87.69238299999961,126.9228520000006,51.025878999999804
77,44.74365200000011,157.94873000000007,78.46142599999985,-105.0,109.10253900000043,112.43603499999972,101.6665039999998,83.46142599999985,93.58984400000008,47.30761700000039,71.9228520000006,85.64111300000059,120.64111300000059,45.0
78,44.74365200000011,153.20507799999996,75.25634799999989,-102.69238299999961,115.12841800000024,113.58984400000008,101.53857400000015,85.38476599999922,94.10253900000043,50.38476599999922,74.74365200000011,84.87158199999976,118.7177729999994,43.846190999999635
79,49.48730499999965,153.84619099999964,76.9228520000006,-97.30761700000039,129.23095699999976,116.0258789999998,104.23095699999976,92.05126999999993,100.64111300000059,63.0771479999994,83.46142599999985,86.79492200000004,119.35888699999941,50.38476599999922
80,56.53857400000015,156.79492200000004,81.9228520000006,-89.35888699999987,142.17968800000017,117.69238299999961,109.23095699999976,101.0258789999998,110.25634799999989,78.46142599999985,94.87158199999976,91.2822270000006,118.20507799999996,61.9228520000006
81,62.30761700000039,157.82031300000017,87.30761700000039,-80.25634799999989,145.2563479999999,116.9228520000006,114.74365200000011,108.3334960000002,118.0771479999994,87.05126999999993,104.35888699999941,96.53857400000015,112.30761700000039,72.82031300000017
82,64.87158199999976,155.0,91.0258789999998,-71.02563499999997,136.6665039999998,113.58984400000008,118.58984400000008,111.15380900000036,120.89746099999957,83.7177729999994,108.7177729999994,100.38476599999922,103.20507799999996,77.94873000000007
83,64.10253900000043,149.23095699999976,93.20507799999996,-62.30761700000039,122.30761700000039,110.0,119.23095699999976,109.61523400000078,118.9741210000002,72.30761700000039,108.84619099999964,101.41015599999992,94.48730499999965,76.53857400000015
84,62.30761700000039,143.20507799999996,94.48730499999965,-54.35888699999987,111.6665039999998,108.46142599999985,117.43603499999972,105.51269500000035,115.25634799999989,62.17968800000017,108.46142599999985,100.51269500000035,89.61523400000078,71.6665039999998
85,62.30761700000039,139.3588869999994,95.64111300000059,-47.564209000000574,111.53857400000015,109.48730499999965,115.64111300000059,101.53857400000015,112.56396500000028,61.025878999999804,110.76904300000024,99.23095699999976,89.23095699999976,67.82031300000017
86,65.64111300000059,138.20507799999996,96.53857400000015,-41.41015600000037,122.05126999999993,112.05126999999993,115.25634799999989,99.23095699999976,112.43603499999972,69.35888699999941,116.15380900000036,98.9741210000002,91.6665039999998,67.69238299999961
87,71.79492200000004,139.48730499999965,96.9228520000006,-35.51293900000019,136.53857400000015,114.35888699999941,116.79492200000004,99.61523400000078,114.10253900000043,81.0258789999998,121.6665039999998,100.0,93.7177729999994,70.89746099999957
88,78.20507799999996,141.6665039999998,96.9228520000006,-29.8718259999996,146.79492200000004,115.51269500000035,118.3334960000002,102.30761700000039,116.53857400000015,88.46142599999985,123.84619099999964,101.79492200000004,92.94873000000007,74.87158199999976
89,82.69238299999961,143.0771479999994,96.79492200000004,-25.25634799999989,147.43603499999972,115.89746099999957,118.46142599999985,105.38476599999922,117.43603499999972,87.94873000000007,121.2822270000006,103.3334960000002,88.7177729999994,77.05126999999993
90,83.58984400000008,141.9228520000006,96.2822270000006,-22.948729999999614,140.12841800000024,115.89746099999957,116.9228520000006,105.89746099999957,115.12841800000024,80.25634799999989,114.61523400000078,103.3334960000002,81.9228520000006,76.2822270000006
91,81.2822270000006,136.79492200000004,95.38476599999922,-22.948729999999614,130.12841800000024,115.51269500000035,114.35888699999941,102.56396500000028,109.48730499999965,69.87158199999976,105.51269500000035,101.53857400000015,74.48730499999965,73.20507799999996
92,76.79492200000004,127.69238299999961,94.10253900000043,-24.61547900000005,122.94873000000007,114.87158199999976,112.30761700000039,96.6665039999998,102.56396500000028,62.69238299999961,96.15380900000036,98.7177729999994,67.94873000000007,69.35888699999941
93,71.6665039999998,117.82031300000017,92.94873000000007,-26.153809000000365,121.41015599999992,114.35888699999941,111.6665039999998,91.53857400000015,97.94873000000007,62.82031300000017,88.58984400000008,96.6665039999998,63.7177729999994,65.89746099999957
94,68.0771479999994,111.0258789999998,93.20507799999996,-25.1281740000004,125.0,114.35888699999941,112.82031300000017,90.76904300000024,98.58984400000008,70.12841800000024,84.23095699999976,97.05126999999993,63.20507799999996,64.35888699999941
95,67.69238299999961,110.38476599999922,96.0258789999998,-19.61547900000005,131.0258789999998,114.87158199999976,115.0,95.38476599999922,104.10253900000043,79.35888699999941,83.9741210000002,99.61523400000078,66.6665039999998,65.76904300000024
96,70.25634799999989,114.61523400000078,100.38476599999922,-10.38452099999995,135.51269500000035,115.25634799999989,117.17968800000017,102.82031300000017,110.89746099999957,83.9741210000002,87.30761700000039,102.94873000000007,71.9228520000006,69.87158199999976
97,72.56396500000028,118.3334960000002,103.84619099999964,-0.769043000000238,135.12841800000024,115.0,118.0771479999994,108.20507799999996,114.23095699999976,80.25634799999989,91.15380900000036,105.38476599999922,74.74365200000011,74.35888699999941
98,71.53857400000015,116.15380900000036,104.23095699999976,5.0,129.87158199999976,113.3334960000002,117.05126999999993,107.69238299999961,111.41015599999992,69.74365200000011,92.05126999999993,105.25634799999989,71.53857400000015,75.89746099999957
99,67.17968800000017,107.56396500000028,101.79492200000004,5.641113000000587,122.82031300000017,110.76904300000024,114.48730499999965,101.6665039999998,104.61523400000078,58.333496000000196,87.94873000000007,103.20507799999996,62.30761700000039,72.82031300000017
100,63.333496000000196,98.58984400000008,99.48730499999965,4.102539000000434,119.10253900000043,108.7177729999994,112.05126999999993,95.12841800000024,99.10253900000043,53.589844000000085,80.89746099999957,101.0258789999998,52.82031300000017,67.17968800000017
101,64.87158199999976,96.41015599999992,100.0,4.487304999999651,121.6665039999998,109.35888699999941,111.41015599999992,92.94873000000007,99.61523400000078,59.48730499999965,75.12841800000024,100.76904300000024,49.61523400000078,63.589844000000085
102,71.9228520000006,102.56396500000028,102.94873000000007,8.205077999999958,128.84619099999964,112.56396500000028,112.94873000000007,96.53857400000015,106.15380900000036,74.23095699999976,73.84619099999964,102.69238299999961,54.48730499999965,65.51269500000035
103,80.51269500000035,111.53857400000015,105.51269500000035,13.846190999999635,136.15380900000036,116.41015599999992,115.76904300000024,102.94873000000007,114.10253900000043,90.38476599999922,76.6665039999998,105.38476599999922,63.20507799999996,72.30761700000039
104,85.51269500000035,116.15380900000036,105.51269500000035,19.48730499999965,139.23095699999976,118.46142599999985,118.3334960000002,107.82031300000017,119.10253900000043,100.51269500000035,80.64111300000059,106.79492200000004,70.0,80.38476599999922
105,85.12841800000024,113.84619099999964,103.84619099999964,23.974121000000196,137.17968800000017,118.0771479999994,120.12841800000024,108.84619099999964,120.0,101.15380900000036,82.94873000000007,106.15380900000036,71.53857400000015,85.51269500000035
106,80.64111300000059,107.17968800000017,102.30761700000039,26.153809000000365,132.3076170000004,116.2822270000006,120.89746099999957,106.2822270000006,117.94873000000007,93.58984400000008,82.56396500000028,103.9741210000002,68.3334960000002,85.89746099999957
107,74.61523400000078,100.51269500000035,102.05126999999993,24.358886999999413,128.46142599999985,114.87158199999976,120.12841800000024,102.05126999999993,114.48730499999965,82.43603499999972,79.87158199999976,101.9228520000006,62.82031300000017,82.30761700000039
108,70.12841800000024,96.53857400000015,102.82031300000017,18.846190999999635,128.20507799999996,114.48730499999965,118.20507799999996,98.3334960000002,110.64111300000059,72.56396500000028,76.2822270000006,101.53857400000015,57.94873000000007,78.20507799999996
109,69.48730499999965,95.25634799999989,104.61523400000078,12.82031300000017,131.6665039999998,115.0,116.0258789999998,96.2822270000006,107.43603499999972,67.17968800000017,73.3334960000002,102.94873000000007,56.2822270000006,76.53857400000015
110,72.05126999999993,95.64111300000059,106.6665039999998,9.743652000000111,136.53857400000015,115.64111300000059,115.12841800000024,96.6665039999998,105.25634799999989,66.79492200000004,71.79492200000004,104.87158199999976,58.0771479999994,78.58984400000008
111,75.0,95.51269500000035,107.43603499999972,10.641113000000587,139.10253900000043,115.64111300000059,115.25634799999989,98.3334960000002,104.23095699999976,69.74365200000011,71.41015599999992,105.25634799999989,61.666503999999804,82.17968800000017
112,75.12841800000024,94.10253900000043,105.64111300000059,13.846190999999635,137.17968800000017,114.87158199999976,115.0,99.35888699999941,103.46142599999985,73.9741210000002,71.53857400000015,103.0771479999994,64.48730499999965,83.84619099999964
113,72.30761700000039,92.56396500000028,102.17968800000017,16.922852000000603,132.05126999999993,114.23095699999976,113.3334960000002,98.7177729999994,102.69238299999961,77.94873000000007,72.05126999999993,99.74365200000011,65.76904300000024,82.43603499999972
114,70.12841800000024,92.56396500000028,100.38476599999922,19.615234000000783,128.58984400000008,114.23095699999976,111.41015599999992,97.69238299999961,102.69238299999961,81.41015599999992,73.84619099999964,98.46142599999985,67.30761700000039,80.38476599999922
115,72.30761700000039,94.87158199999976,102.94873000000007,22.94873000000007,130.0,114.87158199999976,111.79492200000004,98.7177729999994,104.74365200000011,84.48730499999965,77.56396500000028,101.79492200000004,71.15380900000036,80.76904300000024
116,79.23095699999976,98.46142599999985,108.58984400000008,27.43603499999972,136.6665039999998,115.64111300000059,116.0258789999998,103.58984400000008,109.74365200000011,87.17968800000017,83.0771479999994,108.20507799999996,78.0771479999994,84.35888699999941
117,86.9228520000006,101.2822270000006,113.0771479999994,31.794922000000042,145.6411130000006,116.2822270000006,122.30761700000039,110.38476599999922,116.15380900000036,88.7177729999994,88.46142599999985,113.58984400000008,86.0258789999998,88.9741210000002
118,90.89746099999957,102.56396500000028,112.94873000000007,33.46142599999985,152.43603499999972,116.53857400000015,126.9228520000006,115.76904300000024,121.0258789999998,88.0771479999994,91.0258789999998,114.23095699999976,91.2822270000006,90.89746099999957
119,89.48730499999965,102.43603499999972,107.82031300000017,31.153809000000365,154.10253900000043,116.41015599999992,126.6665039999998,116.9228520000006,121.79492200000004,85.0,89.61523400000078,110.0,91.41015599999992,88.7177729999994
120,85.76904300000024,101.79492200000004,101.2822270000006,26.025878999999804,150.2563479999999,116.0258789999998,122.05126999999993,114.10253900000043,118.9741210000002,82.30761700000039,85.64111300000059,104.23095699999976,87.17968800000017,85.0
121,83.84619099999964,100.25634799999989,98.46142599999985,21.153809000000365,143.3334960000002,115.38476599999922,116.53857400000015,110.0,115.12841800000024,83.46142599999985,82.17968800000017,101.2822270000006,82.05126999999993,84.10253900000043
122,87.05126999999993,96.79492200000004,102.05126999999993,19.871581999999762,136.9228520000006,114.87158199999976,113.84619099999964,107.69238299999961,113.20507799999996,89.23095699999976,82.05126999999993,103.58984400000008,80.12841800000024,88.46142599999985
123,94.87158199999976,92.69238299999961,110.38476599999922,23.333496000000196,133.9741210000002,115.0,115.64111300000059,108.7177729999994,114.48730499999965,96.9228520000006,86.6665039999998,110.0,83.7177729999994,96.41015599999992
124,103.84619099999964,91.15380900000036,118.3334960000002,30.0,134.7436520000001,116.2822270000006,120.12841800000024,113.3334960000002,118.20507799999996,101.79492200000004,94.87158199999976,116.53857400000015,91.9228520000006,103.46142599999985
125,108.84619099999964,94.10253900000043,121.0258789999998,35.51269500000035,136.79492200000004,118.20507799999996,123.84619099999964,118.9741210000002,121.79492200000004,100.89746099999957,102.82031300000017,118.9741210000002,100.89746099999957,105.25634799999989
126,106.9228520000006,99.61523400000078,117.05126999999993,36.025878999999804,136.2822270000006,118.9741210000002,123.7177729999994,122.30761700000039,122.82031300000017,94.87158199999976,106.0258789999998,115.76904300000024,104.87158199999976,100.51269500000035
127,98.46142599999985,103.0771479999994,108.9741210000002,30.384765999999217,130.51269500000035,117.56396500000028,120.0,120.64111300000059,120.64111300000059,87.05126999999993,101.0258789999998,108.9741210000002,100.89746099999957,91.53857400000015
128,88.20507799999996,100.76904300000024,101.2822270000006,21.282227000000603,120.76904300000024,114.23095699999976,115.38476599999922,114.48730499999965,117.05126999999993,81.53857400000015,88.84619099999964,102.69238299999961,91.0258789999998,82.94873000000007
129,80.76904300000024,93.3334960000002,96.9228520000006,12.307617000000391,111.53857400000015,110.76904300000024,112.82031300000017,107.05126999999993,114.10253900000043,80.25634799999989,75.38476599999922,99.35888699999941,80.89746099999957,78.46142599999985
130,78.3334960000002,85.12841800000024,96.0258789999998,6.538574000000153,108.3334960000002,109.23095699999976,113.0771479999994,101.79492200000004,112.56396500000028,81.9228520000006,67.43603499999972,99.10253900000043,75.89746099999957,79.10253900000043
131,80.0,80.25634799999989,96.53857400000015,5.3847659999992175,113.20507799999996,110.25634799999989,114.74365200000011,101.0258789999998,111.9228520000006,83.9741210000002,69.10253900000043,100.51269500000035,78.46142599999985,82.43603499999972
132,83.46142599999985,80.89746099999957,97.69238299999961,9.487304999999651,123.20507799999996,113.20507799999996,115.51269500000035,104.23095699999976,112.30761700000039,85.25634799999989,79.10253900000043,102.17968800000017,87.69238299999961,85.64111300000059
133,86.41015599999992,85.89746099999957,99.74365200000011,17.17968800000017,132.43603499999972,116.15380900000036,114.87158199999976,109.48730499999965,113.84619099999964,86.6665039999998,91.2822270000006,103.84619099999964,99.35888699999941,87.56396500000028
134,87.69238299999961,91.2822270000006,102.17968800000017,23.589844000000085,134.61523400000078,117.56396500000028,113.9741210000002,113.9741210000002,115.64111300000059,87.94873000000007,99.10253900000043,104.74365200000011,107.43603499999972,88.3334960000002
135,87.17968800000017,92.43603499999972,103.46142599999985,23.717772999999397,127.94873000000007,117.17968800000017,114.10253900000043,115.38476599999922,116.15380900000036,87.82031300000017,98.46142599999985,103.84619099999964,107.69238299999961,87.43603499999972
136,86.0258789999998,88.3334960000002,102.56396500000028,16.922852000000603,117.43603499999972,115.76904300000024,116.41015599999992,113.7177729999994,115.12841800000024,85.51269500000035,90.76904300000024,101.6665039999998,101.15380900000036,84.48730499999965
137,86.2822270000006,82.43603499999972,101.2822270000006,8.077147999999397,110.89746099999957,114.48730499999965,121.15380900000036,111.53857400000015,114.10253900000043,83.20507799999996,82.17968800000017,100.38476599999922,93.84619099999964,81.41015599999992
138,89.61523400000078,79.74365200000011,102.05126999999993,4.102539000000434,113.0771479999994,114.10253900000043,126.6665039999998,112.05126999999993,115.51269500000035,84.48730499999965,79.35888699999941,102.17968800000017,92.94873000000007,81.41015599999992
139,95.0,82.30761700000039,105.64111300000059,8.077147999999397,121.2822270000006,114.48730499999965,130.38476599999922,115.89746099999957,119.61523400000078,90.51269500000035,84.61523400000078,106.53857400000015,100.89746099999957,86.0258789999998
140,99.74365200000011,87.17968800000017,110.38476599999922,17.30761700000039,127.94873000000007,114.74365200000011,130.2563479999999,120.25634799999989,124.35888699999941,98.3334960000002,94.48730499999965,110.76904300000024,114.23095699999976,92.69238299999961
141,101.15380900000036,89.74365200000011,113.46142599999985,25.641113000000587,127.69238299999961,114.35888699999941,126.15380900000036,121.2822270000006,126.53857400000015,102.43603499999972,102.05126999999993,112.17968800000017,125.64111300000059,97.05126999999993
142,99.61523400000078,87.30761700000039,113.7177729999994,28.974121000000196,121.6665039999998,113.58984400000008,120.76904300000024,117.94873000000007,124.87158199999976,98.9741210000002,102.69238299999961,110.76904300000024,129.7436520000001,96.41015599999992
143,97.82031300000017,80.64111300000059,111.9228520000006,27.69238299999961,115.12841800000024,113.0771479999994,116.79492200000004,112.69238299999961,120.12841800000024,89.48730499999965,97.17968800000017,108.7177729999994,125.89746099999957,92.43603499999972
144,98.3334960000002,73.46142599999985,110.25634799999989,24.48730499999965,112.30761700000039,113.58984400000008,115.51269500000035,108.84619099999964,115.0,80.38476599999922,90.25634799999989,108.20507799999996,118.20507799999996,88.84619099999964
145,100.76904300000024,68.9741210000002,110.64111300000059,22.82031300000017,112.94873000000007,114.61523400000078,116.41015599999992,108.58984400000008,112.17968800000017,78.3334960000002,87.05126999999993,110.12841800000024,112.43603499999972,88.9741210000002
146,102.94873000000007,68.0771479999994,112.69238299999961,23.846190999999635,113.7177729999994,115.76904300000024,118.46142599999985,111.41015599999992,113.84619099999964,84.87158199999976,88.9741210000002,113.3334960000002,111.79492200000004,92.30761700000039
147,102.43603499999972,69.23095699999976,115.12841800000024,26.666503999999804,111.79492200000004,116.9228520000006,121.15380900000036,115.64111300000059,119.23095699999976,95.64111300000059,93.7177729999994,115.64111300000059,114.87158199999976,95.64111300000059
148,98.9741210000002,70.25634799999989,116.6665039999998,29.74365200000011,108.0771479999994,118.0771479999994,124.10253900000043,119.74365200000011,126.0258789999998,104.35888699999941,96.79492200000004,116.41015599999992,118.46142599999985,95.76904300000024
149,94.87158199999976,70.0,117.17968800000017,32.05126999999993,105.64111300000059,118.58984400000008,126.9228520000006,122.56396500000028,131.53857400000015,107.43603499999972,96.6665039999998,116.0258789999998,119.48730499999965,92.17968800000017
150,92.82031300000017,69.35888699999941,116.9228520000006,33.7177729999994,107.05126999999993,117.94873000000007,128.3334960000002,123.46142599999985,133.58984400000008,105.25634799999989,94.74365200000011,115.38476599999922,117.43603499999972,87.56396500000028
151,93.7177729999994,69.35888699999941,115.38476599999922,35.0,111.79492200000004,116.41015599999992,127.56396500000028,122.30761700000039,131.41015599999992,100.89746099999957,94.23095699999976,114.87158199999976,113.9741210000002,85.25634799999989
152,95.89746099999957,69.87158199999976,113.0771479999994,36.2822270000006,115.89746099999957,115.12841800000024,124.74365200000011,119.74365200000011,126.41015599999992,97.17968800000017,96.79492200000004,113.9741210000002,112.05126999999993,85.51269500000035
153,96.79492200000004,69.35888699999941,110.38476599999922,37.56396500000028,115.51269500000035,114.61523400000078,121.53857400000015,117.43603499999972,121.0258789999998,94.48730499999965,100.0,111.6665039999998,112.94873000000007,86.53857400000015
154,94.48730499999965,66.15380900000036,107.69238299999961,37.69238299999961,109.23095699999976,114.87158199999976,118.9741210000002,116.6665039999998,116.9228520000006,91.2822270000006,100.51269500000035,108.0771479999994,115.76904300000024,85.89746099999957
155,89.61523400000078,60.897460999999566,105.0,36.53857400000015,99.87158199999976,115.38476599999922,117.30761700000039,117.30761700000039,114.35888699999941,85.89746099999957,96.15380900000036,104.74365200000011,117.94873000000007,83.3334960000002
156,85.0,56.666503999999804,102.82031300000017,35.12841800000024,93.84619099999964,115.76904300000024,115.89746099999957,118.46142599999985,112.94873000000007,79.74365200000011,88.84619099999964,104.35888699999941,117.69238299999961,81.6665039999998
157,84.74365200000011,57.43603499999972,102.69238299999961,35.64111300000059,96.2822270000006,115.76904300000024,115.38476599999922,119.48730499999965,113.0771479999994,76.41015599999992,84.10253900000043,107.56396500000028,115.76904300000024,84.35888699999941
158,90.25634799999989,63.333496000000196,105.0,38.974121000000196,106.15380900000036,115.12841800000024,116.53857400000015,119.74365200000011,114.74365200000011,78.7177729999994,85.89746099999957,112.17968800000017,114.35888699999941,91.2822270000006
159,98.84619099999964,70.25634799999989,108.3334960000002,43.974121000000196,116.79492200000004,114.23095699999976,119.74365200000011,118.84619099999964,117.56396500000028,86.53857400000015,94.10253900000043,115.0,115.38476599999922,98.3334960000002
160,106.79492200000004,74.23095699999976,111.2822270000006,48.589844000000085,121.0258789999998,113.3334960000002,124.23095699999976,117.17968800000017,121.0258789999998,96.15380900000036,104.61523400000078,115.51269500000035,119.87158199999976,101.79492200000004
161,111.41015599999992,74.10253900000043,113.20507799999996,51.53857400000015,116.2822270000006,113.58984400000008,128.0771479999994,116.2822270000006,124.35888699999941,103.0771479999994,113.0771479999994,115.64111300000059,126.53857400000015,101.9228520000006
162,112.56396500000028,71.79492200000004,114.10253900000043,52.56396500000028,106.2822270000006,114.87158199999976,129.10253900000043,118.0771479999994,126.9228520000006,104.87158199999976,117.30761700000039,116.6665039999998,132.56396500000028,101.15380900000036
163,110.89746099999957,70.0,113.0771479999994,51.79492200000004,97.69238299999961,116.15380900000036,126.15380900000036,121.53857400000015,127.56396500000028,103.20507799999996,116.53857400000015,117.56396500000028,134.61523400000078,101.41015599999992
164,107.43603499999972,68.7177729999994,109.23095699999976,49.23095699999976,94.74365200000011,116.79492200000004,120.64111300000059,123.58984400000008,126.2822270000006,101.41015599999992,111.2822270000006,116.0258789999998,131.6665039999998,101.15380900000036
165,102.43603499999972,66.41015599999992,103.3334960000002,45.76904300000024,97.69238299999961,116.41015599999992,115.76904300000024,121.6665039999998,123.84619099999964,101.79492200000004,102.94873000000007,111.6665039999998,125.12841800000024,98.46142599999985
166,97.43603499999972,62.17968800000017,97.56396500000028,42.43603499999972,102.94873000000007,115.76904300000024,113.9741210000002,115.76904300000024,121.53857400000015,103.9741210000002,94.23095699999976,106.2822270000006,118.0771479999994,92.94873000000007
167,94.10253900000043,56.79492200000004,94.23095699999976,39.61523400000078,106.2822270000006,115.51269500000035,114.61523400000078,108.46142599999985,119.61523400000078,105.12841800000024,88.46142599999985,102.69238299999961,113.20507799999996,86.41015599999992
168,93.58984400000008,53.333496000000196,94.10253900000043,36.9228520000006,105.25634799999989,115.89746099999957,115.76904300000024,102.94873000000007,117.69238299999961,102.69238299999961,87.17968800000017,102.56396500000028,111.6665039999998,81.9228520000006
169,95.12841800000024,53.974121000000196,96.15380900000036,34.35888699999941,100.89746099999957,116.6665039999998,116.0258789999998,101.41015599999992,115.25634799999989,96.2822270000006,89.61523400000078,105.25634799999989,113.0771479999994,81.0258789999998
170,97.30761700000039,58.589844000000085,98.7177729999994,32.69238299999961,96.6665039999998,117.17968800000017,115.76904300000024,104.23095699999976,112.94873000000007,88.0771479999994,93.3334960000002,109.23095699999976,116.41015599999992,83.58984400000008
171,98.9741210000002,64.35888699999941,100.64111300000059,33.20507799999996,95.89746099999957,117.30761700000039,116.15380900000036,110.0,112.30761700000039,82.05126999999993,95.38476599999922,112.56396500000028,120.38476599999922,87.56396500000028
172,99.74365200000011,67.30761700000039,101.2822270000006,36.025878999999804,99.10253900000043,117.05126999999993,117.56396500000028,116.15380900000036,113.58984400000008,81.15380900000036,93.9741210000002,114.23095699999976,123.46142599999985,90.51269500000035
173,99.35888699999941,64.74365200000011,100.76904300000024,39.87158199999976,103.3334960000002,116.79492200000004,118.7177729999994,119.74365200000011,115.25634799999989,84.10253900000043,89.48730499999965,113.46142599999985,124.35888699999941,90.76904300000024
174,98.20507799999996,58.20507799999996,99.48730499999965,41.53857400000015,104.10253900000043,116.79492200000004,118.58984400000008,118.84619099999964,115.38476599999922,87.43603499999972,84.87158199999976,110.76904300000024,122.43603499999972,88.46142599999985
175,97.17968800000017,51.79492200000004,98.46142599999985,39.35888699999941,99.74365200000011,116.9228520000006,117.30761700000039,114.61523400000078,113.58984400000008,88.3334960000002,83.3334960000002,107.56396500000028,118.58984400000008,85.64111300000059
176,97.05126999999993,50.0,98.84619099999964,33.974121000000196,92.17968800000017,116.9228520000006,115.89746099999957,110.38476599999922,111.41015599999992,87.69238299999961,85.89746099999957,105.51269500000035,115.51269500000035,84.35888699999941
177,97.69238299999961,53.333496000000196,99.87158199999976,28.205077999999958,85.12841800000024,116.41015599999992,114.74365200000011,108.7177729999994,110.51269500000035,88.0771479999994,90.51269500000035,105.76904300000024,114.74365200000011,84.87158199999976
178,97.43603499999972,58.7177729999994,99.87158199999976,24.615234000000783,82.69238299999961,115.89746099999957,113.46142599999985,109.35888699999941,110.25634799999989,90.51269500000035,94.10253900000043,107.82031300000017,116.2822270000006,85.64111300000059
179,96.2822270000006,63.0771479999994,98.46142599999985,25.25634799999989,87.56396500000028,115.89746099999957,112.17968800000017,110.89746099999957,110.25634799999989,94.74365200000011,95.89746099999957,110.76904300000024,119.23095699999976,86.53857400000015
180,96.9228520000006,66.9228520000006,98.46142599999985,31.666503999999804,100.0,117.05126999999993,112.94873000000007,112.82031300000017,112.05126999999993,99.48730499999965,98.3334960000002,113.58984400000008,124.48730499999965,89.87158199999976
181,102.56396500000028,72.56396500000028,103.3334960000002,43.20507799999996,116.53857400000015,118.9741210000002,117.94873000000007,116.41015599999992,117.69238299999961,104.23095699999976,104.48730499999965,116.2822270000006,132.94873000000007,97.82031300000017
182,112.17968800000017,80.64111300000059,112.43603499999972,55.64111300000059,129.87158199999976,120.64111300000059,126.41015599999992,122.05126999999993,126.6665039999998,107.82031300000017,113.7177729999994,118.9741210000002,142.94873000000007,108.58984400000008
183,120.12841800000024,87.17968800000017,120.89746099999957,62.94873000000007,133.58984400000008,121.15380900000036,133.9741210000002,127.56396500000028,134.3588869999994,107.94873000000007,120.64111300000059,121.0258789999998,150.12841800000024,116.53857400000015
184,120.25634799999989,87.05126999999993,123.0771479999994,61.666503999999804,125.89746099999957,120.25634799999989,135.51269500000035,129.3588869999994,135.51269500000035,103.20507799999996,119.23095699999976,121.15380900000036,150.38476599999922,116.2822270000006
185,110.89746099999957,78.3334960000002,117.17968800000017,53.589844000000085,111.9228520000006,118.46142599999985,128.58984400000008,125.25634799999989,128.20507799999996,94.87158199999976,108.7177729999994,118.20507799999996,143.46142599999985,107.05126999999993
186,96.6665039999998,65.64111300000059,106.41015599999992,44.102539000000434,99.48730499999965,116.53857400000015,116.15380900000036,116.15380900000036,116.0258789999998,86.9228520000006,93.9741210000002,112.17968800000017,133.58984400000008,93.58984400000008
187,85.64111300000059,56.2822270000006,97.05126999999993,38.589844000000085,93.9741210000002,115.51269500000035,104.74365200000011,105.64111300000059,105.38476599999922,83.9741210000002,83.0771479999994,105.38476599999922,126.53857400000015,83.3334960000002
188,83.0771479999994,55.25634799999989,93.84619099999964,39.48730499999965,96.0258789999998,115.76904300000024,101.0258789999998,98.3334960000002,102.05126999999993,87.94873000000007,80.89746099999957,100.76904300000024,125.89746099999957,81.15380900000036
189,88.9741210000002,60.64111300000059,96.79492200000004,44.61523400000078,102.05126999999993,116.9228520000006,105.89746099999957,96.9228520000006,106.6665039999998,96.41015599999992,87.17968800000017,100.38476599999922,130.0,86.79492200000004
190,97.56396500000028,66.15380900000036,101.79492200000004,49.35888699999941,106.9228520000006,117.94873000000007,114.10253900000043,100.64111300000059,114.87158199999976,104.23095699999976,96.2822270000006,103.9741210000002,134.61523400000078,94.61523400000078
191,101.79492200000004,66.15380900000036,104.10253900000043,49.102539000000434,107.05126999999993,117.94873000000007,118.7177729999994,105.12841800000024,120.51269500000035,107.17968800000017,102.17968800000017,108.58984400000008,135.38476599999922,97.56396500000028
192,98.84619099999964,60.12841800000024,101.79492200000004,43.333496000000196,102.82031300000017,116.9228520000006,116.15380900000036,106.2822270000006,119.87158199999976,104.87158199999976,102.05126999999993,110.51269500000035,132.05126999999993,92.69238299999961
193,92.43603499999972,53.46142599999985,97.43603499999972,36.2822270000006,97.82031300000017,115.64111300000059,109.87158199999976,103.58984400000008,114.87158199999976,100.51269500000035,98.3334960000002,108.58984400000008,128.0771479999994,83.84619099999964
194,89.23095699999976,53.46142599999985,95.25634799999989,33.7177729999994,96.9228520000006,115.0,105.76904300000024,100.64111300000059,110.89746099999957,98.7177729999994,96.53857400000015,105.25634799999989,128.0771479999994,78.7177729999994
195,92.43603499999972,62.17968800000017,96.9228520000006,38.589844000000085,101.41015599999992,115.38476599999922,107.43603499999972,101.53857400000015,111.79492200000004,100.64111300000059,99.23095699999976,103.46142599999985,132.94873000000007,82.05126999999993
196,98.84619099999964,74.10253900000043,99.87158199999976,47.56396500000028,107.56396500000028,116.53857400000015,113.20507799999996,106.53857400000015,116.15380900000036,103.7177729999994,103.84619099999964,103.9741210000002,138.84619099999964,90.76904300000024
197,102.56396500000028,80.64111300000059,100.51269500000035,54.48730499999965,109.35888699999941,117.56396500000028,117.82031300000017,112.30761700000039,119.48730499999965,103.58984400000008,105.64111300000059,105.12841800000024,140.12841800000024,97.82031300000017
198,100.51269500000035,77.69238299999961,98.20507799999996,55.51269500000035,105.0,117.94873000000007,117.82031300000017,115.0,119.35888699999941,99.87158199999976,103.20507799999996,105.64111300000059,135.76904300000024,98.46142599999985
199,95.89746099999957,69.74365200000011,96.0258789999998,52.43603499999972,98.9741210000002,117.56396500000028,114.61523400000078,114.87158199999976,117.69238299999961,96.41015599999992,99.87158199999976,105.51269500000035,131.15380900000036,95.76904300000024
200,93.84619099999964,65.0,97.69238299999961,50.51269500000035,97.17968800000017,116.9228520000006,112.17968800000017,115.12841800000024,117.82031300000017,97.94873000000007,100.0,106.15380900000036,132.05126999999993,95.38476599999922
201,96.15380900000036,67.30761700000039,102.43603499999972,52.43603499999972,100.51269500000035,116.2822270000006,113.0771479999994,116.9228520000006,120.0,103.58984400000008,103.84619099999964,107.69238299999961,138.9741210000002,98.84619099999964
202,99.23095699999976,72.69238299999961,106.0258789999998,55.64111300000059,104.48730499999965,116.15380900000036,116.15380900000036,117.94873000000007,120.51269500000035,106.15380900000036,107.05126999999993,108.7177729999994,145.6411130000006,102.17968800000017
203,98.0771479999994,73.7177729999994,104.61523400000078,55.12841800000024,103.7177729999994,116.2822270000006,118.58984400000008,114.74365200000011,115.64111300000059,99.74365200000011,104.10253900000043,107.69238299999961,145.12841800000024,99.87158199999976
204,91.53857400000015,67.30761700000039,98.46142599999985,49.35888699999941,97.56396500000028,116.6665039999998,118.20507799999996,107.17968800000017,106.15380900000036,85.64111300000059,94.48730499999965,104.74365200000011,136.53857400000015,91.15380900000036
205,83.20507799999996,57.69238299999961,91.2822270000006,41.53857400000015,90.0,116.9228520000006,116.15380900000036,99.48730499999965,97.56396500000028,72.82031300000017,83.46142599999985,101.2822270000006,125.76904300000024,80.64111300000059
206,78.46142599999985,51.79492200000004,87.82031300000017,36.79492200000004,86.2822270000006,117.17968800000017,114.74365200000011,96.2822270000006,94.87158199999976,70.25634799999989,78.0771479999994,99.74365200000011,120.38476599999922,74.61523400000078
207,80.25634799999989,53.333496000000196,89.87158199999976,37.30761700000039,89.35888699999941,117.30761700000039,115.38476599999922,99.48730499999965,98.46142599999985,79.23095699999976,81.53857400000015,100.38476599999922,123.58984400000008,76.41015599999992
208,86.2822270000006,59.35888699999941,95.0,41.2822270000006,97.56396500000028,117.43603499999972,117.05126999999993,106.41015599999992,104.74365200000011,93.0771479999994,91.41015599999992,101.9228520000006,131.41015599999992,82.94873000000007
209,90.51269500000035,63.46142599999985,99.35888699999941,44.102539000000434,105.64111300000059,117.30761700000039,116.9228520000006,111.2822270000006,108.84619099999964,101.6665039999998,101.15380900000036,102.56396500000028,136.41015599999992,88.46142599999985
210,89.23095699999976,61.410155999999915,100.25634799999989,43.20507799999996,108.46142599999985,117.05126999999993,113.7177729999994,110.25634799999989,108.3334960000002,99.35888699999941,105.12841800000024,101.6665039999998,133.9741210000002,88.58984400000008
211,84.10253900000043,55.25634799999989,98.3334960000002,39.48730499999965,104.23095699999976,116.79492200000004,109.48730499999965,104.10253900000043,105.25634799999989,89.48730499999965,103.20507799999996,100.12841800000024,125.76904300000024,84.35888699999941
212,81.0258789999998,50.76904300000024,97.05126999999993,36.79492200000004,97.05126999999993,117.05126999999993,107.82031300000017,98.46142599999985,103.84619099999964,81.2822270000006,99.35888699999941,99.74365200000011,118.20507799999996,81.0258789999998
213,84.74365200000011,52.82031300000017,98.84619099999964,38.589844000000085,93.20507799999996,117.43603499999972,111.15380900000036,98.84619099999964,106.79492200000004,83.3334960000002,99.10253900000043,101.15380900000036,117.56396500000028,83.46142599999985
214,94.35888699999941,60.76904300000024,103.20507799999996,44.23095699999976,95.64111300000059,117.69238299999961,117.56396500000028,105.89746099999957,112.94873000000007,96.15380900000036,103.84619099999964,104.10253900000043,124.35888699999941,91.0258789999998
215,103.20507799999996,68.7177729999994,106.9228520000006,48.974121000000196,101.53857400000015,117.43603499999972,122.05126999999993,114.61523400000078,117.82031300000017,110.89746099999957,109.74365200000011,106.6665039999998,132.43603499999972,98.20507799999996
216,104.35888699999941,69.61523400000078,106.6665039999998,47.94873000000007,104.35888699999941,116.6665039999998,120.51269500000035,118.0771479999994,116.79492200000004,115.64111300000059,110.89746099999957,106.6665039999998,134.23095699999976,98.9741210000002
217,96.9228520000006,61.666503999999804,102.43603499999972,41.153809000000365,100.51269500000035,115.76904300000024,113.0771479999994,113.7177729999994,109.10253900000043,105.0,105.12841800000024,103.84619099999964,127.30761700000039,92.82031300000017
218,86.53857400000015,50.51269500000035,97.56396500000028,32.69238299999961,92.17968800000017,115.25634799999989,104.61523400000078,105.51269500000035,99.35888699999941,85.25634799999989,96.2822270000006,100.25634799999989,117.17968800000017,85.64111300000059
219,80.25634799999989,44.102539000000434,95.76904300000024,28.205077999999958,84.74365200000011,115.0,100.38476599999922,100.0,93.7177729999994,69.48730499999965,90.38476599999922,98.7177729999994,111.0258789999998,83.7177729999994
220,80.76904300000024,46.153809000000365,97.56396500000028,29.102539000000434,81.9228520000006,115.12841800000024,102.56396500000028,100.51269500000035,95.38476599999922,67.56396500000028,90.89746099999957,99.87158199999976,112.56396500000028,87.94873000000007
221,85.64111300000059,53.20507799999996,100.64111300000059,33.20507799999996,84.23095699999976,115.38476599999922,108.7177729999994,104.61523400000078,101.79492200000004,79.48730499999965,95.89746099999957,102.69238299999961,118.9741210000002,93.84619099999964
222,90.12841800000024,59.102539000000434,102.43603499999972,37.05126999999993,90.38476599999922,115.51269500000035,114.35888699999941,108.0771479999994,108.58984400000008,97.05126999999993,101.41015599999992,104.61523400000078,125.0,96.53857400000015
223,91.53857400000015,60.12841800000024,102.17968800000017,39.87158199999976,98.0771479999994,115.89746099999957,116.2822270000006,109.23095699999976,112.43603499999972,110.25634799999989,104.61523400000078,105.0,126.9228520000006,95.12841800000024
224,89.35888699999941,57.05126999999993,100.64111300000059,42.69238299999961,103.84619099999964,116.2822270000006,114.48730499999965,108.84619099999964,112.82031300000017,113.0771479999994,104.87158199999976,103.7177729999994,124.74365200000011,91.9228520000006
225,85.76904300000024,53.20507799999996,99.23095699999976,46.153809000000365,104.61523400000078,116.53857400000015,111.6665039999998,108.46142599999985,111.2822270000006,106.15380900000036,103.0771479999994,102.05126999999993,120.51269500000035,90.12841800000024
226,83.7177729999994,51.025878999999804,98.9741210000002,50.0,99.35888699999941,116.41015599999992,110.51269500000035,108.46142599999985,109.74365200000011,96.0258789999998,100.38476599999922,101.15380900000036,116.53857400000015,91.53857400000015
227,84.87158199999976,51.9228520000006,100.51269500000035,53.333496000000196,90.89746099999957,116.2822270000006,111.9228520000006,108.58984400000008,109.23095699999976,91.2822270000006,98.3334960000002,101.79492200000004,114.61523400000078,95.76904300000024
228,88.46142599999985,55.64111300000059,103.0771479999994,55.897460999999566,83.9741210000002,116.53857400000015,114.48730499999965,108.58984400000008,109.87158199999976,94.87158199999976,97.69238299999961,103.3334960000002,115.0,100.51269500000035
229,92.43603499999972,60.12841800000024,104.87158199999976,57.82031300000017,82.56396500000028,117.43603499999972,116.41015599999992,108.46142599999985,110.25634799999989,102.56396500000028,98.3334960000002,104.87158199999976,116.9228520000006,103.0771479999994
230,94.61523400000078,63.20507799999996,104.74365200000011,59.23095699999976,86.6665039999998,118.46142599999985,116.2822270000006,108.7177729999994,108.9741210000002,106.15380900000036,98.9741210000002,105.12841800000024,118.58984400000008,102.05126999999993
231,93.7177729999994,62.69238299999961,102.69238299999961,59.102539000000434,93.20507799999996,118.7177729999994,114.61523400000078,109.48730499999965,105.64111300000059,101.2822270000006,98.0771479999994,103.9741210000002,118.3334960000002,97.56396500000028
232,90.0,58.7177729999994,100.12841800000024,57.05126999999993,99.10253900000043,118.3334960000002,112.82031300000017,110.38476599999922,102.05126999999993,91.2822270000006,95.64111300000059,102.17968800000017,115.51269500000035,90.89746099999957
233,85.38476599999922,53.974121000000196,98.84619099999964,54.74365200000011,103.20507799999996,117.30761700000039,111.9228520000006,110.51269500000035,100.25634799999989,84.87158199999976,92.94873000000007,101.0258789999998,111.0258789999998,84.74365200000011
234,82.17968800000017,51.410155999999915,99.48730499999965,54.74365200000011,105.38476599999922,116.2822270000006,112.17968800000017,109.10253900000043,101.0258789999998,87.43603499999972,91.0258789999998,100.89746099999957,106.41015599999992,81.2822270000006
235,82.05126999999993,52.56396500000028,101.15380900000036,57.82031300000017,106.0258789999998,115.38476599999922,113.3334960000002,106.53857400000015,103.0771479999994,96.6665039999998,90.0,101.53857400000015,102.94873000000007,81.41015599999992
236,84.87158199999976,56.153809000000365,102.43603499999972,62.05126999999993,104.87158199999976,115.25634799999989,114.74365200000011,103.84619099999964,104.23095699999976,104.10253900000043,89.61523400000078,102.05126999999993,101.0258789999998,84.10253900000043
237,88.7177729999994,58.846190999999635,102.30761700000039,65.12841800000024,102.05126999999993,115.64111300000059,115.76904300000024,101.9228520000006,102.82031300000017,102.56396500000028,89.35888699999941,102.17968800000017,100.51269500000035,87.69238299999961
238,90.89746099999957,58.589844000000085,100.64111300000059,65.38476599999922,98.0771479999994,116.15380900000036,116.0258789999998,101.0258789999998,98.84619099999964,91.6665039999998,88.46142599999985,101.6665039999998,100.64111300000059,89.61523400000078
239,90.12841800000024,55.38476599999922,98.3334960000002,63.589844000000085,93.3334960000002,116.15380900000036,115.12841800000024,100.25634799999989,93.84619099999964,77.69238299999961,86.2822270000006,101.0258789999998,100.51269500000035,88.7177729999994
240,87.05126999999993,51.79492200000004,96.9228520000006,61.9228520000006,89.87158199999976,115.76904300000024,113.0771479999994,99.61523400000078,90.38476599999922,69.35888699999941,83.58984400000008,100.89746099999957,99.35888699999941,85.76904300000024
241,83.84619099999964,51.153809000000365,97.17968800000017,62.69238299999961,89.87158199999976,115.64111300000059,111.41015599999992,100.51269500000035,91.2822270000006,71.9228520000006,82.56396500000028,101.79492200000004,98.0771479999994,83.84619099999964
242,82.94873000000007,54.23095699999976,99.35888699999941,66.0258789999998,94.48730499999965,115.64111300000059,111.41015599999992,104.61523400000078,97.05126999999993,84.10253900000043,84.48730499999965,103.3334960000002,97.82031300000017,85.64111300000059
243,84.48730499999965,58.846190999999635,102.17968800000017,70.0,102.05126999999993,115.76904300000024,113.20507799999996,110.89746099999957,105.76904300000024,98.20507799999996,88.7177729999994,104.35888699999941,98.7177729999994,90.38476599999922
244,86.6665039999998,61.79492200000004,104.23095699999976,71.9228520000006,108.46142599999985,115.76904300000024,115.38476599999922,115.89746099999957,112.56396500000028,106.15380900000036,93.0771479999994,103.9741210000002,100.0,94.23095699999976
245,87.69238299999961,61.2822270000006,104.48730499999965,70.76904300000024,110.64111300000059,115.76904300000024,116.2822270000006,116.41015599999992,114.23095699999976,104.48730499999965,95.0,102.43603499999972,101.15380900000036,94.23095699999976
246,88.0771479999994,59.102539000000434,102.94873000000007,68.20507799999996,108.3334960000002,115.76904300000024,115.12841800000024,112.82031300000017,110.76904300000024,97.05126999999993,94.35888699999941,100.89746099999957,102.43603499999972,91.0258789999998
247,88.46142599999985,57.30761700000039,100.64111300000059,66.6665039999998,103.58984400000008,115.76904300000024,112.17968800000017,108.3334960000002,106.0258789999998,89.87158199999976,91.6665039999998,100.38476599999922,103.9741210000002,87.43603499999972
248,88.46142599999985,55.51269500000035,97.82031300000017,66.41015599999992,98.3334960000002,115.76904300000024,108.0771479999994,105.38476599999922,102.82031300000017,86.53857400000015,86.9228520000006,101.15380900000036,104.23095699999976,85.38476599999922
249,86.53857400000015,50.897460999999566,94.61523400000078,65.38476599999922,92.94873000000007,115.76904300000024,103.84619099999964,103.46142599999985,101.9228520000006,86.15380900000036,80.0,101.6665039999998,100.76904300000024,83.7177729999994
250,81.9228520000006,42.69238299999961,91.79492200000004,62.05126999999993,88.3334960000002,115.76904300000024,100.51269500000035,101.41015599999992,101.15380900000036,86.2822270000006,72.17968800000017,100.64111300000059,93.3334960000002,80.64111300000059
251,77.43603499999972,35.12841800000024,90.64111300000059,58.46142599999985,86.79492200000004,115.76904300000024,99.23095699999976,99.48730499999965,99.23095699999976,86.53857400000015,67.82031300000017,98.3334960000002,86.53857400000015,76.53857400000015
252,77.82031300000017,35.25634799999989,92.94873000000007,59.23095699999976,91.41015599999992,115.76904300000024,101.2822270000006,100.12841800000024,98.20507799999996,89.48730499999965,71.15380900000036,96.41015599999992,86.9228520000006,75.12841800000024
253,85.38476599999922,46.2822270000006,98.84619099999964,67.30761700000039,101.9228520000006,115.76904300000024,106.9228520000006,105.76904300000024,101.53857400000015,96.79492200000004,82.43603499999972,97.17968800000017,97.17968800000017,80.12841800000024
254,97.17968800000017,63.0771479999994,106.0258789999998,79.74365200000011,112.94873000000007,115.76904300000024,114.10253900000043,114.61523400000078,109.74365200000011,105.89746099999957,96.2822270000006,100.76904300000024,112.43603499999972,90.89746099999957
255,106.0258789999998,75.38476599999922,110.25634799999989,88.0771479999994,116.41015599999992,115.76904300000024,119.10253900000043,121.2822270000006,117.94873000000007,110.25634799999989,105.12841800000024,104.87158199999976,123.20507799999996,101.6665039999998
256,105.89746099999957,75.76904300000024,108.9741210000002,86.53857400000015,108.9741210000002,115.76904300000024,119.23095699999976,120.64111300000059,120.64111300000059,104.61523400000078,103.84619099999964,106.41015599999992,122.17968800000017,105.64111300000059
257,96.6665039999998,65.12841800000024,103.3334960000002,76.9228520000006,96.15380900000036,115.76904300000024,114.48730499999965,112.43603499999972,115.51269500000035,91.6665039999998,94.10253900000043,104.10253900000043,109.87158199999976,100.25634799999989
258,84.48730499999965,52.17968800000017,97.56396500000028,67.69238299999961,88.3334960000002,115.76904300000024,108.7177729999994,102.43603499999972,106.15380900000036,80.38476599999922,82.43603499999972,99.74365200000011,94.61523400000078,89.35888699999941
259,77.17968800000017,46.153809000000365,95.12841800000024,66.2822270000006,92.43603499999972,115.76904300000024,106.15380900000036,98.0771479999994,99.48730499999965,78.7177729999994,76.2822270000006,96.79492200000004,86.41015599999992,80.38476599999922
260,78.84619099999964,50.25634799999989,96.53857400000015,73.7177729999994,106.0258789999998,115.76904300000024,108.3334960000002,102.05126999999993,99.87158199999976,87.30761700000039,79.23095699999976,97.05126999999993,89.61523400000078,79.23095699999976
261,86.41015599999992,59.87158199999976,98.84619099999964,83.9741210000002,118.9741210000002,115.76904300000024,113.20507799999996,110.89746099999957,105.38476599999922,99.10253900000043,87.30761700000039,99.35888699999941,100.76904300000024,84.48730499999965
262,92.94873000000007,66.41015599999992,99.10253900000043,89.23095699999976,122.17968800000017,115.76904300000024,117.05126999999993,116.9228520000006,110.0,105.38476599999922,92.94873000000007,101.15380900000036,110.38476599999922,89.74365200000011
263,93.0771479999994,65.25634799999989,96.53857400000015,85.89746099999957,114.61523400000078,115.76904300000024,116.6665039999998,115.0,108.7177729999994,102.30761700000039,90.89746099999957,100.51269500000035,111.0258789999998,89.23095699999976
264,87.56396500000028,58.846190999999635,93.46142599999985,77.56396500000028,103.58984400000008,115.76904300000024,112.56396500000028,106.6665039999998,102.56396500000028,93.58984400000008,82.82031300000017,98.0771479999994,102.69238299999961,83.46142599999985
265,82.43603499999972,53.846190999999635,92.94873000000007,71.79492200000004,98.20507799999996,115.76904300000024,108.20507799999996,98.7177729999994,97.69238299999961,87.30761700000039,76.2822270000006,96.2822270000006,92.82031300000017,78.0771479999994
266,83.20507799999996,55.51269500000035,96.2822270000006,73.9741210000002,102.43603499999972,115.76904300000024,107.69238299999961,98.7177729999994,99.61523400000078,89.35888699999941,77.05126999999993,97.05126999999993,89.87158199999976,78.46142599999985
267,89.87158199999976,63.589844000000085,101.9228520000006,83.9741210000002,112.56396500000028,115.76904300000024,111.79492200000004,107.43603499999972,109.23095699999976,98.46142599999985,85.12841800000024,100.38476599999922,96.2822270000006,85.25634799999989
268,97.56396500000028,73.0771479999994,106.6665039999998,95.51269500000035,120.25634799999989,115.76904300000024,117.05126999999993,118.84619099999964,120.51269500000035,107.30761700000039,95.0,103.9741210000002,107.43603499999972,93.3334960000002
269,99.87158199999976,78.3334960000002,107.56396500000028,100.89746099999957,119.23095699999976,115.76904300000024,118.9741210000002,124.35888699999941,126.0258789999998,108.3334960000002,99.74365200000011,105.25634799999989,115.51269500000035,96.6665039999998
270,94.87158199999976,77.30761700000039,104.61523400000078,97.56396500000028,110.12841800000024,115.76904300000024,115.25634799999989,119.87158199999976,122.17968800000017,99.74365200000011,96.2822270000006,103.3334960000002,115.25634799999989,92.94873000000007
271,85.76904300000024,71.9228520000006,100.12841800000024,89.10253900000043,99.23095699999976,115.76904300000024,108.3334960000002,108.58984400000008,112.56396500000028,86.53857400000015,86.9228520000006,99.87158199999976,107.82031300000017,85.89746099999957
272,78.58984400000008,65.89746099999957,97.69238299999961,82.82031300000017,94.23095699999976,115.76904300000024,102.82031300000017,97.94873000000007,103.9741210000002,77.30761700000039,78.0771479999994,97.69238299999961,98.3334960000002,81.15380900000036
273,77.82031300000017,62.56396500000028,99.23095699999976,83.58984400000008,97.43603499999972,115.76904300000024,102.43603499999972,94.74365200000011,101.6665039999998,77.82031300000017,75.12841800000024,98.0771479999994,92.56396500000028,82.30761700000039
274,83.46142599999985,63.7177729999994,104.48730499999965,91.9228520000006,105.76904300000024,115.76904300000024,106.9228520000006,100.38476599999922,105.12841800000024,87.56396500000028,79.35888699999941,100.89746099999957,93.58984400000008,88.84619099999964
275,91.79492200000004,68.84619099999964,111.15380900000036,104.10253900000043,113.9741210000002,115.76904300000024,112.82031300000017,110.64111300000059,111.15380900000036,100.64111300000059,87.56396500000028,104.10253900000043,100.76904300000024,97.17968800000017
276,98.0771479999994,76.41015599999992,116.2822270000006,114.35888699999941,118.46142599999985,115.76904300000024,116.53857400000015,119.10253900000043,116.15380900000036,109.87158199999976,94.35888699999941,106.15380900000036,110.38476599999922,103.58984400000008
277,99.10253900000043,83.84619099999964,117.82031300000017,118.46142599999985,118.9741210000002,115.76904300000024,116.79492200000004,121.41015599999992,118.46142599999985,111.79492200000004,96.2822270000006,106.15380900000036,117.94873000000007,105.76904300000024
278,95.64111300000059,87.82031300000017,115.0,115.64111300000059,117.56396500000028,115.76904300000024,115.25634799999989,117.17968800000017,117.43603499999972,108.3334960000002,93.7177729999994,104.61523400000078,119.87158199999976,103.9741210000002
279,90.38476599999922,86.6665039999998,109.23095699999976,108.58984400000008,115.38476599999922,115.76904300000024,113.7177729999994,109.23095699999976,113.58984400000008,104.35888699999941,89.61523400000078,102.30761700000039,116.2822270000006,99.61523400000078
280,86.15380900000036,80.89746099999957,102.94873000000007,102.30761700000039,113.20507799999996,115.76904300000024,113.3334960000002,101.53857400000015,108.84619099999964,103.58984400000008,86.53857400000015,100.12841800000024,109.48730499999965,94.61523400000078
281,83.9741210000002,73.9741210000002,98.3334960000002,100.64111300000059,112.05126999999993,115.76904300000024,113.3334960000002,97.05126999999993,105.51269500000035,106.15380900000036,85.25634799999989,99.10253900000043,103.20507799999996,89.61523400000078
282,83.9741210000002,69.61523400000078,96.9228520000006,104.35888699999941,112.43603499999972,115.76904300000024,112.43603499999972,97.17968800000017,105.25634799999989,108.84619099999964,84.48730499999965,99.35888699999941,99.23095699999976,85.12841800000024
283,85.38476599999922,70.0,97.94873000000007,110.76904300000024,114.10253900000043,115.76904300000024,109.61523400000078,101.0258789999998,108.0771479999994,108.0771479999994,83.9741210000002,100.76904300000024,97.69238299999961,82.56396500000028
284,87.43603499999972,74.35888699999941,99.74365200000011,116.9228520000006,115.0,115.76904300000024,105.64111300000059,105.76904300000024,112.17968800000017,103.84619099999964,84.61523400000078,102.05126999999993,97.69238299999961,83.0771479999994
285,88.9741210000002,79.61523400000078,100.89746099999957,121.2822270000006,113.84619099999964,115.76904300000024,102.43603499999972,108.9741210000002,115.25634799999989,99.74365200000011,86.9228520000006,102.43603499999972,98.58984400000008,86.9228520000006
286,90.25634799999989,82.82031300000017,100.76904300000024,123.84619099999964,111.2822270000006,115.76904300000024,101.9228520000006,109.23095699999976,116.6665039999998,100.38476599999922,90.64111300000059,102.05126999999993,100.12841800000024,92.43603499999972
287,92.82031300000017,83.7177729999994,100.64111300000059,125.64111300000059,109.35888699999941,115.76904300000024,104.35888699999941,107.56396500000028,116.79492200000004,106.79492200000004,94.74365200000011,101.6665039999998,102.56396500000028,97.30761700000039
288,97.94873000000007,83.84619099999964,101.6665039999998,127.43603499999972,109.23095699999976,115.76904300000024,108.20507799999996,106.15380900000036,116.2822270000006,115.89746099999957,98.58984400000008,102.17968800000017,106.6665039999998,99.87158199999976
289,104.35888699999941,84.87158199999976,104.61523400000078,129.48730499999965,110.51269500000035,115.76904300000024,111.2822270000006,106.41015599999992,115.64111300000059,121.6665039999998,101.6665039999998,103.3334960000002,112.17968800000017,99.87158199999976
290,109.10253900000043,87.43603499999972,108.46142599999985,132.3076170000004,112.69238299999961,115.76904300000024,112.69238299999961,108.7177729999994,115.0,121.41015599999992,103.58984400000008,104.23095699999976,117.56396500000028,99.61523400000078
291,111.0258789999998,91.6665039999998,112.17968800000017,136.41015599999992,115.64111300000059,115.76904300000024,112.56396500000028,112.17968800000017,115.25634799999989,116.6665039999998,104.35888699999941,104.48730499999965,121.15380900000036,101.2822270000006
292,111.53857400000015,97.30761700000039,115.51269500000035,141.53857400000015,119.35888699999941,115.76904300000024,111.9228520000006,115.89746099999957,116.79492200000004,113.3334960000002,104.87158199999976,104.10253900000043,122.43603499999972,105.89746099999957
293,112.56396500000028,103.20507799999996,117.82031300000017,146.15380900000036,122.82031300000017,115.76904300000024,111.53857400000015,118.58984400000008,120.12841800000024,115.76904300000024,105.64111300000059,103.7177729999994,121.79492200000004,111.53857400000015
294,113.7177729999994,106.6665039999998,118.7177729999994,148.20507799999996,124.87158199999976,115.76904300000024,111.79492200000004,119.35888699999941,124.35888699999941,123.7177729999994,106.41015599999992,103.0771479999994,119.87158199999976,114.48730499999965
295,114.10253900000043,105.12841800000024,117.94873000000007,146.79492200000004,124.87158199999976,115.76904300000024,112.69238299999961,117.94873000000007,127.69238299999961,131.79492200000004,106.15380900000036,102.30761700000039,117.82031300000017,112.82031300000017
296,113.0771479999994,98.7177729999994,115.64111300000059,143.46142599999985,122.82031300000017,115.76904300000024,113.46142599999985,115.38476599999922,128.3334960000002,133.9741210000002,105.0,101.9228520000006,116.53857400000015,107.69238299999961
297,111.2822270000006,90.64111300000059,113.58984400000008,140.76904300000024,118.84619099999964,115.76904300000024,113.84619099999964,113.58984400000008,125.51269500000035,128.20507799999996,103.0771479999994,102.43603499999972,116.53857400000015,102.43603499999972
298,109.74365200000011,85.89746099999957,112.82031300000017,140.89746099999957,113.84619099999964,115.76904300000024,113.84619099999964,113.20507799999996,120.12841800000024,118.3334960000002,101.41015599999992,103.9741210000002,117.43603499999972,100.25634799999989
299,108.84619099999964,87.43603499999972,113.84619099999964,143.0771479999994,110.38476599999922,115.76904300000024,113.7177729999994,114.23095699999976,114.74365200000011,110.12841800000024,100.51269500000035,105.76904300000024,117.56396500000028,101.9228520000006
300,107.56396500000028,93.9741210000002,115.89746099999957,144.48730499999965,111.53857400000015,115.76904300000024,113.84619099999964,115.25634799999989,112.05126999999993,107.43603499999972,100.38476599999922,106.53857400000015,115.38476599999922,105.12841800000024
301,105.25634799999989,100.12841800000024,117.69238299999961,142.94873000000007,117.56396500000028,115.76904300000024,114.48730499999965,115.89746099999957,112.94873000000007,110.25634799999989,100.12841800000024,105.89746099999957,110.38476599999922,106.9228520000006
302,102.82031300000017,101.15380900000036,118.20507799999996,138.7177729999994,125.89746099999957,115.76904300000024,115.25634799999989,115.76904300000024,115.89746099999957,115.38476599999922,98.84619099999964,104.10253900000043,104.10253900000043,105.76904300000024
303,101.79492200000004,96.6665039999998,117.43603499999972,134.48730499999965,131.53857400000015,115.76904300000024,115.25634799999989,115.0,118.7177729999994,118.9741210000002,96.41015599999992,101.9228520000006,99.48730499999965,102.17968800000017
304,102.56396500000028,91.0258789999998,115.51269500000035,133.20507799999996,131.9228520000006,115.76904300000024,114.74365200000011,113.58984400000008,119.74365200000011,119.23095699999976,93.46142599999985,100.64111300000059,98.58984400000008,98.0771479999994
305,104.35888699999941,88.3334960000002,113.3334960000002,135.2563479999999,127.43603499999972,115.76904300000024,113.7177729999994,112.05126999999993,118.9741210000002,117.56396500000028,91.2822270000006,100.64111300000059,101.0258789999998,95.51269500000035
306,105.25634799999989,90.38476599999922,112.30761700000039,139.23095699999976,121.6665039999998,115.76904300000024,112.43603499999972,111.41015599999992,117.05126999999993,116.79492200000004,91.15380900000036,101.41015599999992,103.84619099999964,95.0
307,104.74365200000011,95.0,113.20507799999996,143.58984400000008,118.9741210000002,115.76904300000024,111.79492200000004,111.9228520000006,115.0,118.20507799999996,93.58984400000008,102.30761700000039,104.10253900000043,96.15380900000036
308,103.7177729999994,98.58984400000008,115.51269500000035,147.17968800000017,121.41015599999992,115.76904300000024,112.69238299999961,113.0771479999994,113.7177729999994,119.87158199999976,97.56396500000028,102.94873000000007,101.2822270000006,97.94873000000007
309,104.10253900000043,98.58984400000008,117.82031300000017,149.3588869999994,127.43603499999972,115.76904300000024,115.0,114.48730499999965,114.10253900000043,119.23095699999976,100.89746099999957,103.7177729999994,97.82031300000017,99.10253900000043
310,107.05126999999993,95.64111300000059,118.7177729999994,149.3588869999994,132.94873000000007,115.76904300000024,117.43603499999972,116.0258789999998,116.0258789999998,116.15380900000036,102.17968800000017,104.74365200000011,96.79492200000004,99.10253900000043
311,111.41015599999992,92.94873000000007,117.82031300000017,147.43603499999972,134.23095699999976,115.76904300000024,118.0771479999994,117.56396500000028,119.23095699999976,113.0771479999994,101.6665039999998,105.38476599999922,99.23095699999976,98.20507799999996
312,113.9741210000002,93.3334960000002,116.41015599999992,145.12841800000024,130.89746099999957,115.89746099999957,115.64111300000059,118.3334960000002,121.53857400000015,113.3334960000002,101.15380900000036,105.38476599999922,103.58984400000008,97.17968800000017
313,112.30761700000039,96.2822270000006,115.38476599999922,144.23095699999976,125.64111300000059,115.89746099999957,111.0258789999998,117.43603499999972,121.53857400000015,116.79492200000004,101.2822270000006,105.0,106.79492200000004,97.05126999999993
314,107.17968800000017,98.7177729999994,115.25634799999989,145.0,121.0258789999998,116.15380900000036,106.79492200000004,115.0,118.9741210000002,120.64111300000059,101.9228520000006,105.0,106.79492200000004,98.7177729999994
315,102.56396500000028,98.20507799999996,116.0258789999998,146.41015599999992,118.0771479999994,116.2822270000006,105.25634799999989,112.69238299999961,115.25634799999989,122.17968800000017,101.79492200000004,105.64111300000059,104.10253900000043,101.6665039999998
316,102.17968800000017,95.0,116.9228520000006,146.2822270000006,116.6665039999998,115.76904300000024,107.05126999999993,111.79492200000004,113.20507799999996,121.15380900000036,100.38476599999922,107.05126999999993,100.89746099999957,104.35888699999941
317,106.41015599999992,91.9228520000006,117.82031300000017,142.94873000000007,116.41015599999992,115.12841800000024,111.0258789999998,112.82031300000017,114.74365200000011,119.87158199999976,98.58984400000008,108.0771479999994,99.23095699999976,104.48730499999965
318,112.17968800000017,91.79492200000004,118.58984400000008,137.17968800000017,118.0771479999994,115.12841800000024,115.0,115.38476599999922,120.12841800000024,120.64111300000059,98.20507799999996,107.82031300000017,100.12841800000024,101.79492200000004
319,116.53857400000015,95.38476599999922,119.35888699999941,131.79492200000004,122.05126999999993,116.15380900000036,117.30761700000039,118.58984400000008,127.17968800000017,123.9741210000002,100.0,106.15380900000036,103.0771479999994,98.58984400000008
320,118.46142599999985,100.76904300000024,119.48730499999965,130.0,126.9228520000006,117.17968800000017,117.43603499999972,120.76904300000024,132.82031300000017,128.46142599999985,102.82031300000017,104.23095699999976,105.89746099999957,97.43603499999972
321,117.94873000000007,104.35888699999941,118.58984400000008,132.94873000000007,129.3588869999994,116.9228520000006,115.64111300000059,120.38476599999922,134.3588869999994,131.0258789999998,103.58984400000008,102.94873000000007,105.89746099999957,99.10253900000043
322,115.64111300000059,103.20507799999996,116.0258789999998,138.7177729999994,126.9228520000006,115.0,112.69238299999961,117.05126999999993,130.76904300000024,128.9741210000002,99.87158199999976,102.82031300000017,101.79492200000004,101.0258789999998
323,111.53857400000015,97.05126999999993,112.56396500000028,143.84619099999964,120.51269500000035,112.30761700000039,109.48730499999965,112.17968800000017,123.7177729999994,121.41015599999992,92.43603499999972,103.3334960000002,94.61523400000078,100.38476599999922
324,105.76904300000024,88.46142599999985,110.12841800000024,146.41015599999992,113.84619099999964,110.51269500000035,106.79492200000004,107.69238299999961,116.6665039999998,111.53857400000015,85.64111300000059,103.84619099999964,87.69238299999961,97.17968800000017
325,100.64111300000059,81.6665039999998,109.87158199999976,146.9228520000006,110.51269500000035,110.89746099999957,104.87158199999976,105.12841800000024,113.0771479999994,104.23095699999976,83.84619099999964,103.9741210000002,85.0,93.7177729999994
326,98.9741210000002,80.51269500000035,111.79492200000004,146.53857400000015,112.43603499999972,113.3334960000002,103.84619099999964,104.23095699999976,113.3334960000002,103.46142599999985,88.3334960000002,103.9741210000002,88.0771479999994,92.56396500000028
327,101.9228520000006,85.38476599999922,114.10253900000043,146.41015599999992,118.46142599999985,116.15380900000036,103.7177729999994,104.23095699999976,115.25634799999989,109.23095699999976,95.76904300000024,103.9741210000002,95.0,94.10253900000043
328,107.94873000000007,93.0771479999994,115.51269500000035,146.9228520000006,125.76904300000024,117.56396500000028,104.35888699999941,104.87158199999976,116.9228520000006,119.35888699999941,101.6665039999998,103.9741210000002,102.17968800000017,96.79492200000004
329,113.58984400000008,98.46142599999985,116.41015599999992,148.46142599999985,131.79492200000004,117.05126999999993,105.76904300000024,106.79492200000004,117.94873000000007,129.87158199999976,103.7177729999994,104.87158199999976,106.0258789999998,99.61523400000078
330,116.6665039999998,99.87158199999976,117.56396500000028,151.79492200000004,135.2563479999999,115.89746099999957,108.3334960000002,110.12841800000024,118.9741210000002,137.05126999999993,103.7177729999994,107.17968800000017,106.2822270000006,102.17968800000017
331,116.9228520000006,98.84619099999964,119.61523400000078,155.6411130000006,135.76904300000024,116.0258789999998,112.05126999999993,113.58984400000008,120.89746099999957,138.20507799999996,104.74365200000011,111.0258789999998,104.74365200000011,104.87158199999976
332,115.76904300000024,98.3334960000002,122.05126999999993,158.3334960000002,133.84619099999964,117.30761700000039,115.64111300000059,115.51269500000035,122.56396500000028,133.46142599999985,107.69238299999961,114.87158199999976,104.35888699999941,108.3334960000002
333,114.35888699999941,98.84619099999964,123.0771479999994,157.94873000000007,130.0,117.43603499999972,116.79492200000004,114.87158199999976,122.30761700000039,125.38476599999922,110.38476599999922,116.41015599999992,106.41015599999992,112.30761700000039
334,113.3334960000002,99.35888699999941,121.6665039999998,155.2563479999999,125.64111300000059,115.25634799999989,113.58984400000008,111.6665039999998,119.74365200000011,118.3334960000002,110.25634799999989,114.23095699999976,110.25634799999989,115.64111300000059
335,112.43603499999972,98.9741210000002,118.58984400000008,152.3076170000004,123.20507799999996,111.53857400000015,106.79492200000004,107.43603499999972,116.41015599999992,115.76904300000024,106.53857400000015,109.10253900000043,114.23095699999976,116.53857400000015
336,111.9228520000006,98.20507799999996,116.0258789999998,151.2822270000006,124.61523400000078,108.7177729999994,100.51269500000035,104.10253900000043,115.12841800000024,118.9741210000002,102.69238299999961,103.84619099999964,116.79492200000004,114.61523400000078
337,112.17968800000017,98.0771479999994,116.15380900000036,152.82031300000017,128.0771479999994,108.58984400000008,98.0771479999994,102.94873000000007,116.79492200000004,125.76904300000024,102.43603499999972,101.0258789999998,117.69238299999961,111.2822270000006
338,113.58984400000008,98.46142599999985,118.20507799999996,155.12841800000024,129.48730499999965,110.38476599999922,99.61523400000078,103.58984400000008,119.48730499999965,131.79492200000004,106.2822270000006,101.6665039999998,116.9228520000006,107.94873000000007
339,115.0,98.3334960000002,119.61523400000078,156.53857400000015,125.89746099999957,112.17968800000017,102.43603499999972,104.48730499999965,120.12841800000024,133.58984400000008,111.15380900000036,104.74365200000011,114.61523400000078,105.76904300000024
340,116.0258789999998,97.94873000000007,118.84619099999964,156.9228520000006,120.12841800000024,112.56396500000028,103.84619099999964,105.12841800000024,117.82031300000017,130.6411130000006,113.58984400000008,108.7177729999994,111.79492200000004,105.38476599999922
341,116.79492200000004,99.48730499999965,117.30761700000039,158.0771479999994,117.82031300000017,111.9228520000006,103.84619099999964,106.79492200000004,116.15380900000036,126.0258789999998,113.9741210000002,112.30761700000039,110.89746099999957,107.43603499999972
342,117.94873000000007,103.84619099999964,117.69238299999961,161.41015599999992,121.9228520000006,111.53857400000015,105.0,110.89746099999957,119.10253900000043,124.10253900000043,115.12841800000024,114.61523400000078,113.58984400000008,112.69238299999961
343,119.61523400000078,108.3334960000002,120.89746099999957,165.51269500000035,128.58984400000008,112.43603499999972,107.82031300000017,115.89746099999957,126.41015599999992,127.17968800000017,117.82031300000017,115.0,118.3334960000002,119.10253900000043
344,120.25634799999989,108.46142599999985,124.35888699999941,167.3076170000004,130.76904300000024,114.23095699999976,110.25634799999989,117.56396500000028,133.3334960000002,132.17968800000017,119.74365200000011,112.94873000000007,121.41015599999992,122.05126999999993
345,118.58984400000008,102.30761700000039,125.0,164.61523400000078,125.76904300000024,116.0258789999998,110.0,113.3334960000002,134.3588869999994,133.46142599999985,117.94873000000007,108.20507799999996,120.25634799999989,118.3334960000002
346,115.51269500000035,93.84619099999964,121.79492200000004,159.87158199999976,117.69238299999961,116.9228520000006,106.9228520000006,105.89746099999957,128.20507799999996,128.20507799999996,112.17968800000017,103.0771479999994,116.2822270000006,109.35888699999941
347,113.7177729999994,89.35888699999941,117.30761700000039,157.82031300000017,113.7177729999994,116.9228520000006,103.9741210000002,100.38476599999922,119.35888699999941,118.9741210000002,106.41015599999992,100.51269500000035,113.58984400000008,100.89746099999957
348,115.51269500000035,92.43603499999972,115.51269500000035,162.3076170000004,117.56396500000028,116.53857400000015,103.84619099999964,101.15380900000036,114.10253900000043,112.56396500000028,105.25634799999989,102.30761700000039,116.15380900000036,99.35888699999941
349,120.51269500000035,100.76904300000024,118.58984400000008,171.9228520000006,125.76904300000024,116.79492200000004,107.05126999999993,107.69238299999961,115.89746099999957,113.84619099999964,109.87158199999976,107.69238299999961,123.3334960000002,105.51269500000035
350,125.89746099999957,108.84619099999964,124.87158199999976,180.76904300000024,130.89746099999957,117.56396500000028,110.76904300000024,115.76904300000024,123.0771479999994,122.05126999999993,116.6665039999998,113.58984400000008,131.41015599999992,115.12841800000024
351,128.84619099999964,112.30761700000039,130.12841800000024,183.3334960000002,128.0771479999994,117.94873000000007,111.6665039999998,120.64111300000059,130.6411130000006,131.9228520000006,121.2822270000006,116.2822270000006,136.2822270000006,121.79492200000004
352,129.61523400000078,110.12841800000024,131.2822270000006,179.23095699999976,119.61523400000078,117.56396500000028,108.7177729999994,120.38476599999922,134.10253900000043,138.3334960000002,121.53857400000015,114.74365200000011,136.9228520000006,122.94873000000007
353,130.0,105.76904300000024,127.69238299999961,173.20507799999996,113.0771479999994,116.53857400000015,103.9741210000002,116.15380900000036,132.43603499999972,138.3334960000002,119.48730499999965,110.38476599999922,135.38476599999922,120.25634799999989
354,131.9228520000006,103.0771479999994,122.17968800000017,170.6411130000006,114.48730499999965,116.2822270000006,100.76904300000024,110.51269500000035,127.56396500000028,132.56396500000028,117.43603499999972,106.0258789999998,134.10253900000043,117.05126999999993
355,134.61523400000078,104.10253900000043,118.20507799999996,173.46142599999985,123.0771479999994,117.17968800000017,101.15380900000036,105.76904300000024,122.43603499999972,124.48730499999965,116.41015599999992,103.58984400000008,132.94873000000007,114.87158199999976
356,135.12841800000024,106.53857400000015,117.30761700000039,178.7177729999994,130.76904300000024,118.0771479999994,103.9741210000002,102.82031300000017,118.7177729999994,117.94873000000007,114.87158199999976,103.20507799999996,130.76904300000024,113.0771479999994
357,131.41015599999992,106.79492200000004,118.46142599999985,181.53857400000015,129.3588869999994,117.94873000000007,106.0258789999998,101.15380900000036,116.41015599999992,114.74365200000011,111.15380900000036,103.7177729999994,126.2822270000006,109.61523400000078
358,124.48730499999965,102.94873000000007,119.23095699999976,178.58984400000008,117.56396500000028,116.79492200000004,105.38476599999922,99.87158199999976,115.12841800000024,113.9741210000002,106.41015599999992,104.10253900000043,121.0258789999998,103.84619099999964
359,118.46142599999985,97.43603499999972,118.20507799999996,171.0258789999998,102.05126999999993,115.64111300000059,102.94873000000007,98.84619099999964,114.74365200000011,113.7177729999994,103.46142599999985,103.84619099999964,118.20507799999996,97.56396500000028
360,116.9228520000006,94.35888699999941,116.2822270000006,163.3334960000002,92.82031300000017,115.25634799999989,101.2822270000006,98.46142599999985,115.25634799999989,112.94873000000007,104.87158199999976,103.0771479999994,120.38476599999922,94.61523400000078
361,119.87158199999976,96.0258789999998,114.87158199999976,160.12841800000024,94.61523400000078,115.76904300000024,101.79492200000004,99.23095699999976,116.6665039999998,112.69238299999961,108.9741210000002,102.30761700000039,127.05126999999993,96.79492200000004
362,124.10253900000043,100.51269500000035,114.23095699999976,162.17968800000017,104.74365200000011,116.41015599999992,103.3334960000002,100.64111300000059,117.94873000000007,114.35888699999941,111.41015599999992,101.41015599999992,133.58984400000008,101.15380900000036
363,125.89746099999957,103.7177729999994,113.9741210000002,166.6665039999998,115.89746099999957,116.6665039999998,104.23095699999976,101.79492200000004,118.0771479999994,118.3334960000002,108.46142599999985,100.51269500000035,135.6411130000006,102.82031300000017
364,124.48730499999965,103.7177729999994,113.9741210000002,170.51269500000035,121.9228520000006,116.41015599999992,103.9741210000002,102.30761700000039,117.30761700000039,123.7177729999994,102.17968800000017,100.64111300000059,132.43603499999972,99.74365200000011
365,122.43603499999972,102.17968800000017,114.61523400000078,172.43603499999972,121.41015599999992,115.64111300000059,103.7177729999994,102.69238299999961,116.9228520000006,128.58984400000008,97.94873000000007,102.17968800000017,127.56396500000028,95.38476599999922
366,123.0771479999994,101.15380900000036,116.2822270000006,173.46142599999985,115.89746099999957,114.61523400000078,104.23095699999976,102.82031300000017,117.43603499999972,130.12841800000024,99.61523400000078,104.35888699999941,125.0,95.0
367,126.79492200000004,100.89746099999957,118.20507799999996,174.7436520000001,108.20507799999996,113.9741210000002,104.61523400000078,102.43603499999972,117.82031300000017,126.15380900000036,106.15380900000036,105.89746099999957,126.2822270000006,100.38476599999922
368,131.15380900000036,100.64111300000059,119.74365200000011,176.6665039999998,101.0258789999998,114.35888699999941,104.10253900000043,102.05126999999993,116.9228520000006,117.30761700000039,113.20507799999996,105.89746099999957,129.87158199999976,108.46142599999985
369,133.46142599999985,100.38476599999922,120.25634799999989,178.7177729999994,96.53857400000015,115.64111300000059,103.0771479999994,103.0771479999994,115.25634799999989,108.7177729999994,117.17968800000017,105.25634799999989,133.20507799999996,114.10253900000043
370,133.7177729999994,100.51269500000035,120.0,180.51269500000035,96.2822270000006,117.17968800000017,103.20507799999996,106.6665039999998,115.12841800000024,106.15380900000036,117.05126999999993,105.89746099999957,134.61523400000078,114.35888699999941
371,133.7177729999994,101.0258789999998,119.48730499999965,181.53857400000015,98.9741210000002,118.0771479999994,105.12841800000024,111.6665039999998,117.56396500000028,111.79492200000004,114.48730499999965,108.20507799999996,133.20507799999996,110.38476599999922
372,133.84619099999964,100.51269500000035,119.23095699999976,181.6665039999998,101.6665039999998,117.82031300000017,107.30761700000039,115.0,121.2822270000006,121.79492200000004,111.6665039999998,111.0258789999998,129.3588869999994,105.0
373,132.56396500000028,98.7177729999994,118.7177729999994,181.0258789999998,102.05126999999993,116.79492200000004,107.82031300000017,113.7177729999994,123.46142599999985,129.10253900000043,108.84619099999964,111.9228520000006,123.9741210000002,100.89746099999957
374,128.46142599999985,96.41015599999992,117.43603499999972,180.12841800000024,99.87158199999976,115.64111300000059,105.25634799999989,108.20507799999996,122.69238299999961,129.3588869999994,105.51269500000035,109.74365200000011,118.46142599999985,98.7177729999994
375,122.30761700000039,95.51269500000035,115.25634799999989,179.61523400000078,97.30761700000039,115.25634799999989,101.0258789999998,102.17968800000017,119.48730499999965,122.56396500000028,102.30761700000039,105.38476599999922,115.12841800000024,97.69238299999961
376,117.17968800000017,96.53857400000015,112.94873000000007,179.48730499999965,96.41015599999992,115.76904300000024,97.56396500000028,100.38476599999922,116.6665039999998,114.23095699999976,100.89746099999957,101.41015599999992,116.53857400000015,97.56396500000028
377,116.9228520000006,99.23095699999976,112.43603499999972,180.0,97.56396500000028,116.6665039999998,97.30761700000039,104.61523400000078,116.79492200000004,110.0,103.0771479999994,100.0,122.82031300000017,98.0771479999994
378,122.82031300000017,102.56396500000028,115.0,180.76904300000024,99.87158199999976,117.56396500000028,100.25634799999989,112.69238299999961,120.89746099999957,112.56396500000028,108.84619099999964,101.41015599999992,132.17968800000017,100.51269500000035
379,131.9228520000006,105.12841800000024,119.48730499999965,181.53857400000015,101.41015599999992,117.69238299999961,104.35888699999941,119.23095699999976,127.05126999999993,119.23095699999976,115.38476599999922,103.9741210000002,140.0,104.48730499999965
380,138.46142599999985,105.76904300000024,122.56396500000028,181.2822270000006,100.0,117.17968800000017,106.2822270000006,119.61523400000078,131.0258789999998,124.61523400000078,118.3334960000002,105.64111300000059,141.6665039999998,107.43603499999972
381,138.3334960000002,103.84619099999964,120.76904300000024,179.87158199999976,95.89746099999957,116.41015599999992,104.35888699999941,113.0771479999994,128.3334960000002,123.7177729999994,115.12841800000024,105.38476599999922,135.6411130000006,106.53857400000015
382,132.17968800000017,100.25634799999989,114.10253900000043,177.82031300000017,92.17968800000017,115.51269500000035,100.12841800000024,103.46142599999985,118.84619099999964,116.41015599999992,107.56396500000028,103.20507799999996,125.12841800000024,101.6665039999998
383,125.0,97.56396500000028,106.15380900000036,176.53857400000015,92.05126999999993,115.0,96.6665039999998,96.0258789999998,107.43603499999972,107.69238299999961,100.38476599999922,100.12841800000024,116.2822270000006,96.53857400000015
