,EEG.AF3,EEG.F7,EEG.F3,EEG.FC5,EEG.T7,EEG.P7,EEG.O1,EEG.O2,EEG.P8,EEG.T8,EEG.FC6,EEG.F4,EEG.F8,EEG.AF4
0,56.025878999999804,-25.512939000000188,58.7177729999994,49.48730499999965,99.35888699999941,117.56396500000028,117.82031300000017,116.41015599999992,127.05126999999993,124.35888699999941,98.46142599999985,88.9741210000002,152.94873000000007,114.35888699999941
1,70.89746099999957,-8.461425999999847,70.0,65.0,118.7177729999994,117.82031300000017,130.2563479999999,128.46142599999985,139.3588869999994,144.61523400000078,113.46142599999985,99.74365200000011,166.15380900000036,112.43603499999972
2,79.48730499999965,1.5385740000001533,76.79492200000004,76.6665039999998,127.17968800000017,115.89746099999957,136.53857400000015,135.2563479999999,144.61523400000078,152.05126999999993,123.58984400000008,106.0258789999998,171.53857400000015,110.76904300000024
3,78.0771479999994,0.6411130000005869,75.64111300000059,79.10253900000043,120.89746099999957,113.0771479999994,133.3334960000002,132.94873000000007,139.48730499999965,144.10253900000043,123.58984400000008,104.48730499999965,165.89746099999957,110.25634799999989
4,71.0258789999998,-6.923095999999987,69.74365200000011,74.23095699999976,107.69238299999961,111.2822270000006,123.9741210000002,124.61523400000078,128.46142599999985,130.0,116.79492200000004,98.46142599999985,154.87158199999976,111.0258789999998
5,66.41015599999992,-13.333252000000357,65.12841800000024,67.94873000000007,98.58984400000008,111.53857400000015,115.25634799999989,116.41015599999992,119.48730499999965,120.89746099999957,110.51269500000035,93.84619099999964,147.17968800000017,112.43603499999972
6,68.7177729999994,-14.358886999999868,65.25634799999989,65.51269500000035,98.9741210000002,113.3334960000002,112.17968800000017,113.0771479999994,118.0771479999994,121.15380900000036,109.48730499999965,93.58984400000008,147.82031300000017,113.58984400000008
7,76.15380900000036,-10.641113000000132,68.46142599999985,68.20507799999996,106.6665039999998,115.12841800000024,114.23095699999976,114.48730499999965,123.0771479999994,126.15380900000036,112.82031300000017,96.2822270000006,153.9741210000002,113.9741210000002
8,84.10253900000043,-5.128174000000399,71.53857400000015,74.87158199999976,115.76904300000024,115.64111300000059,117.94873000000007,117.94873000000007,130.12841800000024,130.0,117.17968800000017,98.84619099999964,159.3588869999994,113.46142599999985
9,89.10253900000043,-0.256347999999889,72.69238299999961,82.82031300000017,122.05126999999993,115.0,120.25634799999989,120.89746099999957,135.2563479999999,130.89746099999957,119.87158199999976,99.48730499999965,160.0,112.82031300000017
10,90.25634799999989,1.9228520000006029,71.79492200000004,88.7177729999994,123.84619099999964,113.58984400000008,120.38476599999922,121.79492200000004,136.53857400000015,130.51269500000035,120.38476599999922,98.58984400000008,156.0258789999998,112.05126999999993
11,87.94873000000007,0.0,69.35888699999941,89.48730499999965,121.15380900000036,112.30761700000039,118.20507799999996,120.38476599999922,134.10253900000043,129.10253900000043,119.10253900000043,96.9228520000006,149.7436520000001,111.41015599999992
12,83.46142599999985,-4.61547900000005,66.79492200000004,84.48730499999965,114.10253900000043,112.17968800000017,115.0,117.30761700000039,129.48730499999965,125.51269500000035,116.15380900000036,94.87158199999976,143.58984400000008,110.89746099999957
13,80.0,-8.205077999999958,65.89746099999957,76.6665039999998,105.12841800000024,113.0771479999994,112.82031300000017,114.61523400000078,125.51269500000035,119.48730499999965,113.84619099999964,93.3334960000002,140.2563479999999,111.2822270000006
14,80.64111300000059,-6.281981999999971,68.20507799999996,70.89746099999957,97.82031300000017,114.74365200000011,113.7177729999994,114.87158199999976,125.12841800000024,114.74365200000011,115.0,94.35888699999941,141.79492200000004,112.43603499999972
15,86.0258789999998,1.9228520000006029,73.58984400000008,70.76904300000024,95.64111300000059,116.41015599999992,117.05126999999993,118.3334960000002,129.10253900000043,116.15380900000036,120.38476599999922,98.3334960000002,147.6923829999996,113.7177729999994
16,93.7177729999994,12.692382999999609,80.0,76.15380900000036,99.48730499999965,117.43603499999972,120.76904300000024,122.94873000000007,134.87158199999976,125.0,127.69238299999961,103.58984400000008,155.38476599999922,114.35888699999941
17,100.25634799999989,20.51269500000035,84.87158199999976,84.61523400000078,107.43603499999972,117.69238299999961,122.69238299999961,125.64111300000059,138.20507799999996,136.79492200000004,132.94873000000007,107.56396500000028,161.41015599999992,113.84619099999964
18,102.56396500000028,22.05126999999993,86.6665039999998,91.41015599999992,115.51269500000035,117.43603499999972,122.17968800000017,125.51269500000035,137.3076170000004,145.12841800000024,133.58984400000008,109.10253900000043,163.84619099999964,112.94873000000007
19,99.87158199999976,17.94873000000007,86.15380900000036,93.20507799999996,119.35888699999941,117.05126999999993,120.0,123.0771479999994,133.7177729999994,145.6411130000006,130.2563479999999,108.9741210000002,162.3076170000004,112.30761700000039
20,93.58984400000008,11.666503999999804,85.0,90.0,116.41015599999992,116.53857400000015,117.17968800000017,120.12841800000024,129.87158199999976,139.10253900000043,125.64111300000059,108.3334960000002,157.94873000000007,111.9228520000006
21,86.6665039999998,7.179688000000169,84.23095699999976,84.87158199999976,107.17968800000017,116.15380900000036,115.12841800000024,117.94873000000007,127.56396500000028,130.2563479999999,123.46142599999985,107.82031300000017,152.3076170000004,111.9228520000006
22,82.56396500000028,6.538574000000153,84.35888699999941,81.9228520000006,95.64111300000059,115.89746099999957,114.10253900000043,116.6665039999998,126.79492200000004,124.48730499999965,124.87158199999976,107.56396500000028,147.6923829999996,112.17968800000017
23,83.3334960000002,8.589844000000085,85.12841800000024,83.20507799999996,87.56396500000028,115.51269500000035,113.7177729999994,116.6665039999998,127.43603499999972,124.35888699999941,128.7177729999994,107.56396500000028,145.38476599999922,112.56396500000028
24,88.3334960000002,12.17968800000017,86.2822270000006,88.3334960000002,87.17968800000017,115.0,113.58984400000008,117.82031300000017,129.7436520000001,129.23095699999976,132.43603499999972,107.56396500000028,146.15380900000036,112.56396500000028
25,95.12841800000024,16.794922000000042,87.82031300000017,95.0,95.12841800000024,115.0,113.58984400000008,120.76904300000024,133.9741210000002,136.2822270000006,134.61523400000078,108.20507799999996,149.87158199999976,111.9228520000006
26,100.89746099999957,22.82031300000017,89.61523400000078,100.51269500000035,107.82031300000017,116.15380900000036,114.48730499999965,125.64111300000059,139.7436520000001,143.0771479999994,135.89746099999957,110.12841800000024,156.6665039999998,111.53857400000015
27,104.23095699999976,30.25634799999989,91.6665039999998,102.69238299999961,119.10253900000043,118.20507799999996,116.53857400000015,131.2822270000006,145.6411130000006,148.58984400000008,137.05126999999993,113.20507799999996,164.61523400000078,111.6665039999998
28,103.9741210000002,36.025878999999804,92.82031300000017,100.64111300000059,122.82031300000017,119.61523400000078,118.9741210000002,134.7436520000001,149.23095699999976,151.53857400000015,137.6923829999996,115.25634799999989,170.2563479999999,111.9228520000006
29,99.10253900000043,35.76904300000024,91.41015599999992,94.74365200000011,116.15380900000036,119.35888699999941,119.87158199999976,132.6923829999996,148.0771479999994,149.48730499999965,135.51269500000035,113.7177729999994,169.7436520000001,111.41015599999992
30,90.38476599999922,28.333496000000196,86.9228520000006,87.30761700000039,103.20507799999996,117.30761700000039,117.69238299999961,124.74365200000011,141.79492200000004,142.17968800000017,128.9741210000002,107.43603499999972,162.17968800000017,110.51269500000035
31,81.9228520000006,18.333496000000196,81.79492200000004,82.56396500000028,93.0771479999994,115.0,113.46142599999985,115.38476599999922,133.3334960000002,133.46142599999985,121.2822270000006,100.0,151.6665039999998,110.12841800000024
32,79.23095699999976,13.333496000000196,79.61523400000078,83.7177729999994,93.3334960000002,113.84619099999964,110.51269500000035,110.76904300000024,127.82031300000017,130.2563479999999,118.0771479999994,96.6665039999998,145.12841800000024,110.76904300000024
33,85.0,17.30761700000039,81.9228520000006,90.89746099999957,103.46142599999985,114.48730499999965,112.05126999999993,113.84619099999964,128.20507799999996,135.6411130000006,122.43603499999972,100.51269500000035,147.17968800000017,111.9228520000006
34,95.76904300000024,26.666503999999804,86.0258789999998,99.61523400000078,114.48730499999965,116.53857400000015,117.17968800000017,121.53857400000015,132.56396500000028,144.7436520000001,130.89746099999957,108.46142599999985,155.89746099999957,112.69238299999961
35,103.9741210000002,33.46142599999985,88.20507799999996,104.87158199999976,117.17968800000017,118.46142599999985,122.56396500000028,127.30761700000039,136.53857400000015,148.9741210000002,136.2822270000006,114.74365200000011,164.48730499999965,112.82031300000017
36,104.61523400000078,32.94873000000007,86.79492200000004,105.12841800000024,109.10253900000043,119.10253900000043,125.25634799999989,126.9228520000006,136.9228520000006,144.48730499999965,134.48730499999965,114.74365200000011,167.3076170000004,112.17968800000017
37,98.46142599999985,26.794922000000042,83.0771479999994,102.17968800000017,96.15380900000036,117.69238299999961,124.48730499999965,121.79492200000004,134.7436520000001,136.15380900000036,128.0771479999994,110.0,163.84619099999964,111.15380900000036
38,90.51269500000035,20.384765999999217,80.0,99.87158199999976,87.94873000000007,115.51269500000035,121.79492200000004,116.6665039999998,132.3076170000004,131.53857400000015,122.94873000000007,104.87158199999976,157.6923829999996,110.51269500000035
39,84.74365200000011,17.43603499999972,79.35888699999941,99.87158199999976,89.10253900000043,113.9741210000002,118.9741210000002,114.74365200000011,130.89746099999957,133.7177729999994,122.94873000000007,102.69238299999961,151.79492200000004,110.64111300000059
40,82.56396500000028,18.077147999999397,80.64111300000059,101.53857400000015,96.9228520000006,113.9741210000002,116.79492200000004,115.51269500000035,129.87158199999976,138.9741210000002,127.05126999999993,103.3334960000002,147.3076170000004,111.6665039999998
41,83.20507799999996,20.769043000000238,82.05126999999993,103.46142599999985,104.10253900000043,115.38476599999922,115.51269500000035,116.53857400000015,128.84619099999964,141.2822270000006,131.53857400000015,104.23095699999976,144.48730499999965,112.56396500000028
42,84.87158199999976,23.461425999999847,82.43603499999972,104.48730499999965,105.0,116.53857400000015,115.12841800000024,116.6665039999998,128.3334960000002,138.7177729999994,133.0771479999994,104.23095699999976,143.7177729999994,112.82031300000017
43,86.0258789999998,25.128418000000238,81.79492200000004,105.0,100.38476599999922,116.41015599999992,116.2822270000006,116.9228520000006,128.58984400000008,134.10253900000043,131.0258789999998,103.7177729999994,145.38476599999922,112.43603499999972
44,86.6665039999998,26.410155999999915,81.6665039999998,106.15380900000036,96.0258789999998,115.38476599999922,118.84619099999964,119.23095699999976,129.61523400000078,132.56396500000028,127.82031300000017,104.48730499999965,149.10253900000043,112.05126999999993
45,88.7177729999994,29.230956999999762,83.58984400000008,109.10253900000043,97.69238299999961,114.23095699999976,122.30761700000039,124.10253900000043,131.41015599999992,137.56396500000028,127.17968800000017,107.43603499999972,154.48730499999965,112.05126999999993
46,93.9741210000002,34.74365200000011,88.0771479999994,113.20507799999996,105.89746099999957,113.84619099999964,125.76904300000024,129.7436520000001,134.61523400000078,146.79492200000004,131.41015599999992,111.79492200000004,161.2822270000006,112.17968800000017
47,102.05126999999993,42.05126999999993,93.7177729999994,116.9228520000006,114.87158199999976,114.48730499999965,128.0771479999994,133.84619099999964,138.9741210000002,154.7436520000001,138.7177729999994,115.76904300000024,167.56396500000028,112.17968800000017
48,109.48730499999965,48.7177729999994,98.20507799999996,118.3334960000002,118.46142599999985,115.51269500000035,129.23095699999976,134.7436520000001,143.20507799999996,156.6665039999998,145.6411130000006,117.94873000000007,171.53857400000015,111.9228520000006
49,112.56396500000028,51.79492200000004,99.74365200000011,117.82031300000017,115.25634799999989,116.41015599999992,129.3588869999994,133.46142599999985,145.6411130000006,152.94873000000007,149.48730499999965,118.0771479999994,172.56396500000028,111.41015599999992
50,110.76904300000024,51.79492200000004,98.58984400000008,117.30761700000039,109.74365200000011,116.2822270000006,128.84619099999964,132.05126999999993,145.51269500000035,147.6923829999996,150.38476599999922,116.9228520000006,172.3076170000004,110.76904300000024
51,107.69238299999961,50.51269500000035,96.53857400000015,118.46142599999985,107.56396500000028,115.12841800000024,128.46142599999985,131.79492200000004,143.46142599999985,144.87158199999976,150.0,115.89746099999957,172.17968800000017,110.38476599999922
52,106.15380900000036,49.23095699999976,95.0,120.0,109.74365200000011,113.58984400000008,128.3334960000002,131.53857400000015,140.76904300000024,145.2563479999999,149.3588869999994,115.12841800000024,171.6665039999998,111.0258789999998
53,105.64111300000059,47.30761700000039,93.3334960000002,118.58984400000008,112.17968800000017,112.82031300000017,127.43603499999972,129.10253900000043,137.6923829999996,146.41015599999992,147.43603499999972,113.58984400000008,169.23095699999976,112.30761700000039
54,103.20507799999996,43.20507799999996,90.38476599999922,112.17968800000017,110.89746099999957,113.3334960000002,124.23095699999976,123.58984400000008,133.84619099999964,144.7436520000001,143.0771479999994,110.51269500000035,163.9741210000002,113.46142599999985
55,98.0771479999994,37.30761700000039,86.0258789999998,103.58984400000008,105.89746099999957,114.74365200000011,118.58984400000008,117.17968800000017,129.23095699999976,139.48730499999965,136.9228520000006,106.41015599999992,157.05126999999993,113.7177729999994
56,92.05126999999993,31.794922000000042,82.30761700000039,97.69238299999961,100.51269500000035,116.15380900000036,111.9228520000006,112.56396500000028,124.10253900000043,132.82031300000017,131.2822270000006,103.0771479999994,151.0258789999998,113.0771479999994
57,88.20507799999996,29.358886999999413,81.0258789999998,97.69238299999961,97.69238299999961,116.79492200000004,107.05126999999993,110.89746099999957,118.84619099999964,126.41015599999992,128.58984400000008,102.05126999999993,148.0771479999994,112.17968800000017
58,88.0771479999994,30.897460999999566,81.9228520000006,102.43603499999972,98.0771479999994,116.2822270000006,105.12841800000024,110.89746099999957,114.23095699999976,121.53857400000015,128.84619099999964,102.82031300000017,148.20507799999996,111.53857400000015
59,90.51269500000035,34.87158199999976,83.7177729999994,107.56396500000028,100.12841800000024,114.87158199999976,106.41015599999992,109.61523400000078,111.53857400000015,118.0771479999994,131.0258789999998,104.10253900000043,149.48730499999965,111.2822270000006
60,93.0771479999994,39.102539000000434,85.0,109.35888699999941,102.43603499999972,113.58984400000008,109.35888699999941,106.15380900000036,111.53857400000015,116.9228520000006,133.58984400000008,104.87158199999976,150.2563479999999,112.05126999999993
61,94.10253900000043,41.666503999999804,85.25634799999989,107.43603499999972,104.35888699999941,113.20507799999996,112.30761700000039,102.17968800000017,113.58984400000008,118.0771479999994,134.7436520000001,105.0,149.87158199999976,113.58984400000008
62,93.20507799999996,41.53857400000015,84.48730499999965,103.46142599999985,105.64111300000059,113.7177729999994,113.58984400000008,100.38476599999922,115.12841800000024,119.87158199999976,133.58984400000008,104.87158199999976,148.58984400000008,115.12841800000024
63,91.15380900000036,39.87158199999976,83.58984400000008,101.0258789999998,107.17968800000017,114.23095699999976,112.82031300000017,102.17968800000017,114.35888699999941,120.64111300000059,130.6411130000006,104.87158199999976,146.9228520000006,115.51269500000035
64,90.38476599999922,39.74365200000011,84.10253900000043,103.0771479999994,110.12841800000024,114.10253900000043,111.6665039999998,106.9228520000006,112.56396500000028,120.0,128.46142599999985,105.64111300000059,146.15380900000036,114.35888699999941
65,93.20507799999996,43.846190999999635,86.9228520000006,110.0,114.61523400000078,113.84619099999964,113.0771479999994,112.82031300000017,112.43603499999972,120.12841800000024,130.0,107.56396500000028,147.43603499999972,112.43603499999972
66,98.9741210000002,51.153809000000365,91.41015599999992,117.43603499999972,118.84619099999964,114.10253900000043,118.20507799999996,117.82031300000017,115.76904300000024,122.56396500000028,135.51269500000035,110.38476599999922,150.89746099999957,110.64111300000059
67,104.10253900000043,57.17968800000017,95.64111300000059,120.25634799999989,120.51269500000035,115.38476599999922,124.35888699999941,120.76904300000024,121.0258789999998,126.6665039999998,142.17968800000017,112.17968800000017,154.87158199999976,110.0
68,105.12841800000024,57.56396500000028,97.43603499999972,115.89746099999957,119.23095699999976,116.53857400000015,127.56396500000028,120.76904300000024,125.12841800000024,130.12841800000024,146.2822270000006,111.79492200000004,157.56396500000028,110.89746099999957
69,101.0258789999998,51.410155999999915,95.76904300000024,107.30761700000039,116.0258789999998,116.15380900000036,125.0,117.82031300000017,125.64111300000059,130.2563479999999,145.51269500000035,109.23095699999976,158.3334960000002,112.94873000000007
70,95.38476599999922,42.56396500000028,91.6665039999998,100.12841800000024,111.53857400000015,113.84619099999964,117.82031300000017,112.94873000000007,122.43603499999972,125.89746099999957,140.51269500000035,105.89746099999957,157.17968800000017,114.87158199999976
71,91.79492200000004,35.897460999999566,86.79492200000004,98.3334960000002,106.15380900000036,110.76904300000024,110.51269500000035,108.46142599999985,116.9228520000006,118.7177729999994,134.10253900000043,103.3334960000002,154.7436520000001,115.76904300000024
72,91.9228520000006,35.12841800000024,83.46142599999985,101.79492200000004,100.12841800000024,109.48730499999965,107.05126999999993,106.41015599999992,112.05126999999993,113.20507799999996,129.23095699999976,103.0771479999994,151.9228520000006,115.25634799999989
73,95.0,40.0,83.20507799999996,107.94873000000007,95.64111300000059,110.76904300000024,109.10253900000043,107.43603499999972,110.0,113.3334960000002,127.94873000000007,105.12841800000024,149.7436520000001,113.84619099999964
74,99.23095699999976,47.17968800000017,86.53857400000015,113.58984400000008,95.38476599999922,113.7177729999994,114.10253900000043,110.51269500000035,111.53857400000015,119.35888699999941,129.87158199999976,108.20507799999996,148.58984400000008,112.05126999999993
75,102.94873000000007,52.82031300000017,91.41015599999992,116.6665039999998,100.51269500000035,116.15380900000036,118.3334960000002,112.82031300000017,114.74365200000011,126.9228520000006,132.82031300000017,110.64111300000059,148.7177729999994,110.89746099999957
76,105.38476599999922,54.35888699999941,95.51269500000035,116.41015599999992,108.20507799999996,117.05126999999993,119.23095699999976,113.0771479999994,117.17968800000017,131.79492200000004,135.0,111.9228520000006,149.87158199999976,110.89746099999957
77,106.53857400000015,53.0771479999994,97.17968800000017,114.23095699999976,114.35888699999941,116.2822270000006,117.05126999999993,111.53857400000015,117.43603499999972,132.43603499999972,136.15380900000036,112.69238299999961,152.17968800000017,112.05126999999993
78,107.94873000000007,52.69238299999961,97.05126999999993,113.0771479999994,116.53857400000015,115.25634799999989,114.23095699999976,110.0,117.05126999999993,131.2822270000006,137.43603499999972,113.7177729999994,155.89746099999957,113.46142599999985
79,111.15380900000036,56.025878999999804,96.79492200000004,115.0,116.15380900000036,114.87158199999976,113.46142599999985,110.12841800000024,118.84619099999964,131.9228520000006,140.12841800000024,115.25634799999989,160.76904300000024,114.35888699999941
80,116.0258789999998,63.20507799999996,98.0771479999994,119.10253900000043,116.41015599999992,115.38476599999922,115.76904300000024,112.69238299999961,123.84619099999964,136.41015599999992,144.23095699999976,117.17968800000017,166.0258789999998,114.48730499999965
81,120.25634799999989,70.76904300000024,100.76904300000024,121.9228520000006,119.10253900000043,116.2822270000006,119.87158199999976,116.15380900000036,129.87158199999976,142.82031300000017,148.0771479999994,118.58984400000008,169.61523400000078,114.48730499999965
82,121.6665039999998,74.61523400000078,103.3334960000002,121.0258789999998,123.58984400000008,116.41015599999992,123.58984400000008,118.46142599999985,132.94873000000007,146.9228520000006,150.0,118.58984400000008,170.38476599999922,114.35888699999941
83,120.0,73.7177729999994,104.35888699999941,118.3334960000002,128.0771479999994,115.76904300000024,125.38476599999922,118.58984400000008,132.43603499999972,146.79492200000004,149.7436520000001,117.17968800000017,168.58984400000008,113.9741210000002
84,117.56396500000028,70.89746099999957,104.35888699999941,117.43603499999972,130.38476599999922,114.87158199999976,125.51269500000035,117.43603499999972,130.6411130000006,143.9741210000002,149.10253900000043,116.15380900000036,166.2822270000006,113.3334960000002
85,117.17968800000017,68.84619099999964,103.84619099999964,120.0,128.3334960000002,114.74365200000011,124.35888699999941,116.2822270000006,129.87158199999976,141.41015599999992,149.23095699999976,116.9228520000006,165.0,112.82031300000017
86,118.58984400000008,67.94873000000007,103.20507799999996,122.82031300000017,121.9228520000006,115.12841800000024,122.56396500000028,115.76904300000024,130.0,139.7436520000001,149.48730499999965,119.10253900000043,164.7436520000001,112.94873000000007
87,120.0,67.05126999999993,102.05126999999993,121.2822270000006,113.7177729999994,115.38476599999922,120.12841800000024,115.64111300000059,129.48730499999965,137.6923829999996,148.20507799999996,120.64111300000059,163.9741210000002,113.58984400000008
88,120.12841800000024,65.64111300000059,100.89746099999957,114.35888699999941,108.58984400000008,115.0,117.69238299999961,115.38476599999922,127.69238299999961,134.10253900000043,145.2563479999999,120.12841800000024,161.79492200000004,114.10253900000043
89,119.35888699999941,64.87158199999976,100.38476599999922,105.64111300000059,109.35888699999941,114.74365200000011,115.89746099999957,115.51269500000035,125.51269500000035,130.38476599999922,142.56396500000028,117.82031300000017,159.48730499999965,113.84619099999964
90,119.23095699999976,66.6665039999998,100.89746099999957,100.51269500000035,114.48730499999965,115.12841800000024,115.38476599999922,116.2822270000006,124.74365200000011,129.3588869999994,143.0771479999994,116.0258789999998,159.61523400000078,113.20507799999996
91,120.51269500000035,71.6665039999998,102.56396500000028,102.05126999999993,120.0,116.15380900000036,116.53857400000015,117.69238299999961,126.53857400000015,133.46142599999985,147.56396500000028,116.0258789999998,163.3334960000002,112.82031300000017
92,121.53857400000015,77.43603499999972,104.10253900000043,108.9741210000002,122.94873000000007,116.9228520000006,118.7177729999994,119.10253900000043,130.38476599999922,141.6665039999998,153.20507799999996,117.82031300000017,168.46142599999985,112.82031300000017
93,120.25634799999989,79.61523400000078,103.9741210000002,116.15380900000036,122.30761700000039,116.79492200000004,120.51269500000035,120.12841800000024,134.10253900000043,148.58984400000008,154.7436520000001,118.9741210000002,169.87158199999976,112.94873000000007
94,116.0258789999998,75.51269500000035,101.41015599999992,118.58984400000008,119.10253900000043,115.76904300000024,120.38476599999922,120.12841800000024,134.7436520000001,148.46142599999985,148.7177729999994,117.05126999999993,164.3588869999994,112.82031300000017
95,111.2822270000006,67.94873000000007,97.94873000000007,114.74365200000011,114.74365200000011,114.87158199999976,118.20507799999996,119.10253900000043,131.9228520000006,140.89746099999957,137.56396500000028,112.17968800000017,153.9741210000002,112.43603499999972
96,109.87158199999976,63.46142599999985,96.2822270000006,108.46142599999985,111.0258789999998,114.48730499999965,115.89746099999957,117.82031300000017,128.20507799999996,131.79492200000004,128.3334960000002,107.43603499999972,145.38476599999922,111.79492200000004
97,114.23095699999976,66.53857400000015,98.46142599999985,105.25634799999989,109.74365200000011,114.35888699999941,116.53857400000015,117.69238299999961,127.82031300000017,128.58984400000008,127.56396500000028,106.6665039999998,144.7436520000001,111.2822270000006
98,122.05126999999993,75.51269500000035,103.58984400000008,108.20507799999996,111.6665039999998,114.74365200000011,121.15380900000036,118.7177729999994,131.53857400000015,134.10253900000043,136.0258789999998,110.64111300000059,152.94873000000007,111.53857400000015
99,128.3334960000002,84.10253900000043,109.10253900000043,115.25634799999989,115.25634799999989,116.2822270000006,127.43603499999972,120.25634799999989,135.6411130000006,144.3588869999994,147.3076170000004,116.0258789999998,164.48730499999965,112.43603499999972
100,128.20507799999996,86.2822270000006,111.53857400000015,120.51269500000035,117.94873000000007,118.20507799999996,130.89746099999957,120.51269500000035,134.7436520000001,151.15380900000036,153.0771479999994,118.20507799999996,171.6665039999998,113.20507799999996
101,120.89746099999957,80.64111300000059,108.9741210000002,119.74365200000011,117.17968800000017,118.46142599999985,128.0771479999994,118.3334960000002,126.53857400000015,148.46142599999985,148.84619099999964,114.35888699999941,169.61523400000078,112.94873000000007
102,110.0,71.41015599999992,101.9228520000006,112.94873000000007,112.94873000000007,115.89746099999957,119.10253900000043,113.7177729999994,114.10253900000043,136.0258789999998,137.6923829999996,106.41015599999992,159.3588869999994,111.9228520000006
103,100.25634799999989,63.7177729999994,93.58984400000008,103.7177729999994,106.15380900000036,111.9228520000006,107.94873000000007,107.82031300000017,103.58984400000008,120.12841800000024,126.79492200000004,99.23095699999976,146.9228520000006,111.15380900000036
104,95.64111300000059,60.38476599999922,87.43603499999972,96.15380900000036,99.61523400000078,108.84619099999964,100.25634799999989,102.30761700000039,99.87158199999976,108.9741210000002,121.79492200000004,96.41015599999992,139.48730499999965,111.53857400000015
105,96.9228520000006,61.53857400000015,85.64111300000059,92.82031300000017,96.15380900000036,108.0771479999994,99.48730499999965,99.23095699999976,103.58984400000008,107.43603499999972,123.7177729999994,98.0771479999994,140.76904300000024,112.69238299999961
106,102.56396500000028,65.51269500000035,88.84619099999964,93.9741210000002,98.0771479999994,109.23095699999976,105.25634799999989,99.87158199999976,111.6665039999998,115.12841800000024,129.48730499999965,101.6665039999998,148.9741210000002,113.84619099999964
107,109.23095699999976,70.25634799999989,94.74365200000011,97.94873000000007,104.23095699999976,110.51269500000035,113.3334960000002,104.10253900000043,119.48730499999965,127.05126999999993,134.7436520000001,104.35888699999941,158.20507799999996,114.61523400000078
108,113.0771479999994,73.9741210000002,99.61523400000078,102.05126999999993,110.64111300000059,110.64111300000059,118.58984400000008,109.61523400000078,122.56396500000028,136.79492200000004,137.3076170000004,104.87158199999976,162.82031300000017,114.48730499999965
109,113.46142599999985,75.12841800000024,100.76904300000024,103.9741210000002,112.94873000000007,109.35888699999941,118.7177729999994,113.0771479999994,120.0,140.89746099999957,137.56396500000028,103.9741210000002,162.05126999999993,113.7177729999994
110,112.43603499999972,74.61523400000078,98.9741210000002,103.3334960000002,110.38476599999922,107.82031300000017,115.0,113.58984400000008,115.0,139.48730499999965,137.94873000000007,103.84619099999964,159.87158199999976,113.0771479999994
111,113.46142599999985,75.38476599999922,97.94873000000007,102.17968800000017,106.6665039999998,108.7177729999994,112.05126999999993,112.69238299999961,113.58984400000008,137.05126999999993,140.38476599999922,106.15380900000036,161.6665039999998,113.20507799999996
112,118.58984400000008,79.61523400000078,100.64111300000059,103.7177729999994,106.9228520000006,113.20507799999996,112.69238299999961,112.82031300000017,119.23095699999976,137.82031300000017,145.12841800000024,110.51269500000035,168.9741210000002,113.9741210000002
113,126.41015599999992,87.30761700000039,106.41015599999992,109.74365200000011,112.43603499999972,118.7177729999994,116.6665039999998,115.25634799999989,129.7436520000001,143.20507799999996,150.51269500000035,115.0,178.0771479999994,114.61523400000078
114,133.3334960000002,94.35888699999941,112.05126999999993,118.20507799999996,119.35888699999941,121.0258789999998,120.25634799999989,118.9741210000002,138.46142599999985,150.38476599999922,153.9741210000002,117.05126999999993,182.82031300000017,114.23095699999976
115,135.0,95.89746099999957,113.84619099999964,124.10253900000043,121.2822270000006,118.20507799999996,120.0,121.53857400000015,139.48730499999965,154.61523400000078,153.20507799999996,115.76904300000024,178.0771479999994,113.58984400000008
116,129.7436520000001,89.23095699999976,110.0,123.0771479999994,115.38476599999922,112.56396500000028,114.87158199999976,120.64111300000059,131.2822270000006,152.3076170000004,148.0771479999994,111.9228520000006,164.48730499999965,113.0771479999994
117,119.61523400000078,77.30761700000039,102.69238299999961,115.76904300000024,105.51269500000035,108.20507799999996,107.82031300000017,116.9228520000006,119.23095699999976,144.23095699999976,141.15380900000036,107.82031300000017,148.58984400000008,113.3334960000002
118,111.0258789999998,68.3334960000002,96.6665039999998,106.79492200000004,98.9741210000002,107.69238299999961,103.84619099999964,113.3334960000002,111.79492200000004,136.79492200000004,137.17968800000017,106.0258789999998,140.0,113.7177729999994
119,109.87158199999976,68.7177729999994,96.41015599999992,101.2822270000006,100.76904300000024,110.12841800000024,106.53857400000015,113.58984400000008,114.87158199999976,136.79492200000004,139.3588869999994,107.82031300000017,144.48730499999965,113.9741210000002
120,115.89746099999957,77.56396500000028,101.0258789999998,99.87158199999976,109.48730499999965,112.17968800000017,114.61523400000078,117.82031300000017,126.53857400000015,144.3588869999994,146.41015599999992,111.53857400000015,158.3334960000002,113.84619099999964
121,122.69238299999961,86.15380900000036,105.38476599999922,99.10253900000043,118.0771479999994,111.53857400000015,121.9228520000006,122.17968800000017,137.56396500000028,152.43603499999972,152.43603499999972,113.20507799999996,171.0258789999998,113.0771479999994
122,123.0771479999994,86.0258789999998,105.25634799999989,95.51269500000035,119.48730499999965,108.84619099999964,123.7177729999994,122.56396500000028,138.84619099999964,152.43603499999972,151.41015599999992,110.25634799999989,172.6923829999996,111.9228520000006
123,115.89746099999957,76.53857400000015,100.64111300000059,90.25634799999989,112.69238299999961,107.56396500000028,119.87158199999976,118.0771479999994,128.58984400000008,142.05126999999993,142.6923829999996,103.84619099999964,162.17968800000017,110.76904300000024
124,107.17968800000017,64.35888699999941,96.0258789999998,87.82031300000017,102.30761700000039,109.87158199999976,115.0,111.9228520000006,113.7177729999994,127.30761700000039,131.41015599999992,98.46142599999985,146.79492200000004,110.38476599999922
125,103.20507799999996,57.82031300000017,94.74365200000011,91.0258789999998,95.0,114.74365200000011,112.82031300000017,107.82031300000017,103.20507799999996,117.17968800000017,123.84619099999964,97.30761700000039,135.89746099999957,110.76904300000024
126,105.0,59.87158199999976,96.9228520000006,97.43603499999972,93.3334960000002,118.20507799999996,113.9741210000002,106.9228520000006,101.2822270000006,116.2822270000006,122.94873000000007,99.87158199999976,133.7177729999994,111.15380900000036
127,108.9741210000002,66.15380900000036,99.61523400000078,101.0258789999998,96.41015599999992,117.69238299999961,115.51269500000035,107.05126999999993,104.87158199999976,122.43603499999972,126.9228520000006,102.94873000000007,138.46142599999985,111.0258789999998
128,111.15380900000036,70.0,100.38476599999922,98.7177729999994,101.0258789999998,114.23095699999976,114.48730499999965,105.64111300000059,107.82031300000017,130.0,131.79492200000004,103.84619099999964,144.61523400000078,110.64111300000059
129,111.15380900000036,69.35888699999941,99.48730499999965,93.7177729999994,105.38476599999922,111.2822270000006,111.0258789999998,103.3334960000002,107.69238299999961,134.10253900000043,135.2563479999999,102.56396500000028,148.7177729999994,110.64111300000059
130,111.53857400000015,68.3334960000002,99.23095699999976,91.9228520000006,109.23095699999976,111.0258789999998,108.58984400000008,103.3334960000002,106.9228520000006,133.84619099999964,137.56396500000028,101.6665039999998,151.15380900000036,111.2822270000006
131,114.87158199999976,71.6665039999998,100.76904300000024,96.6665039999998,112.43603499999972,112.82031300000017,110.51269500000035,107.43603499999972,108.9741210000002,131.2822270000006,139.61523400000078,103.3334960000002,153.58984400000008,112.30761700000039
132,120.89746099999957,79.74365200000011,103.7177729999994,105.89746099999957,114.74365200000011,114.23095699999976,116.41015599999992,113.7177729999994,114.23095699999976,128.9741210000002,141.53857400000015,107.05126999999993,155.76904300000024,112.82031300000017
133,125.89746099999957,87.56396500000028,106.15380900000036,113.0771479999994,115.0,113.20507799999996,121.79492200000004,117.82031300000017,118.84619099999964,127.30761700000039,142.17968800000017,109.61523400000078,155.38476599999922,112.56396500000028
134,125.76904300000024,89.10253900000043,106.0258789999998,112.56396500000028,111.79492200000004,109.87158199999976,121.9228520000006,116.79492200000004,118.84619099999964,124.87158199999976,140.2563479999999,108.3334960000002,150.38476599999922,111.79492200000004
135,119.48730499999965,82.17968800000017,102.94873000000007,104.10253900000043,105.38476599999922,106.2822270000006,115.89746099999957,111.15380900000036,113.3334960000002,119.74365200000011,135.0,103.46142599999985,141.53857400000015,111.15380900000036
136,110.76904300000024,71.2822270000006,98.58984400000008,93.7177729999994,98.3334960000002,104.48730499999965,107.56396500000028,104.61523400000078,105.38476599999922,112.69238299999961,128.20507799999996,98.20507799999996,133.20507799999996,111.2822270000006
137,105.76904300000024,64.61523400000078,96.15380900000036,88.7177729999994,93.9741210000002,104.74365200000011,102.43603499999972,101.79492200000004,100.38476599999922,107.56396500000028,123.20507799999996,96.41015599999992,130.51269500000035,112.17968800000017
138,108.7177729999994,67.82031300000017,97.56396500000028,92.69238299999961,94.48730499999965,106.0258789999998,103.9741210000002,105.12841800000024,102.30761700000039,109.48730499999965,123.84619099999964,99.35888699999941,135.89746099999957,112.82031300000017
139,118.58984400000008,80.12841800000024,103.3334960000002,102.69238299999961,99.48730499999965,107.56396500000028,111.15380900000036,113.0771479999994,111.0258789999998,119.87158199999976,130.76904300000024,105.51269500000035,146.9228520000006,112.82031300000017
140,130.0,95.0,111.0258789999998,112.94873000000007,107.17968800000017,109.48730499999965,119.48730499999965,121.15380900000036,123.0771479999994,134.3588869999994,141.15380900000036,111.9228520000006,158.7177729999994,112.17968800000017
141,137.94873000000007,104.74365200000011,117.94873000000007,119.23095699999976,114.87158199999976,112.56396500000028,124.35888699999941,125.51269500000035,133.3334960000002,146.2822270000006,150.76904300000024,116.15380900000036,166.79492200000004,111.6665039999998
142,140.0,105.89746099999957,121.6665039999998,121.0258789999998,120.12841800000024,116.53857400000015,123.9741210000002,126.0258789999998,138.9741210000002,150.76904300000024,156.15380900000036,117.69238299999961,169.10253900000043,111.6665039999998
143,136.53857400000015,99.35888699999941,120.76904300000024,119.35888699999941,121.15380900000036,119.48730499999965,119.87158199999976,124.23095699999976,138.46142599999985,147.43603499999972,156.53857400000015,116.79492200000004,166.0258789999998,111.9228520000006
144,129.61523400000078,89.61523400000078,115.89746099999957,115.38476599999922,117.69238299999961,119.48730499999965,115.0,121.0258789999998,132.6923829999996,139.48730499999965,152.82031300000017,114.35888699999941,159.61523400000078,112.30761700000039
145,122.30761700000039,82.17968800000017,109.10253900000043,109.87158199999976,111.53857400000015,115.76904300000024,111.79492200000004,116.6665039999998,124.23095699999976,132.17968800000017,147.43603499999972,111.6665039999998,153.46142599999985,112.94873000000007
146,117.94873000000007,80.51269500000035,103.58984400000008,104.74365200000011,105.76904300000024,110.51269500000035,111.0258789999998,112.30761700000039,117.82031300000017,129.10253900000043,143.7177729999994,110.38476599999922,150.51269500000035,113.7177729999994
147,118.84619099999964,84.35888699999941,100.89746099999957,101.6665039999998,102.43603499999972,107.56396500000028,112.05126999999993,109.23095699999976,116.2822270000006,130.6411130000006,143.7177729999994,111.0258789999998,151.53857400000015,114.48730499999965
148,123.7177729999994,89.48730499999965,101.0258789999998,101.0258789999998,101.15380900000036,108.84619099999964,113.3334960000002,107.43603499999972,118.58984400000008,133.20507799999996,146.41015599999992,112.69238299999961,153.7177729999994,114.74365200000011
149,128.20507799999996,91.15380900000036,102.17968800000017,101.2822270000006,100.12841800000024,112.94873000000007,113.7177729999994,105.76904300000024,120.25634799999989,132.3076170000004,148.84619099999964,113.7177729999994,153.7177729999994,114.23095699999976
150,128.7177729999994,88.0771479999994,102.56396500000028,101.0258789999998,99.48730499999965,116.53857400000015,113.3334960000002,103.20507799999996,118.20507799999996,126.53857400000015,148.7177729999994,113.0771479999994,150.2563479999999,112.56396500000028
151,125.51269500000035,83.3334960000002,101.79492200000004,100.64111300000059,101.15380900000036,117.05126999999993,113.7177729999994,100.76904300000024,112.69238299999961,118.84619099999964,146.53857400000015,111.6665039999998,145.51269500000035,110.38476599999922
152,121.15380900000036,81.15380900000036,99.61523400000078,100.76904300000024,106.15380900000036,115.38476599999922,115.51269500000035,100.38476599999922,107.30761700000039,113.9741210000002,144.23095699999976,110.76904300000024,142.17968800000017,109.10253900000043
153,117.56396500000028,82.69238299999961,96.53857400000015,100.64111300000059,111.41015599999992,113.20507799999996,117.94873000000007,102.82031300000017,105.76904300000024,113.9741210000002,142.94873000000007,110.89746099999957,141.41015599999992,110.12841800000024
154,115.89746099999957,85.38476599999922,93.3334960000002,98.3334960000002,112.30761700000039,112.05126999999993,119.48730499999965,106.9228520000006,108.9741210000002,117.43603499999972,142.43603499999972,110.76904300000024,142.56396500000028,113.3334960000002
155,116.41015599999992,85.89746099999957,91.15380900000036,92.82031300000017,107.05126999999993,111.9228520000006,119.61523400000078,110.25634799999989,114.35888699999941,121.53857400000015,141.79492200000004,109.35888699999941,144.7436520000001,116.53857400000015
156,119.10253900000043,83.58984400000008,91.0258789999998,86.41015599999992,99.61523400000078,112.82031300000017,118.7177729999994,111.79492200000004,118.58984400000008,124.74365200000011,141.6665039999998,106.2822270000006,147.6923829999996,117.43603499999972
157,122.69238299999961,80.51269500000035,92.43603499999972,83.20507799999996,95.64111300000059,114.48730499999965,117.82031300000017,112.17968800000017,120.0,127.17968800000017,142.82031300000017,103.0771479999994,152.05126999999993,115.76904300000024
158,125.89746099999957,79.10253900000043,94.23095699999976,85.51269500000035,98.46142599999985,116.2822270000006,117.56396500000028,112.43603499999972,119.48730499999965,129.7436520000001,145.12841800000024,101.79492200000004,157.05126999999993,113.20507799999996
159,127.30761700000039,80.64111300000059,95.38476599999922,91.9228520000006,105.89746099999957,117.17968800000017,117.43603499999972,113.0771479999994,118.46142599999985,132.05126999999993,147.17968800000017,103.46142599999985,161.15380900000036,111.15380900000036
160,126.53857400000015,83.46142599999985,95.51269500000035,98.9741210000002,112.56396500000028,116.53857400000015,116.41015599999992,113.46142599999985,117.43603499999972,133.46142599999985,147.6923829999996,107.30761700000039,162.05126999999993,110.51269500000035
161,124.48730499999965,86.0258789999998,95.25634799999989,102.56396500000028,113.46142599999985,114.48730499999965,114.23095699999976,112.94873000000007,116.15380900000036,133.3334960000002,146.53857400000015,111.6665039999998,158.9741210000002,111.2822270000006
162,123.46142599999985,88.20507799999996,95.89746099999957,101.53857400000015,108.84619099999964,112.17968800000017,111.9228520000006,111.9228520000006,115.0,131.79492200000004,145.12841800000024,114.87158199999976,154.23095699999976,112.43603499999972
163,125.76904300000024,91.2822270000006,98.0771479999994,98.3334960000002,103.3334960000002,111.2822270000006,111.41015599999992,111.15380900000036,115.76904300000024,130.0,145.51269500000035,116.41015599999992,151.9228520000006,113.0771479999994
164,132.43603499999972,96.15380900000036,101.0258789999998,97.05126999999993,101.79492200000004,112.05126999999993,113.7177729999994,111.79492200000004,120.51269500000035,129.61523400000078,147.94873000000007,116.79492200000004,155.0,112.43603499999972
165,141.15380900000036,101.2822270000006,103.58984400000008,100.12841800000024,104.23095699999976,113.84619099999964,117.43603499999972,113.7177729999994,127.94873000000007,130.89746099999957,151.2822270000006,116.79492200000004,162.43603499999972,111.2822270000006
166,147.3076170000004,103.46142599999985,105.0,105.51269500000035,106.41015599999992,114.87158199999976,120.64111300000059,116.2822270000006,134.23095699999976,132.82031300000017,153.20507799999996,117.17968800000017,168.9741210000002,110.76904300000024
167,147.82031300000017,100.51269500000035,105.38476599999922,108.46142599999985,105.0,113.9741210000002,121.41015599999992,118.58984400000008,135.38476599999922,134.10253900000043,151.9228520000006,117.94873000000007,169.87158199999976,111.53857400000015
168,142.43603499999972,93.58984400000008,105.0,105.89746099999957,101.0258789999998,111.41015599999992,120.12841800000024,119.74365200000011,131.41015599999992,133.46142599999985,147.82031300000017,118.46142599999985,164.61523400000078,113.0771479999994
169,134.10253900000043,85.89746099999957,103.20507799999996,98.46142599999985,98.46142599999985,109.10253900000043,117.69238299999961,119.87158199999976,125.12841800000024,130.89746099999957,141.79492200000004,117.69238299999961,156.0258789999998,114.48730499999965
170,125.89746099999957,80.12841800000024,99.10253900000043,89.87158199999976,99.10253900000043,108.7177729999994,115.38476599999922,118.3334960000002,119.48730499999965,126.15380900000036,134.7436520000001,115.51269500000035,146.9228520000006,114.87158199999976
171,119.35888699999941,75.76904300000024,92.82031300000017,83.58984400000008,101.0258789999998,110.89746099999957,113.58984400000008,115.0,115.51269500000035,120.38476599999922,127.05126999999993,112.43603499999972,138.3334960000002,114.35888699999941
172,115.12841800000024,71.53857400000015,86.9228520000006,81.2822270000006,101.2822270000006,113.9741210000002,112.94873000000007,110.64111300000059,113.0771479999994,115.25634799999989,119.87158199999976,109.35888699999941,131.53857400000015,113.0771479999994
173,113.7177729999994,67.56396500000028,84.87158199999976,82.56396500000028,98.7177729999994,116.15380900000036,113.84619099999964,106.9228520000006,112.17968800000017,112.69238299999961,115.38476599999922,106.9228520000006,128.0771479999994,111.53857400000015
174,114.61523400000078,65.51269500000035,87.82031300000017,85.25634799999989,95.12841800000024,116.6665039999998,115.51269500000035,105.76904300000024,111.79492200000004,112.69238299999961,114.61523400000078,105.25634799999989,128.9741210000002,111.0258789999998
175,116.0258789999998,66.6665039999998,92.69238299999961,87.05126999999993,93.20507799999996,115.76904300000024,116.2822270000006,107.56396500000028,111.0258789999998,113.84619099999964,116.9228520000006,104.10253900000043,132.94873000000007,112.17968800000017
176,116.15380900000036,70.76904300000024,95.64111300000059,86.9228520000006,93.9741210000002,114.74365200000011,115.0,110.51269500000035,109.87158199999976,114.74365200000011,120.64111300000059,103.3334960000002,136.79492200000004,114.35888699999941
177,115.12841800000024,76.41015599999992,95.38476599999922,86.2822270000006,96.79492200000004,114.61523400000078,112.56396500000028,112.43603499999972,110.25634799999989,116.53857400000015,125.25634799999989,104.10253900000043,138.58984400000008,115.64111300000059
178,115.76904300000024,82.56396500000028,95.0,87.43603499999972,100.12841800000024,115.51269500000035,112.30761700000039,113.58984400000008,114.61523400000078,121.0258789999998,131.0258789999998,107.43603499999972,139.3588869999994,115.51269500000035
179,120.51269500000035,89.23095699999976,97.69238299999961,91.41015599999992,103.46142599999985,116.2822270000006,116.2822270000006,115.64111300000059,122.94873000000007,128.46142599999985,137.43603499999972,112.69238299999961,142.05126999999993,114.35888699999941
180,127.69238299999961,95.25634799999989,102.69238299999961,97.30761700000039,106.79492200000004,116.15380900000036,122.69238299999961,118.46142599999985,131.41015599999992,134.87158199999976,142.17968800000017,116.6665039999998,147.17968800000017,113.3334960000002
181,132.6923829999996,98.46142599999985,105.51269500000035,102.17968800000017,109.48730499999965,115.0,127.17968800000017,120.0,135.38476599999922,135.76904300000024,141.53857400000015,115.76904300000024,151.2822270000006,112.94873000000007
182,131.53857400000015,97.05126999999993,102.69238299999961,103.3334960000002,109.74365200000011,113.9741210000002,126.2822270000006,117.82031300000017,131.9228520000006,129.87158199999976,133.7177729999994,109.23095699999976,150.2563479999999,113.20507799999996
183,124.74365200000011,91.41015599999992,95.0,100.76904300000024,106.53857400000015,113.7177729999994,121.15380900000036,112.43603499999972,122.94873000000007,120.76904300000024,122.17968800000017,101.15380900000036,143.0771479999994,113.3334960000002
184,117.17968800000017,84.48730499999965,87.17968800000017,96.79492200000004,100.64111300000059,113.9741210000002,116.15380900000036,106.9228520000006,113.20507799999996,113.84619099999964,113.0771479999994,97.17968800000017,133.7177729999994,113.0771479999994
185,114.74365200000011,81.15380900000036,84.74365200000011,95.25634799999989,95.38476599999922,114.61523400000078,115.12841800000024,104.61523400000078,108.20507799999996,112.05126999999993,111.79492200000004,100.12841800000024,128.0771479999994,112.17968800000017
186,119.48730499999965,84.35888699999941,89.87158199999976,97.69238299999961,94.48730499999965,115.38476599999922,118.58984400000008,106.9228520000006,110.12841800000024,114.35888699999941,118.84619099999964,107.82031300000017,129.7436520000001,110.76904300000024
187,128.46142599999985,92.82031300000017,99.23095699999976,102.30761700000039,99.61523400000078,115.89746099999957,123.7177729999994,112.17968800000017,116.2822270000006,117.82031300000017,129.23095699999976,114.87158199999976,137.56396500000028,110.0
188,135.2563479999999,100.38476599999922,106.6665039999998,105.76904300000024,107.82031300000017,115.64111300000059,126.2822270000006,116.79492200000004,121.2822270000006,119.87158199999976,135.6411130000006,116.9228520000006,145.2563479999999,110.38476599999922
189,135.0,102.05126999999993,107.30761700000039,105.38476599999922,113.9741210000002,114.48730499999965,124.61523400000078,117.56396500000028,120.89746099999957,119.48730499999965,133.7177729999994,113.0771479999994,147.3076170000004,111.41015599999992
190,128.9741210000002,98.46142599999985,102.17968800000017,102.05126999999993,115.38476599999922,113.46142599999985,121.0258789999998,114.74365200000011,116.6665039999998,118.46142599999985,125.89746099999957,107.82031300000017,143.3334960000002,112.05126999999993
191,123.58984400000008,95.25634799999989,97.43603499999972,100.25634799999989,114.48730499999965,113.46142599999985,120.25634799999989,112.56396500000028,115.0,120.64111300000059,119.61523400000078,106.2822270000006,139.10253900000043,111.9228520000006
192,124.61523400000078,97.94873000000007,98.3334960000002,104.10253900000043,116.0258789999998,114.61523400000078,124.74365200000011,114.48730499999965,120.89746099999957,127.56396500000028,121.2822270000006,110.51269500000035,141.41015599999992,111.41015599999992
193,131.2822270000006,106.6665039999998,104.10253900000043,112.69238299999961,121.2822270000006,116.0258789999998,132.3076170000004,120.0,131.6665039999998,136.15380900000036,130.12841800000024,117.05126999999993,150.89746099999957,110.89746099999957
194,137.3076170000004,114.87158199999976,109.23095699999976,120.0,125.89746099999957,116.6665039999998,137.6923829999996,124.61523400000078,139.3588869999994,140.6411130000006,138.84619099999964,120.51269500000035,160.76904300000024,110.64111300000059
195,136.79492200000004,115.89746099999957,109.10253900000043,120.89746099999957,124.48730499999965,116.2822270000006,137.3076170000004,124.23095699999976,137.6923829999996,137.82031300000017,140.6411130000006,118.20507799999996,163.20507799999996,110.89746099999957
196,129.3588869999994,108.58984400000008,103.7177729999994,115.38476599999922,116.2822270000006,115.64111300000059,132.94873000000007,118.84619099999964,127.43603499999972,129.87158199999976,134.3588869999994,112.05126999999993,156.2822270000006,111.9228520000006
197,119.87158199999976,98.84619099999964,97.56396500000028,108.9741210000002,106.53857400000015,115.51269500000035,129.7436520000001,112.69238299999961,115.76904300000024,122.94873000000007,124.87158199999976,106.2822270000006,144.87158199999976,113.84619099999964
198,113.46142599999985,93.84619099999964,94.61523400000078,106.9228520000006,101.2822270000006,116.0258789999998,130.51269500000035,109.61523400000078,109.74365200000011,120.89746099999957,117.56396500000028,103.7177729999994,135.76904300000024,115.89746099999957
199,112.17968800000017,96.15380900000036,95.0,109.35888699999941,102.69238299999961,116.79492200000004,134.10253900000043,110.89746099999957,111.15380900000036,123.0771479999994,114.61523400000078,104.35888699999941,132.43603499999972,116.79492200000004
200,114.35888699999941,101.9228520000006,96.2822270000006,112.43603499999972,107.69238299999961,117.30761700000039,136.0258789999998,114.35888699999941,116.6665039999998,125.38476599999922,114.74365200000011,105.89746099999957,132.82031300000017,115.38476599999922
201,116.9228520000006,104.74365200000011,95.76904300000024,111.79492200000004,111.9228520000006,116.9228520000006,133.7177729999994,117.30761700000039,121.2822270000006,125.0,116.0258789999998,106.15380900000036,133.3334960000002,112.05126999999993
202,118.0771479999994,101.2822270000006,93.3334960000002,107.05126999999993,112.43603499999972,115.89746099999957,128.46142599999985,118.20507799999996,121.9228520000006,121.2822270000006,117.56396500000028,104.87158199999976,132.05126999999993,108.46142599999985
203,117.05126999999993,93.84619099999964,90.25634799999989,101.79492200000004,110.12841800000024,114.61523400000078,123.3334960000002,117.17968800000017,118.9741210000002,116.0258789999998,119.48730499999965,103.20507799999996,129.7436520000001,107.30761700000039
204,114.61523400000078,88.7177729999994,88.58984400000008,101.15380900000036,108.46142599999985,113.84619099999964,120.76904300000024,115.12841800000024,114.87158199999976,111.6665039999998,121.53857400000015,102.17968800000017,127.94873000000007,109.74365200000011
205,112.43603499999972,91.53857400000015,89.61523400000078,106.79492200000004,110.0,113.9741210000002,121.41015599999992,113.20507799999996,112.30761700000039,110.51269500000035,123.20507799999996,101.9228520000006,129.61523400000078,114.48730499999965
206,112.17968800000017,102.05126999999993,92.69238299999961,115.51269500000035,114.74365200000011,115.0,124.87158199999976,113.20507799999996,113.0771479999994,113.58984400000008,125.0,102.43603499999972,136.0258789999998,118.3334960000002
207,114.10253900000043,114.35888699999941,96.41015599999992,121.79492200000004,119.74365200000011,116.15380900000036,129.48730499999965,115.12841800000024,116.6665039999998,119.74365200000011,127.05126999999993,103.0771479999994,145.38476599999922,119.10253900000043
208,116.79492200000004,120.76904300000024,98.46142599999985,120.76904300000024,120.89746099999957,117.17968800000017,132.82031300000017,117.94873000000007,121.0258789999998,125.25634799999989,128.84619099999964,103.0771479999994,152.3076170000004,117.05126999999993
209,118.3334960000002,117.30761700000039,98.46142599999985,112.69238299999961,116.53857400000015,117.43603499999972,133.20507799999996,119.61523400000078,123.84619099999964,127.30761700000039,129.7436520000001,102.30761700000039,151.9228520000006,113.9741210000002
210,117.82031300000017,106.9228520000006,97.43603499999972,102.05126999999993,108.9741210000002,116.79492200000004,130.76904300000024,119.35888699999941,123.9741210000002,125.51269500000035,129.3588869999994,101.2822270000006,144.87158199999976,111.6665039999998
211,115.64111300000059,96.79492200000004,96.53857400000015,95.51269500000035,103.20507799999996,115.51269500000035,127.05126999999993,117.94873000000007,122.05126999999993,121.9228520000006,128.58984400000008,101.6665039999998,136.9228520000006,111.15380900000036
212,113.0771479999994,92.43603499999972,96.79492200000004,95.64111300000059,102.43603499999972,113.9741210000002,123.58984400000008,116.53857400000015,119.48730499999965,118.9741210000002,128.3334960000002,104.35888699999941,132.94873000000007,111.9228520000006
213,111.6665039999998,94.48730499999965,98.3334960000002,100.51269500000035,105.12841800000024,112.94873000000007,121.15380900000036,115.64111300000059,117.30761700000039,117.17968800000017,128.58984400000008,108.7177729999994,134.10253900000043,112.69238299999961
214,112.94873000000007,99.35888699999941,101.2822270000006,106.15380900000036,108.46142599999985,112.94873000000007,119.74365200000011,115.0,116.0258789999998,116.9228520000006,129.48730499999965,113.0771479999994,138.0771479999994,112.43603499999972
215,117.69238299999961,103.3334960000002,105.51269500000035,109.74365200000011,110.38476599999922,113.7177729999994,119.35888699999941,114.35888699999941,115.89746099999957,117.94873000000007,130.89746099999957,116.0258789999998,142.43603499999972,111.2822270000006
216,124.61523400000078,105.0,110.0,111.6665039999998,111.53857400000015,114.74365200000011,119.35888699999941,114.23095699999976,117.17968800000017,119.35888699999941,132.6923829999996,117.30761700000039,147.17968800000017,110.76904300000024
217,131.53857400000015,105.89746099999957,113.46142599999985,112.82031300000017,113.0771479999994,115.51269500000035,120.0,115.0,119.61523400000078,120.0,134.48730499999965,117.43603499999972,152.43603499999972,112.05126999999993
218,135.51269500000035,108.0771479999994,115.25634799999989,113.7177729999994,113.84619099999964,115.64111300000059,120.64111300000059,116.6665039999998,122.56396500000028,119.23095699999976,135.6411130000006,116.9228520000006,157.56396500000028,114.35888699999941
219,135.76904300000024,111.0258789999998,115.76904300000024,113.58984400000008,111.79492200000004,115.25634799999989,120.12841800000024,118.20507799999996,124.61523400000078,117.43603499999972,135.38476599999922,116.2822270000006,159.87158199999976,115.89746099999957
220,132.6923829999996,112.69238299999961,115.12841800000024,112.05126999999993,106.53857400000015,115.12841800000024,118.7177729999994,118.46142599999985,124.23095699999976,115.38476599999922,133.46142599999985,115.64111300000059,157.17968800000017,115.51269500000035
221,128.20507799999996,112.43603499999972,113.9741210000002,109.87158199999976,100.89746099999957,115.25634799999989,117.56396500000028,117.43603499999972,121.41015599999992,113.7177729999994,130.0,115.25634799999989,150.89746099999957,114.48730499999965
222,125.0,111.9228520000006,112.94873000000007,108.58984400000008,99.87158199999976,115.51269500000035,117.94873000000007,117.17968800000017,119.23095699999976,113.0771479999994,127.43603499999972,116.0258789999998,146.0258789999998,113.84619099999964
223,125.89746099999957,113.58984400000008,113.84619099999964,109.61523400000078,106.41015599999992,115.38476599999922,120.38476599999922,119.87158199999976,121.53857400000015,113.7177729999994,128.20507799999996,118.0771479999994,147.05126999999993,113.84619099999964
224,130.89746099999957,117.05126999999993,116.6665039999998,112.56396500000028,117.82031300000017,114.61523400000078,123.3334960000002,125.0,128.3334960000002,115.38476599999922,132.3076170000004,120.38476599999922,154.10253900000043,113.84619099999964
225,136.9228520000006,118.84619099999964,119.61523400000078,114.74365200000011,127.05126999999993,113.9741210000002,124.87158199999976,130.0,135.2563479999999,116.53857400000015,136.9228520000006,120.89746099999957,162.05126999999993,113.0771479999994
226,139.23095699999976,115.51269500000035,119.87158199999976,113.20507799999996,127.56396500000028,114.48730499999965,123.58984400000008,131.41015599999992,136.53857400000015,115.89746099999957,137.43603499999972,118.7177729999994,164.61523400000078,111.79492200000004
227,135.6411130000006,107.82031300000017,116.15380900000036,107.43603499999972,118.58984400000008,116.15380900000036,119.48730499999965,127.82031300000017,130.51269500000035,112.82031300000017,131.79492200000004,113.9741210000002,159.48730499999965,110.76904300000024
228,128.7177729999994,100.89746099999957,110.0,100.38476599999922,106.6665039999998,117.30761700000039,115.0,121.0258789999998,121.15380900000036,109.61523400000078,122.94873000000007,109.35888699999941,151.2822270000006,110.25634799999989
229,123.7177729999994,99.35888699999941,105.25634799999989,96.2822270000006,100.76904300000024,116.6665039999998,113.3334960000002,115.51269500000035,115.89746099999957,109.23095699999976,116.2822270000006,107.82031300000017,147.56396500000028,110.51269500000035
230,123.7177729999994,103.7177729999994,104.23095699999976,96.9228520000006,104.87158199999976,114.10253900000043,115.76904300000024,114.61523400000078,119.10253900000043,113.20507799999996,115.64111300000059,110.76904300000024,151.9228520000006,111.2822270000006
231,127.17968800000017,109.23095699999976,105.64111300000059,100.38476599999922,114.10253900000043,110.89746099999957,119.87158199999976,117.69238299999961,127.69238299999961,118.84619099999964,119.23095699999976,115.76904300000024,159.7436520000001,112.05126999999993
232,129.3588869999994,110.12841800000024,106.41015599999992,102.30761700000039,118.58984400000008,108.58984400000008,121.2822270000006,120.64111300000059,133.84619099999964,121.53857400000015,122.05126999999993,118.3334960000002,162.94873000000007,112.05126999999993
233,127.82031300000017,104.74365200000011,104.61523400000078,100.76904300000024,113.0771479999994,108.46142599999985,118.7177729999994,119.74365200000011,131.53857400000015,118.9741210000002,120.64111300000059,116.2822270000006,158.0771479999994,111.6665039999998
234,125.0,98.3334960000002,101.6665039999998,98.46142599999985,102.82031300000017,110.51269500000035,115.0,116.0258789999998,123.0771479999994,113.7177729999994,117.05126999999993,111.53857400000015,151.41015599999992,111.6665039999998
235,126.2822270000006,98.46142599999985,100.89746099999957,100.64111300000059,97.94873000000007,113.46142599999985,114.48730499999965,113.84619099999964,117.17968800000017,111.53857400000015,116.53857400000015,109.23095699999976,152.3076170000004,112.43603499999972
236,133.46142599999985,107.05126999999993,104.74365200000011,108.58984400000008,103.7177729999994,115.51269500000035,118.9741210000002,116.53857400000015,120.38476599999922,116.53857400000015,122.17968800000017,111.9228520000006,163.46142599999985,113.46142599999985
237,143.20507799999996,118.20507799999996,112.17968800000017,117.82031300000017,115.64111300000059,116.0258789999998,125.76904300000024,123.0771479999994,130.51269500000035,126.6665039999998,131.53857400000015,118.46142599999985,177.56396500000028,113.9741210000002
238,148.84619099999964,123.46142599999985,118.84619099999964,122.17968800000017,125.12841800000024,115.51269500000035,129.61523400000078,128.58984400000008,139.23095699999976,135.51269500000035,138.46142599999985,124.10253900000043,184.10253900000043,113.58984400000008
239,147.56396500000028,120.0,120.89746099999957,119.87158199999976,127.56396500000028,115.0,127.56396500000028,129.23095699999976,140.2563479999999,137.05126999999993,139.3588869999994,125.12841800000024,178.84619099999964,112.94873000000007
240,142.05126999999993,112.56396500000028,118.20507799999996,114.61523400000078,125.25634799999989,115.25634799999989,121.6665039999998,125.12841800000024,134.3588869999994,130.76904300000024,135.89746099999957,121.6665039999998,167.56396500000028,112.69238299999961
241,137.43603499999972,108.7177729999994,114.35888699999941,111.2822270000006,122.69238299999961,115.89746099999957,116.79492200000004,120.12841800000024,127.43603499999972,121.53857400000015,132.94873000000007,117.17968800000017,159.61523400000078,113.3334960000002
242,136.2822270000006,111.0258789999998,113.0771479999994,111.53857400000015,121.53857400000015,116.2822270000006,115.51269500000035,117.30761700000039,123.84619099999964,115.25634799999989,133.20507799999996,115.0,160.0,114.48730499999965
243,136.9228520000006,115.12841800000024,114.74365200000011,112.69238299999961,119.48730499999965,115.64111300000059,116.6665039999998,117.05126999999993,123.3334960000002,113.20507799999996,134.61523400000078,115.25634799999989,165.6411130000006,114.87158199999976
244,136.41015599999992,115.64111300000059,116.9228520000006,111.79492200000004,113.9741210000002,114.61523400000078,117.56396500000028,117.05126999999993,122.69238299999961,113.20507799999996,134.3588869999994,116.0258789999998,169.3588869999994,114.10253900000043
245,134.23095699999976,111.53857400000015,117.43603499999972,108.84619099999964,106.9228520000006,114.10253900000043,116.6665039999998,116.2822270000006,121.15380900000036,113.3334960000002,132.82031300000017,115.89746099999957,167.82031300000017,112.69238299999961
246,133.20507799999996,108.0771479999994,117.17968800000017,106.79492200000004,104.23095699999976,114.61523400000078,115.38476599999922,115.64111300000059,120.89746099999957,114.48730499999965,133.58984400000008,115.64111300000059,163.46142599999985,111.79492200000004
247,136.41015599999992,110.12841800000024,117.82031300000017,108.0771479999994,109.74365200000011,115.64111300000059,115.51269500000035,116.9228520000006,124.23095699999976,117.82031300000017,138.84619099999964,116.6665039999998,161.41015599999992,112.05126999999993
248,142.82031300000017,116.9228520000006,119.87158199999976,112.17968800000017,120.12841800000024,116.15380900000036,117.43603499999972,119.61523400000078,129.7436520000001,122.43603499999972,145.6411130000006,118.7177729999994,163.46142599999985,113.46142599999985
249,147.05126999999993,122.05126999999993,120.89746099999957,115.51269500000035,126.0258789999998,115.89746099999957,119.23095699999976,121.15380900000036,132.17968800000017,124.10253900000043,147.94873000000007,119.87158199999976,166.53857400000015,115.25634799999989
250,143.9741210000002,120.0,118.9741210000002,115.25634799999989,120.89746099999957,115.0,118.0771479999994,119.10253900000043,127.94873000000007,120.0,142.05126999999993,117.69238299999961,166.0258789999998,116.6665039999998
251,134.61523400000078,112.30761700000039,114.61523400000078,111.9228520000006,107.56396500000028,114.10253900000043,114.23095699999976,114.35888699999941,118.58984400000008,111.9228520000006,130.76904300000024,112.69238299999961,161.41015599999992,117.05126999999993
252,125.76904300000024,106.15380900000036,111.53857400000015,109.23095699999976,96.2822270000006,113.84619099999964,110.76904300000024,110.89746099999957,111.2822270000006,106.6665039999998,121.79492200000004,107.82031300000017,156.79492200000004,116.0258789999998
253,123.84619099999964,107.43603499999972,111.9228520000006,110.25634799999989,96.2822270000006,114.48730499999965,111.53857400000015,112.30761700000039,111.79492200000004,109.35888699999941,121.0258789999998,106.53857400000015,156.6665039999998,114.35888699999941
254,129.7436520000001,116.0258789999998,115.12841800000024,114.87158199999976,106.9228520000006,115.51269500000035,116.15380900000036,118.46142599999985,120.76904300000024,119.74365200000011,128.3334960000002,109.61523400000078,161.79492200000004,113.0771479999994
255,138.46142599999985,125.64111300000059,118.0771479999994,120.12841800000024,119.61523400000078,116.9228520000006,120.38476599999922,125.25634799999989,132.43603499999972,131.79492200000004,137.43603499999972,114.87158199999976,168.0771479999994,113.46142599999985
256,143.20507799999996,129.61523400000078,118.20507799999996,122.56396500000028,124.10253900000043,118.0771479999994,119.74365200000011,128.20507799999996,139.61523400000078,138.84619099999964,141.41015599999992,118.46142599999985,170.0,115.38476599999922
257,140.76904300000024,125.76904300000024,115.38476599999922,120.64111300000059,117.43603499999972,118.0771479999994,113.7177729999994,125.64111300000059,138.58984400000008,138.0771479999994,138.3334960000002,117.94873000000007,165.12841800000024,117.17968800000017
258,133.0771479999994,117.94873000000007,111.2822270000006,115.64111300000059,104.74365200000011,116.41015599999992,106.15380900000036,119.87158199999976,131.6665039999998,131.6665039999998,131.79492200000004,114.61523400000078,155.2563479999999,117.56396500000028
259,125.76904300000024,112.05126999999993,108.46142599999985,111.41015599999992,94.61523400000078,113.7177729999994,101.79492200000004,114.61523400000078,124.23095699999976,124.35888699999941,126.9228520000006,111.41015599999992,145.89746099999957,116.2822270000006
260,123.58984400000008,111.53857400000015,108.20507799999996,111.79492200000004,93.20507799999996,112.17968800000017,103.20507799999996,112.82031300000017,120.76904300000024,120.64111300000059,126.53857400000015,110.76904300000024,142.3076170000004,114.23095699999976
261,128.0771479999994,115.38476599999922,110.64111300000059,117.56396500000028,100.38476599999922,112.69238299999961,109.35888699999941,115.12841800000024,122.30761700000039,122.17968800000017,129.7436520000001,112.94873000000007,146.2822270000006,112.69238299999961
262,136.79492200000004,119.74365200000011,114.23095699999976,126.15380900000036,111.15380900000036,114.10253900000043,117.05126999999993,120.89746099999957,126.79492200000004,127.17968800000017,133.7177729999994,115.89746099999957,155.51269500000035,112.30761700000039
263,144.3588869999994,121.0258789999998,117.05126999999993,132.56396500000028,119.10253900000043,114.74365200000011,122.17968800000017,127.56396500000028,131.0258789999998,132.43603499999972,136.0258789999998,117.43603499999972,163.9741210000002,112.94873000000007
264,145.89746099999957,118.7177729999994,118.0771479999994,132.6923829999996,120.12841800000024,113.58984400000008,122.56396500000028,132.17968800000017,132.82031300000017,134.7436520000001,135.6411130000006,116.6665039999998,166.41015599999992,113.7177729999994
265,140.6411130000006,115.25634799999989,117.17968800000017,127.05126999999993,114.61523400000078,111.0258789999998,119.35888699999941,133.20507799999996,131.6665039999998,133.20507799999996,133.58984400000008,114.48730499999965,161.9228520000006,113.7177729999994
266,132.82031300000017,114.35888699999941,115.64111300000059,120.89746099999957,107.43603499999972,108.9741210000002,116.15380900000036,130.89746099999957,129.23095699999976,129.3588869999994,131.41015599999992,112.82031300000017,154.3588869999994,112.56396500000028
267,129.10253900000043,117.43603499999972,115.12841800000024,120.0,103.7177729999994,109.23095699999976,116.79492200000004,127.43603499999972,128.0771479999994,125.25634799999989,130.38476599999922,113.0771479999994,149.23095699999976,111.0258789999998
268,132.82031300000017,122.43603499999972,116.15380900000036,125.64111300000059,106.0258789999998,112.05126999999993,121.53857400000015,125.12841800000024,129.61523400000078,122.82031300000017,130.51269500000035,114.61523400000078,149.23095699999976,110.51269500000035
269,141.15380900000036,125.38476599999922,117.56396500000028,132.56396500000028,112.05126999999993,116.0258789999998,126.9228520000006,124.35888699999941,131.9228520000006,122.43603499999972,130.6411130000006,115.76904300000024,152.56396500000028,111.41015599999992
270,147.17968800000017,124.35888699999941,117.69238299999961,134.23095699999976,118.20507799999996,118.3334960000002,128.7177729999994,124.87158199999976,131.9228520000006,122.82031300000017,129.61523400000078,115.38476599999922,155.12841800000024,112.69238299999961
271,146.53857400000015,121.15380900000036,116.2822270000006,129.23095699999976,122.30761700000039,117.94873000000007,126.15380900000036,125.76904300000024,128.0771479999994,122.82031300000017,127.69238299999961,114.10253900000043,153.9741210000002,113.0771479999994
272,140.0,118.58984400000008,114.61523400000078,121.9228520000006,123.3334960000002,115.76904300000024,122.43603499999972,125.64111300000059,121.79492200000004,121.79492200000004,126.0258789999998,113.20507799999996,149.87158199999976,112.56396500000028
273,132.3076170000004,118.9741210000002,114.10253900000043,118.46142599999985,120.64111300000059,113.84619099999964,121.15380900000036,123.9741210000002,116.53857400000015,120.25634799999989,126.0258789999998,113.20507799999996,145.6411130000006,111.79492200000004
274,128.20507799999996,121.6665039999998,115.25634799999989,120.76904300000024,114.61523400000078,113.58984400000008,123.3334960000002,121.15380900000036,114.61523400000078,120.12841800000024,128.20507799999996,114.48730499999965,144.10253900000043,111.2822270000006
275,129.23095699999976,124.35888699999941,117.69238299999961,125.38476599999922,107.56396500000028,115.0,127.05126999999993,118.58984400000008,116.15380900000036,122.69238299999961,131.41015599999992,116.53857400000015,145.89746099999957,111.15380900000036
276,133.20507799999996,124.35888699999941,120.25634799999989,127.05126999999993,102.56396500000028,116.53857400000015,129.23095699999976,117.05126999999993,118.84619099999964,126.9228520000006,133.9741210000002,118.3334960000002,149.23095699999976,111.6665039999998
277,135.76904300000024,120.76904300000024,121.2822270000006,123.3334960000002,102.43603499999972,116.41015599999992,127.82031300000017,116.2822270000006,120.25634799999989,128.9741210000002,134.61523400000078,119.10253900000043,151.41015599999992,112.43603499999972
278,134.7436520000001,115.38476599999922,119.87158199999976,117.30761700000039,107.69238299999961,114.74365200000011,122.94873000000007,115.64111300000059,119.23095699999976,126.6665039999998,133.0771479999994,118.3334960000002,151.15380900000036,112.56396500000028
279,131.41015599999992,111.6665039999998,116.9228520000006,114.87158199999976,115.89746099999957,113.46142599999985,117.43603499999972,115.0,116.6665039999998,121.0258789999998,130.89746099999957,116.6665039999998,149.48730499999965,112.30761700000039
280,128.9741210000002,112.05126999999993,115.0,118.84619099999964,122.82031300000017,113.84619099999964,114.23095699999976,114.48730499999965,113.9741210000002,116.0258789999998,129.7436520000001,115.51269500000035,148.58984400000008,111.9228520000006
281,129.61523400000078,115.25634799999989,115.64111300000059,126.53857400000015,124.48730499999965,115.38476599999922,114.74365200000011,114.23095699999976,111.79492200000004,114.61523400000078,130.0,115.12841800000024,148.46142599999985,112.05126999999993
282,132.17968800000017,118.3334960000002,118.58984400000008,131.6665039999998,120.51269500000035,116.53857400000015,117.43603499999972,114.10253900000043,110.89746099999957,116.0258789999998,130.76904300000024,115.51269500000035,147.94873000000007,112.43603499999972
283,135.0,119.23095699999976,121.9228520000006,130.6411130000006,114.35888699999941,116.2822270000006,119.35888699999941,113.9741210000002,111.79492200000004,117.69238299999961,131.15380900000036,116.0258789999998,146.0258789999998,112.56396500000028
284,136.79492200000004,118.46142599999985,124.23095699999976,125.38476599999922,110.51269500000035,115.0,118.9741210000002,114.10253900000043,114.48730499999965,118.7177729999994,131.41015599999992,116.6665039999998,144.10253900000043,112.17968800000017
285,137.94873000000007,118.0771479999994,125.38476599999922,120.51269500000035,110.76904300000024,113.84619099999964,117.17968800000017,114.61523400000078,117.94873000000007,119.61523400000078,132.3076170000004,117.69238299999961,144.23095699999976,111.15380900000036
286,137.94873000000007,117.94873000000007,125.25634799999989,118.3334960000002,112.17968800000017,113.84619099999964,115.25634799999989,114.23095699999976,119.48730499999965,120.76904300000024,132.94873000000007,117.94873000000007,146.0258789999998,110.12841800000024
287,135.51269500000035,116.0258789999998,122.94873000000007,118.0771479999994,110.12841800000024,114.61523400000078,113.3334960000002,110.89746099999957,116.15380900000036,120.12841800000024,131.2822270000006,116.41015599999992,147.05126999999993,109.87158199999976
288,130.76904300000024,112.30761700000039,118.58984400000008,117.82031300000017,103.7177729999994,115.25634799999989,110.64111300000059,104.74365200000011,107.94873000000007,115.76904300000024,126.41015599999992,113.3334960000002,144.7436520000001,111.0258789999998
289,126.15380900000036,109.61523400000078,115.0,117.69238299999961,97.69238299999961,115.12841800000024,107.56396500000028,98.7177729999994,100.0,109.61523400000078,121.15380900000036,111.0258789999998,140.6411130000006,112.94873000000007
290,125.64111300000059,111.9228520000006,115.25634799999989,119.74365200000011,98.84619099999964,113.84619099999964,106.79492200000004,97.43603499999972,98.7177729999994,106.79492200000004,120.38476599999922,111.79492200000004,138.9741210000002,114.61523400000078
291,131.15380900000036,119.87158199999976,120.12841800000024,124.74365200000011,109.10253900000043,112.05126999999993,110.25634799999989,102.69238299999961,106.53857400000015,111.15380900000036,126.2822270000006,115.76904300000024,142.82031300000017,114.87158199999976
292,140.6411130000006,130.0,127.43603499999972,131.15380900000036,123.3334960000002,110.76904300000024,117.05126999999993,111.9228520000006,119.48730499999965,121.15380900000036,136.53857400000015,120.64111300000059,151.6665039999998,114.10253900000043
293,149.10253900000043,138.46142599999985,133.58984400000008,136.15380900000036,133.3334960000002,111.2822270000006,123.58984400000008,120.12841800000024,129.87158199999976,131.2822270000006,146.15380900000036,123.7177729999994,161.2822270000006,113.0771479999994
294,152.6923829999996,142.56396500000028,135.76904300000024,138.46142599999985,135.12841800000024,113.3334960000002,127.17968800000017,123.84619099999964,132.94873000000007,136.15380900000036,150.76904300000024,123.84619099999964,166.79492200000004,112.82031300000017
295,150.12841800000024,141.41015599999992,133.58984400000008,138.0771479999994,129.61523400000078,115.12841800000024,126.79492200000004,122.43603499999972,128.58984400000008,133.84619099999964,148.9741210000002,121.79492200000004,165.51269500000035,113.0771479999994
296,142.94873000000007,135.38476599999922,128.20507799999996,134.87158199999976,121.0258789999998,115.51269500000035,123.20507799999996,118.3334960000002,121.0258789999998,125.89746099999957,141.79492200000004,118.58984400000008,158.58984400000008,112.94873000000007
297,134.7436520000001,126.15380900000036,122.05126999999993,128.84619099999964,113.7177729999994,114.61523400000078,118.0771479999994,114.48730499999965,114.23095699999976,116.0258789999998,132.3076170000004,115.51269500000035,149.7436520000001,112.17968800000017
298,128.84619099999964,117.69238299999961,117.43603499999972,121.15380900000036,110.51269500000035,113.46142599999985,113.58984400000008,113.20507799999996,111.0258789999998,109.48730499999965,124.74365200000011,113.58984400000008,143.46142599999985,111.15380900000036
299,127.69238299999961,113.84619099999964,116.15380900000036,115.25634799999989,112.05126999999993,113.3334960000002,111.9228520000006,114.35888699999941,112.05126999999993,109.48730499999965,122.30761700000039,113.20507799999996,142.05126999999993,110.64111300000059
300,130.38476599999922,115.25634799999989,118.0771479999994,114.35888699999941,115.38476599999922,113.9741210000002,113.46142599999985,116.6665039999998,116.79492200000004,115.38476599999922,125.25634799999989,113.46142599999985,144.7436520000001,111.0258789999998
301,133.20507799999996,118.7177729999994,120.76904300000024,118.20507799999996,116.79492200000004,114.48730499999965,115.89746099999957,118.0771479999994,122.17968800000017,122.56396500000028,130.0,113.46142599999985,148.0771479999994,112.17968800000017
302,132.94873000000007,120.89746099999957,122.30761700000039,123.58984400000008,114.74365200000011,114.10253900000043,116.79492200000004,118.20507799999996,126.15380900000036,126.6665039999998,132.56396500000028,112.94873000000007,149.3588869999994,113.20507799999996
303,130.12841800000024,121.9228520000006,122.69238299999961,127.69238299999961,111.9228520000006,113.0771479999994,115.76904300000024,118.46142599999985,128.3334960000002,128.20507799999996,132.3076170000004,112.94873000000007,149.48730499999965,113.58984400000008
304,129.10253900000043,124.35888699999941,123.9741210000002,129.7436520000001,112.82031300000017,112.17968800000017,115.51269500000035,121.0258789999998,130.76904300000024,131.15380900000036,131.79492200000004,114.74365200000011,152.05126999999993,113.3334960000002
305,133.20507799999996,130.2563479999999,127.94873000000007,131.6665039999998,119.10253900000043,112.69238299999961,118.7177729999994,126.2822270000006,134.61523400000078,137.6923829999996,134.23095699999976,118.46142599999985,158.46142599999985,113.20507799999996
306,141.41015599999992,137.6923829999996,133.20507799999996,134.87158199999976,127.05126999999993,114.35888699999941,124.61523400000078,131.9228520000006,138.46142599999985,145.6411130000006,140.2563479999999,122.69238299999961,166.0258789999998,113.0771479999994
307,148.46142599999985,142.82031300000017,137.05126999999993,138.84619099999964,130.12841800000024,116.0258789999998,129.7436520000001,134.7436520000001,139.61523400000078,150.12841800000024,146.79492200000004,124.87158199999976,169.3588869999994,112.69238299999961
308,149.3588869999994,142.6923829999996,137.17968800000017,141.53857400000015,125.25634799999989,116.6665039999998,130.2563479999999,132.6923829999996,136.6665039999998,148.58984400000008,150.0,123.7177729999994,166.41015599999992,111.79492200000004
309,143.3334960000002,137.94873000000007,134.23095699999976,140.76904300000024,116.6665039999998,116.53857400000015,126.15380900000036,126.79492200000004,131.15380900000036,142.3076170000004,147.94873000000007,119.48730499999965,159.61523400000078,111.15380900000036
310,134.7436520000001,132.17968800000017,130.76904300000024,136.79492200000004,111.79492200000004,116.2822270000006,120.38476599999922,120.38476599999922,126.2822270000006,135.12841800000024,141.6665039999998,114.23095699999976,153.84619099999964,111.9228520000006
311,128.84619099999964,129.3588869999994,128.7177729999994,131.79492200000004,114.61523400000078,116.53857400000015,116.53857400000015,116.79492200000004,123.9741210000002,130.12841800000024,134.23095699999976,110.25634799999989,152.3076170000004,114.35888699999941
312,128.46142599999985,131.2822270000006,128.9741210000002,128.7177729999994,123.0771479999994,117.17968800000017,116.0258789999998,117.05126999999993,124.35888699999941,128.84619099999964,129.3588869999994,109.23095699999976,154.10253900000043,116.79492200000004
313,131.79492200000004,135.12841800000024,130.51269500000035,128.3334960000002,130.89746099999957,117.43603499999972,117.05126999999993,119.48730499999965,125.51269500000035,130.76904300000024,129.10253900000043,110.89746099999957,156.15380900000036,117.17968800000017
314,135.2563479999999,136.6665039999998,131.6665039999998,129.3588869999994,132.82031300000017,117.17968800000017,117.43603499999972,120.76904300000024,124.87158199999976,133.46142599999985,132.17968800000017,113.7177729999994,156.15380900000036,115.25634799999989
315,136.2822270000006,134.48730499999965,131.53857400000015,130.12841800000024,128.7177729999994,116.2822270000006,116.79492200000004,119.23095699999976,121.6665039999998,133.46142599999985,135.38476599999922,115.51269500000035,154.10253900000043,112.30761700000039
316,135.38476599999922,131.79492200000004,130.76904300000024,131.15380900000036,123.20507799999996,115.12841800000024,116.53857400000015,116.15380900000036,117.17968800000017,130.12841800000024,136.2822270000006,115.76904300000024,151.9228520000006,110.76904300000024
317,135.6411130000006,133.46142599999985,130.76904300000024,134.10253900000043,121.79492200000004,114.35888699999941,118.3334960000002,113.7177729999994,114.35888699999941,125.64111300000059,134.61523400000078,115.0,151.53857400000015,111.79492200000004
318,138.3334960000002,140.38476599999922,132.17968800000017,139.10253900000043,125.89746099999957,114.10253900000043,121.53857400000015,113.58984400000008,115.0,123.46142599999985,131.79492200000004,114.35888699999941,153.0771479999994,114.48730499999965
319,142.6923829999996,147.94873000000007,133.84619099999964,144.23095699999976,131.41015599999992,114.87158199999976,124.35888699999941,114.48730499999965,117.82031300000017,124.74365200000011,129.7436520000001,114.10253900000043,154.61523400000078,116.53857400000015
320,146.15380900000036,150.2563479999999,134.10253900000043,146.41015599999992,133.84619099999964,116.15380900000036,124.87158199999976,115.0,120.25634799999989,128.3334960000002,129.10253900000043,114.10253900000043,155.38476599999922,116.0258789999998
321,147.3076170000004,146.15380900000036,133.0771479999994,144.3588869999994,131.9228520000006,117.05126999999993,123.84619099999964,115.0,120.64111300000059,132.6923829999996,130.2563479999999,114.61523400000078,156.2822270000006,113.0771479999994
322,147.43603499999972,139.23095699999976,132.56396500000028,140.38476599999922,129.10253900000043,116.53857400000015,123.46142599999985,115.38476599999922,119.61523400000078,136.6665039999998,133.0771479999994,116.2822270000006,158.9741210000002,110.38476599999922
323,148.3334960000002,134.10253900000043,133.84619099999964,137.3076170000004,127.94873000000007,114.23095699999976,125.38476599999922,116.79492200000004,119.10253900000043,138.58984400000008,136.15380900000036,118.7177729999994,162.56396500000028,110.76904300000024
324,149.87158199999976,132.56396500000028,135.89746099999957,136.2822270000006,128.84619099999964,110.64111300000059,127.56396500000028,118.20507799999996,119.23095699999976,136.15380900000036,137.3076170000004,120.12841800000024,164.10253900000043,114.35888699999941
325,150.0,133.3334960000002,136.2822270000006,136.15380900000036,128.84619099999964,107.56396500000028,126.79492200000004,117.43603499999972,118.3334960000002,128.20507799999996,135.2563479999999,119.10253900000043,160.2563479999999,118.9741210000002
326,147.3076170000004,135.0,134.10253900000043,135.38476599999922,126.53857400000015,106.15380900000036,121.79492200000004,113.84619099999964,115.38476599999922,117.56396500000028,131.0258789999998,116.2822270000006,151.6665039999998,121.9228520000006
327,143.46142599999985,136.2822270000006,131.41015599999992,133.58984400000008,122.56396500000028,107.30761700000039,115.51269500000035,109.61523400000078,112.17968800000017,109.87158199999976,127.82031300000017,113.84619099999964,142.43603499999972,121.79492200000004
328,141.6665039999998,137.56396500000028,131.79492200000004,131.9228520000006,119.74365200000011,110.38476599999922,112.43603499999972,107.56396500000028,111.2822270000006,109.35888699999941,128.0771479999994,113.46142599999985,137.43603499999972,118.9741210000002
329,143.58984400000008,138.84619099999964,136.2822270000006,131.2822270000006,120.51269500000035,114.10253900000043,114.87158199999976,109.35888699999941,113.3334960000002,115.12841800000024,131.41015599999992,115.12841800000024,138.7177729999994,115.0
330,147.56396500000028,140.12841800000024,143.0771479999994,132.56396500000028,124.35888699999941,116.41015599999992,120.51269500000035,113.9741210000002,116.53857400000015,122.69238299999961,135.38476599999922,117.30761700000039,144.10253900000043,111.53857400000015
331,149.7436520000001,140.38476599999922,147.82031300000017,135.12841800000024,129.10253900000043,116.0258789999998,124.74365200000011,117.69238299999961,118.20507799999996,127.56396500000028,137.43603499999972,118.84619099999964,149.48730499999965,110.12841800000024
332,147.05126999999993,138.3334960000002,146.9228520000006,136.53857400000015,131.6665039999998,113.58984400000008,124.23095699999976,117.56396500000028,117.17968800000017,127.17968800000017,136.79492200000004,118.9741210000002,151.0258789999998,110.89746099999957
333,138.9741210000002,133.0771479999994,140.51269500000035,134.61523400000078,130.12841800000024,110.76904300000024,118.9741210000002,112.69238299999961,114.35888699999941,121.79492200000004,134.48730499999965,117.82031300000017,147.6923829999996,112.43603499999972
334,129.7436520000001,126.6665039999998,132.6923829999996,128.9741210000002,124.23095699999976,109.48730499999965,112.94873000000007,105.51269500000035,111.9228520000006,115.12841800000024,131.79492200000004,116.53857400000015,141.2822270000006,113.46142599999985
335,125.12841800000024,122.56396500000028,129.23095699999976,122.56396500000028,115.38476599999922,110.51269500000035,110.51269500000035,100.51269500000035,111.6665039999998,111.79492200000004,130.12841800000024,116.15380900000036,135.38476599999922,113.7177729999994
336,128.46142599999985,123.20507799999996,132.82031300000017,118.9741210000002,107.17968800000017,113.20507799999996,112.56396500000028,100.38476599999922,113.84619099999964,114.48730499999965,129.87158199999976,116.6665039999998,132.94873000000007,113.3334960000002
337,137.56396500000028,127.69238299999961,140.76904300000024,119.61523400000078,103.7177729999994,115.89746099999957,116.0258789999998,104.35888699999941,116.79492200000004,121.15380900000036,130.38476599999922,117.56396500000028,134.87158199999976,112.56396500000028
338,146.2822270000006,132.17968800000017,147.43603499999972,123.20507799999996,107.17968800000017,117.30761700000039,117.82031300000017,109.48730499999965,118.58984400000008,126.9228520000006,130.89746099999957,117.82031300000017,139.7436520000001,112.17968800000017
339,150.0,134.61523400000078,149.3588869999994,127.94873000000007,116.6665039999998,117.43603499999972,117.30761700000039,113.58984400000008,118.84619099999964,128.58984400000008,131.41015599999992,117.43603499999972,145.2563479999999,112.82031300000017
340,148.0771479999994,134.7436520000001,147.05126999999993,132.56396500000028,127.43603499999972,116.9228520000006,116.0258789999998,116.15380900000036,118.20507799999996,126.9228520000006,132.6923829999996,117.05126999999993,149.48730499999965,114.87158199999976
341,143.7177729999994,134.10253900000043,144.10253900000043,135.6411130000006,133.7177729999994,115.89746099999957,115.38476599999922,117.43603499999972,117.82031300000017,124.87158199999976,134.7436520000001,117.17968800000017,151.6665039999998,117.05126999999993
342,140.6411130000006,133.20507799999996,143.3334960000002,136.0258789999998,132.05126999999993,114.61523400000078,114.87158199999976,116.9228520000006,118.0771479999994,124.10253900000043,136.6665039999998,117.69238299999961,151.53857400000015,117.94873000000007
343,140.6411130000006,132.05126999999993,144.7436520000001,133.58984400000008,124.35888699999941,114.10253900000043,113.7177729999994,114.74365200000011,118.84619099999964,124.74365200000011,137.6923829999996,118.46142599999985,150.2563479999999,117.43603499999972
344,142.3076170000004,130.0,146.15380900000036,129.23095699999976,116.2822270000006,114.74365200000011,111.9228520000006,111.53857400000015,119.87158199999976,125.89746099999957,137.17968800000017,119.10253900000043,149.23095699999976,116.0258789999998
345,142.56396500000028,126.0258789999998,144.61523400000078,124.48730499999965,112.43603499999972,116.0258789999998,110.25634799999989,109.10253900000043,120.0,126.6665039999998,135.12841800000024,119.35888699999941,148.58984400000008,114.61523400000078
346,139.10253900000043,120.0,138.9741210000002,120.38476599999922,112.56396500000028,116.6665039999998,109.61523400000078,107.82031300000017,118.58984400000008,126.2822270000006,131.79492200000004,118.46142599999985,146.6665039999998,113.46142599999985
347,131.9228520000006,113.7177729999994,131.41015599999992,117.56396500000028,113.46142599999985,116.15380900000036,109.87158199999976,107.82031300000017,116.15380900000036,124.87158199999976,127.43603499999972,115.89746099999957,142.43603499999972,112.56396500000028
348,125.0,111.41015599999992,126.2822270000006,117.56396500000028,113.20507799999996,114.61523400000078,111.2822270000006,109.61523400000078,115.12841800000024,124.35888699999941,124.10253900000043,112.94873000000007,137.82031300000017,112.43603499999972
349,123.58984400000008,115.89746099999957,127.30761700000039,121.6665039999998,112.56396500000028,113.20507799999996,113.84619099999964,113.58984400000008,117.82031300000017,127.30761700000039,124.35888699999941,112.43603499999972,136.6665039999998,112.94873000000007
350,129.48730499999965,125.51269500000035,133.7177729999994,129.61523400000078,113.20507799999996,112.17968800000017,117.43603499999972,119.10253900000043,124.35888699999941,133.46142599999985,129.23095699999976,115.12841800000024,140.2563479999999,113.46142599999985
351,138.46142599999985,133.84619099999964,140.89746099999957,137.17968800000017,115.25634799999989,111.53857400000015,120.51269500000035,123.7177729999994,131.6665039999998,139.48730499999965,135.76904300000024,118.58984400000008,145.2563479999999,113.46142599999985
352,143.0771479999994,135.38476599999922,143.7177729999994,139.87158199999976,116.79492200000004,111.9228520000006,120.89746099999957,124.23095699999976,135.12841800000024,141.15380900000036,138.84619099999964,119.35888699999941,146.6665039999998,113.0771479999994
353,139.87158199999976,129.87158199999976,140.76904300000024,137.05126999999993,116.53857400000015,113.9741210000002,117.56396500000028,120.38476599999922,132.17968800000017,138.3334960000002,135.89746099999957,115.89746099999957,142.82031300000017,112.43603499999972
354,131.9228520000006,122.30761700000039,135.12841800000024,132.82031300000017,115.38476599999922,116.79492200000004,111.79492200000004,115.12841800000024,124.87158199999976,134.61523400000078,128.3334960000002,110.38476599999922,136.9228520000006,111.9228520000006
355,125.51269500000035,117.82031300000017,130.38476599999922,131.15380900000036,114.87158199999976,117.82031300000017,106.6665039999998,111.79492200000004,117.94873000000007,133.0771479999994,121.15380900000036,106.6665039999998,133.3334960000002,111.9228520000006
356,124.23095699999976,117.43603499999972,128.20507799999996,132.05126999999993,114.61523400000078,115.89746099999957,103.84619099999964,111.15380900000036,114.48730499999965,132.43603499999972,117.43603499999972,106.2822270000006,133.20507799999996,112.17968800000017
357,126.15380900000036,118.58984400000008,127.43603499999972,132.05126999999993,112.69238299999961,111.9228520000006,102.94873000000007,111.79492200000004,114.10253900000043,129.3588869999994,117.17968800000017,108.20507799999996,134.10253900000043,112.56396500000028
358,127.69238299999961,117.94873000000007,126.41015599999992,128.0771479999994,107.94873000000007,108.3334960000002,102.56396500000028,111.2822270000006,114.35888699999941,122.69238299999961,117.82031300000017,108.9741210000002,133.0771479999994,112.69238299999961
359,127.05126999999993,115.12841800000024,124.87158199999976,120.89746099999957,101.6665039999998,106.79492200000004,101.79492200000004,109.61523400000078,113.7177729999994,115.25634799999989,117.17968800000017,106.79492200000004,130.0,112.56396500000028
360,125.0,112.43603499999972,124.35888699999941,115.12841800000024,97.69238299999961,107.69238299999961,101.2822270000006,108.0771479999994,113.46142599999985,112.56396500000028,116.15380900000036,103.3334960000002,128.0771479999994,112.56396500000028
361,124.35888699999941,112.56396500000028,126.15380900000036,115.0,99.74365200000011,110.0,102.30761700000039,108.46142599999985,116.0258789999998,117.43603499999972,117.43603499999972,102.30761700000039,130.89746099999957,112.82031300000017
362,127.05126999999993,116.2822270000006,130.12841800000024,121.53857400000015,108.0771479999994,112.30761700000039,106.53857400000015,111.41015599999992,122.05126999999993,128.7177729999994,122.56396500000028,106.0258789999998,138.58984400000008,113.58984400000008
363,132.3076170000004,120.89746099999957,134.3588869999994,131.2822270000006,118.58984400000008,113.46142599999985,113.20507799999996,115.89746099999957,129.10253900000043,140.89746099999957,129.3588869999994,112.56396500000028,147.56396500000028,114.10253900000043
364,136.79492200000004,122.05126999999993,136.41015599999992,138.20507799999996,125.12841800000024,112.82031300000017,119.10253900000043,119.35888699999941,133.0771479999994,147.94873000000007,133.46142599999985,117.05126999999993,152.05126999999993,114.10253900000043
365,137.56396500000028,117.94873000000007,135.12841800000024,138.3334960000002,124.23095699999976,111.6665039999998,121.0258789999998,119.61523400000078,130.6411130000006,146.41015599999992,131.79492200000004,116.41015599999992,148.46142599999985,113.46142599999985
366,134.10253900000043,111.9228520000006,131.9228520000006,132.3076170000004,117.94873000000007,111.2822270000006,118.7177729999994,117.17968800000017,123.46142599999985,138.7177729999994,126.15380900000036,111.79492200000004,138.84619099999964,112.56396500000028
367,130.12841800000024,110.38476599999922,129.7436520000001,125.89746099999957,112.43603499999972,111.9228520000006,115.0,114.87158199999976,116.79492200000004,131.2822270000006,122.05126999999993,107.56396500000028,130.2563479999999,112.17968800000017
368,128.9741210000002,116.53857400000015,130.2563479999999,124.48730499999965,112.94873000000007,112.56396500000028,113.0771479999994,115.12841800000024,115.25634799999989,128.7177729999994,123.0771479999994,107.05126999999993,128.9741210000002,112.69238299999961
369,130.76904300000024,126.53857400000015,132.56396500000028,128.84619099999964,118.20507799999996,112.30761700000039,112.94873000000007,117.30761700000039,118.20507799999996,130.38476599999922,127.56396500000028,110.0,133.9741210000002,113.9741210000002
370,132.43603499999972,132.56396500000028,133.46142599999985,133.7177729999994,122.43603499999972,111.53857400000015,112.05126999999993,118.84619099999964,121.15380900000036,131.79492200000004,129.61523400000078,112.56396500000028,138.7177729999994,115.38476599999922
371,131.15380900000036,130.2563479999999,131.6665039999998,134.10253900000043,120.51269500000035,110.76904300000024,109.35888699999941,117.82031300000017,121.0258789999998,130.51269500000035,125.76904300000024,112.05126999999993,137.82031300000017,115.64111300000059
372,128.0771479999994,122.17968800000017,128.84619099999964,129.23095699999976,113.7177729999994,110.76904300000024,106.2822270000006,115.38476599999922,118.7177729999994,128.58984400000008,118.0771479999994,109.23095699999976,132.3076170000004,114.48730499999965
373,126.41015599999992,115.12841800000024,127.82031300000017,122.94873000000007,108.0771479999994,111.41015599999992,105.12841800000024,114.10253900000043,117.56396500000028,129.3588869999994,112.43603499999972,107.94873000000007,127.30761700000039,113.0771479999994
374,128.46142599999985,114.74365200000011,129.7436520000001,120.12841800000024,109.23095699999976,112.17968800000017,106.6665039999998,115.12841800000024,119.87158199999976,133.9741210000002,113.84619099999964,110.25634799999989,127.30761700000039,112.94873000000007
375,133.0771479999994,120.89746099999957,133.46142599999985,122.30761700000039,117.43603499999972,112.30761700000039,109.35888699999941,117.56396500000028,125.25634799999989,139.48730499999965,122.05126999999993,115.25634799999989,132.43603499999972,114.10253900000043
376,137.17968800000017,129.61523400000078,136.9228520000006,127.43603499999972,127.43603499999972,111.79492200000004,111.0258789999998,119.48730499999965,130.89746099999957,142.6923829999996,131.9228520000006,119.48730499999965,139.61523400000078,115.38476599999922
377,138.7177729999994,135.51269500000035,138.20507799999996,131.79492200000004,132.17968800000017,111.2822270000006,111.0258789999998,120.25634799999989,134.23095699999976,142.82031300000017,137.82031300000017,120.51269500000035,145.0,115.64111300000059
378,137.56396500000028,135.76904300000024,136.9228520000006,132.43603499999972,128.46142599999985,111.2822270000006,110.51269500000035,120.0,134.10253900000043,140.51269500000035,136.53857400000015,118.46142599999985,146.41015599999992,114.35888699999941
379,135.0,132.05126999999993,134.48730499999965,129.48730499999965,119.35888699999941,111.79492200000004,110.89746099999957,119.10253900000043,131.6665039999998,137.43603499999972,129.87158199999976,115.51269500000035,144.3588869999994,112.30761700000039
380,132.82031300000017,128.84619099999964,132.94873000000007,125.51269500000035,112.05126999999993,112.05126999999993,112.43603499999972,117.94873000000007,128.20507799999996,134.23095699999976,123.0771479999994,113.46142599999985,141.15380900000036,110.38476599999922
381,132.94873000000007,129.61523400000078,134.23095699999976,124.23095699999976,112.30761700000039,112.05126999999993,114.10253900000043,117.17968800000017,125.0,131.2822270000006,120.89746099999957,113.7177729999994,138.7177729999994,110.0
382,135.2563479999999,133.46142599999985,138.20507799999996,126.6665039999998,120.38476599999922,112.17968800000017,115.38476599999922,117.43603499999972,122.17968800000017,129.23095699999976,124.10253900000043,116.15380900000036,137.6923829999996,110.89746099999957
383,138.0771479999994,135.89746099999957,142.56396500000028,129.48730499999965,130.0,112.17968800000017,115.64111300000059,118.3334960000002,120.0,128.84619099999964,128.9741210000002,119.10253900000043,136.53857400000015,112.43603499999972
