,EEG.AF3,EEG.F7,EEG.F3,EEG.FC5,EEG.T7,EEG.P7,EEG.O1,EEG.O2,EEG.P8,EEG.T8,EEG.FC6,EEG.F4,EEG.F8,EEG.AF4
0,103.9741210000002,105.51269500000035,136.0258789999998,173.46142599999985,109.87158199999976,117.30761700000039,104.23095699999976,104.10253900000043,106.41015599999992,103.84619099999964,101.53857400000015,110.12841800000024,75.76904300000024,114.48730499999965
1,104.48730499999965,107.82031300000017,133.58984400000008,176.0258789999998,102.30761700000039,112.05126999999993,102.82031300000017,98.7177729999994,102.56396500000028,107.05126999999993,102.94873000000007,105.64111300000059,85.25634799999989,113.9741210000002
2,102.17968800000017,107.30761700000039,130.12841800000024,175.76904300000024,100.0,106.15380900000036,100.25634799999989,95.64111300000059,101.41015599999992,109.87158199999976,100.89746099999957,102.56396500000028,91.6665039999998,113.58984400000008
3,100.12841800000024,102.56396500000028,129.61523400000078,173.9741210000002,106.53857400000015,103.9741210000002,98.7177729999994,97.05126999999993,104.10253900000043,113.9741210000002,100.12841800000024,104.10253900000043,96.0258789999998,112.94873000000007
4,100.76904300000024,95.12841800000024,132.82031300000017,172.3076170000004,118.58984400000008,106.6665039999998,99.61523400000078,101.0258789999998,108.46142599999985,118.9741210000002,103.7177729999994,109.87158199999976,99.35888699999941,111.6665039999998
5,103.58984400000008,86.6665039999998,136.0258789999998,170.51269500000035,127.17968800000017,111.6665039999998,101.6665039999998,102.69238299999961,109.61523400000078,121.0258789999998,108.9741210000002,115.64111300000059,101.53857400000015,110.64111300000059
6,105.64111300000059,77.69238299999961,135.38476599999922,166.9228520000006,125.51269500000035,115.12841800000024,101.79492200000004,98.3334960000002,104.74365200000011,116.6665039999998,111.41015599999992,117.30761700000039,101.53857400000015,110.76904300000024
7,104.23095699999976,69.35888699999941,130.38476599999922,160.6411130000006,114.87158199999976,115.51269500000035,99.23095699999976,89.61523400000078,96.6665039999998,107.94873000000007,109.23095699999976,114.23095699999976,101.0258789999998,111.9228520000006
8,99.23095699999976,63.0771479999994,124.35888699999941,153.3334960000002,103.0771479999994,113.84619099999964,95.89746099999957,82.43603499999972,92.56396500000028,102.30761700000039,105.51269500000035,109.74365200000011,103.58984400000008,112.94873000000007
9,92.69238299999961,59.48730499999965,121.2822270000006,146.41015599999992,97.30761700000039,112.43603499999972,95.12841800000024,82.17968800000017,96.6665039999998,105.38476599999922,104.48730499999965,107.30761700000039,111.2822270000006,113.20507799999996
10,87.56396500000028,57.30761700000039,122.30761700000039,140.89746099999957,99.61523400000078,112.82031300000017,98.58984400000008,90.12841800000024,107.69238299999961,116.53857400000015,107.69238299999961,107.56396500000028,122.56396500000028,113.20507799999996
11,85.0,53.846190999999635,125.12841800000024,137.56396500000028,107.43603499999972,114.61523400000078,105.12841800000024,102.69238299999961,120.51269500000035,129.48730499999965,112.94873000000007,108.3334960000002,132.56396500000028,113.84619099999964
12,83.3334960000002,46.410155999999915,125.89746099999957,135.89746099999957,116.41015599999992,116.9228520000006,111.53857400000015,113.9741210000002,130.2563479999999,137.94873000000007,117.17968800000017,107.82031300000017,137.3076170000004,114.87158199999976
13,79.10253900000043,33.974121000000196,121.9228520000006,133.58984400000008,122.43603499999972,118.46142599999985,114.61523400000078,119.61523400000078,135.0,139.23095699999976,118.3334960000002,105.38476599999922,135.76904300000024,115.38476599999922
14,70.38476599999922,17.43603499999972,113.7177729999994,127.56396500000028,123.3334960000002,118.46142599999985,113.46142599999985,119.35888699999941,135.2563479999999,135.89746099999957,116.6665039999998,101.79492200000004,131.41015599999992,115.12841800000024
15,60.12841800000024,0.38476599999921746,105.0,117.43603499999972,120.25634799999989,116.79492200000004,110.51269500000035,116.41015599999992,133.3334960000002,132.43603499999972,114.87158199999976,98.84619099999964,129.3588869999994,113.7177729999994
16,53.589844000000085,-12.948729999999614,100.64111300000059,106.9228520000006,115.38476599999922,114.48730499999965,109.48730499999965,115.51269500000035,131.53857400000015,131.9228520000006,115.38476599999922,97.82031300000017,133.58984400000008,112.05126999999993
17,53.974121000000196,-20.89746100000002,102.69238299999961,100.64111300000059,110.51269500000035,113.0771479999994,113.0771479999994,118.84619099999964,131.9228520000006,134.10253900000043,119.48730499999965,98.58984400000008,143.0771479999994,111.0258789999998
18,59.87158199999976,-25.769286999999622,109.48730499999965,99.87158199999976,105.76904300000024,113.58984400000008,120.76904300000024,125.0,134.7436520000001,136.79492200000004,126.2822270000006,100.12841800000024,154.23095699999976,111.53857400000015
19,66.2822270000006,-31.28198199999997,116.53857400000015,101.41015599999992,100.89746099999957,115.0,129.10253900000043,130.76904300000024,138.7177729999994,138.84619099999964,133.20507799999996,101.53857400000015,163.0771479999994,113.0771479999994
20,68.84619099999964,-40.0,120.38476599999922,101.15380900000036,97.30761700000039,116.15380900000036,134.7436520000001,134.23095699999976,143.0771479999994,141.9228520000006,139.10253900000043,103.3334960000002,168.58984400000008,114.23095699999976
21,66.15380900000036,-50.76928699999962,120.51269500000035,97.82031300000017,98.3334960000002,116.53857400000015,135.6411130000006,136.41015599999992,147.6923829999996,149.10253900000043,144.3588869999994,107.05126999999993,172.94873000000007,113.9741210000002
22,60.25634799999989,-60.1281740000004,118.9741210000002,93.20507799999996,105.76904300000024,116.41015599999992,133.0771479999994,138.9741210000002,153.20507799999996,161.0258789999998,150.6411130000006,112.30761700000039,178.46142599999985,112.82031300000017
23,54.61523400000078,-66.66674799999964,116.9228520000006,89.35888699999941,116.2822270000006,115.64111300000059,129.10253900000043,141.79492200000004,157.94873000000007,172.82031300000017,156.9228520000006,116.53857400000015,184.61523400000078,112.05126999999993
24,50.64111300000059,-72.05127000000039,113.9741210000002,85.25634799999989,122.43603499999972,114.87158199999976,125.38476599999922,142.94873000000007,158.46142599999985,176.41015599999992,159.87158199999976,115.76904300000024,187.82031300000017,112.56396500000028
25,47.05126999999993,-80.0,109.35888699999941,79.10253900000043,118.20507799999996,114.74365200000011,122.05126999999993,140.6411130000006,152.82031300000017,167.56396500000028,155.6411130000006,109.35888699999941,184.48730499999965,113.7177729999994
26,42.30761700000039,-91.02563499999997,103.84619099999964,71.15380900000036,104.87158199999976,115.51269500000035,118.7177729999994,135.89746099999957,143.58984400000008,150.0,145.12841800000024,101.15380900000036,174.87158199999976,114.48730499999965
27,37.05126999999993,-100.76928699999962,99.23095699999976,64.35888699999941,91.2822270000006,116.41015599999992,116.53857400000015,131.41015599999992,136.2822270000006,134.10253900000043,133.3334960000002,95.89746099999957,163.20507799999996,114.23095699999976
28,33.333496000000196,-103.71801800000003,97.43603499999972,62.30761700000039,86.9228520000006,116.41015599999992,116.79492200000004,129.48730499999965,135.51269500000035,129.3588869999994,126.6665039999998,95.76904300000024,155.38476599999922,113.3334960000002
29,33.0771479999994,-97.30761700000039,98.3334960000002,66.41015599999992,94.87158199999976,115.38476599999922,120.0,130.2563479999999,140.76904300000024,137.94873000000007,127.94873000000007,99.10253900000043,155.0,112.69238299999961
30,35.76904300000024,-85.1281740000004,100.76904300000024,74.61523400000078,109.87158199999976,114.61523400000078,124.87158199999976,131.6665039999998,148.0771479999994,154.23095699999976,134.48730499999965,102.17968800000017,160.89746099999957,112.94873000000007
31,38.46142599999985,-73.97436500000003,103.20507799999996,82.30761700000039,122.69238299999961,115.0,128.9741210000002,131.79492200000004,152.82031300000017,168.3334960000002,141.2822270000006,103.0771479999994,168.3334960000002,114.23095699999976
32,39.102539000000434,-69.10253899999998,104.23095699999976,85.51269500000035,126.2822270000006,116.2822270000006,130.38476599999922,129.87158199999976,152.94873000000007,173.0771479999994,143.7177729999994,102.17968800000017,171.9228520000006,115.51269500000035
33,37.69238299999961,-71.41015600000037,103.46142599999985,84.35888699999941,120.51269500000035,117.17968800000017,128.0771479999994,127.30761700000039,149.87158199999976,167.3076170000004,140.89746099999957,101.0258789999998,169.61523400000078,116.0258789999998
34,36.53857400000015,-76.66674799999964,101.2822270000006,81.9228520000006,112.30761700000039,117.17968800000017,123.3334960000002,125.76904300000024,146.15380900000036,156.0258789999998,136.0258789999998,100.25634799999989,162.56396500000028,115.25634799999989
35,36.666503999999804,-79.74365200000011,99.23095699999976,81.6665039999998,109.23095699999976,116.79492200000004,118.46142599999985,126.15380900000036,144.48730499999965,146.41015599999992,132.6923829999996,99.74365200000011,154.48730499999965,113.9741210000002
36,36.9228520000006,-78.46142599999985,97.82031300000017,83.84619099999964,113.20507799999996,116.6665039999998,115.76904300000024,127.30761700000039,145.6411130000006,143.9741210000002,131.6665039999998,98.58984400000008,148.3334960000002,112.94873000000007
37,35.0,-74.10253899999998,96.9228520000006,85.51269500000035,119.87158199999976,116.79492200000004,115.64111300000059,127.82031300000017,148.3334960000002,149.10253900000043,130.76904300000024,96.0258789999998,144.87158199999976,112.56396500000028
38,30.51269500000035,-70.89746100000002,96.0258789999998,83.58984400000008,123.3334960000002,116.2822270000006,116.79492200000004,127.56396500000028,150.2563479999999,157.94873000000007,127.30761700000039,92.17968800000017,142.6923829999996,112.56396500000028
39,25.0,-71.92309599999999,94.61523400000078,78.3334960000002,120.64111300000059,115.51269500000035,117.43603499999972,127.43603499999972,149.87158199999976,164.48730499999965,121.2822270000006,88.9741210000002,139.7436520000001,112.94873000000007
40,20.384765999999217,-77.05127000000039,93.20507799999996,72.43603499999972,113.58984400000008,115.38476599999922,116.41015599999992,128.3334960000002,147.6923829999996,164.3588869999994,116.41015599999992,87.69238299999961,135.2563479999999,113.46142599999985
41,17.69238299999961,-83.46142599999985,92.30761700000039,69.23095699999976,106.79492200000004,116.2822270000006,114.61523400000078,130.38476599999922,146.2822270000006,158.46142599999985,115.64111300000059,88.84619099999964,129.7436520000001,113.9741210000002
42,17.17968800000017,-87.43579099999943,92.69238299999961,69.23095699999976,103.58984400000008,117.69238299999961,113.7177729999994,132.94873000000007,147.3076170000004,150.89746099999957,118.7177729999994,91.2822270000006,125.0,114.23095699999976
43,18.589844000000085,-86.79492200000004,94.23095699999976,70.76904300000024,104.74365200000011,117.82031300000017,114.74365200000011,135.38476599999922,150.76904300000024,146.9228520000006,122.05126999999993,93.84619099999964,121.6665039999998,114.23095699999976
44,21.282227000000603,-82.05127000000039,96.41015599999992,71.2822270000006,108.0771479999994,115.76904300000024,116.6665039999998,136.79492200000004,154.10253900000043,148.46142599999985,122.69238299999961,95.38476599999922,119.48730499999965,114.35888699999941
45,25.128418000000238,-76.28198199999997,98.3334960000002,70.12841800000024,111.15380900000036,112.43603499999972,117.69238299999961,136.0258789999998,155.38476599999922,153.9741210000002,120.25634799999989,95.89746099999957,117.56396500000028,114.48730499999965
46,30.25634799999989,-72.05127000000039,99.23095699999976,68.84619099999964,113.20507799999996,109.87158199999976,117.94873000000007,133.58984400000008,153.9741210000002,158.9741210000002,118.0771479999994,95.89746099999957,116.53857400000015,114.10253900000043
47,36.9228520000006,-69.10253899999998,99.61523400000078,69.74365200000011,115.38476599999922,109.87158199999976,118.7177729999994,131.0258789999998,151.15380900000036,160.12841800000024,119.35888699999941,96.6665039999998,117.69238299999961,113.20507799999996
48,42.94873000000007,-67.05127000000039,100.25634799999989,72.69238299999961,118.58984400000008,112.43603499999972,120.38476599999922,130.0,147.82031300000017,156.41015599999992,124.10253900000043,98.9741210000002,121.15380900000036,112.30761700000039
49,43.974121000000196,-66.28198199999997,100.76904300000024,75.12841800000024,120.64111300000059,115.89746099999957,121.41015599999992,130.0,144.23095699999976,150.0,128.0771479999994,101.79492200000004,124.87158199999976,111.9228520000006
50,37.56396500000028,-67.69238299999961,99.74365200000011,74.35888699999941,117.69238299999961,117.69238299999961,119.74365200000011,128.9741210000002,140.12841800000024,144.61523400000078,127.05126999999993,102.82031300000017,125.51269500000035,111.79492200000004
51,26.666503999999804,-70.51293900000019,97.56396500000028,70.51269500000035,109.48730499999965,116.6665039999998,116.0258789999998,126.6665039999998,136.79492200000004,143.7177729999994,121.2822270000006,101.53857400000015,122.17968800000017,111.6665039999998
52,18.846190999999635,-71.53857400000015,96.6665039999998,66.53857400000015,100.38476599999922,114.48730499999965,113.3334960000002,125.0,136.9228520000006,149.10253900000043,116.53857400000015,99.61523400000078,117.56396500000028,111.2822270000006
53,20.641113000000587,-67.94872999999961,99.61523400000078,65.89746099999957,97.05126999999993,113.3334960000002,115.25634799999989,127.30761700000039,142.43603499999972,159.87158199999976,118.46142599999985,99.48730499999965,116.15380900000036,110.89746099999957
54,32.56396500000028,-60.38452099999995,106.15380900000036,69.23095699999976,103.20507799999996,114.35888699999941,122.17968800000017,134.3588869999994,152.05126999999993,172.05126999999993,127.43603499999972,101.79492200000004,120.51269500000035,110.64111300000059
55,48.0771479999994,-52.30761700000039,113.20507799999996,74.10253900000043,116.15380900000036,116.53857400000015,130.89746099999957,143.20507799999996,161.9228520000006,181.15380900000036,137.94873000000007,105.51269500000035,128.46142599999985,111.0258789999998
56,58.0771479999994,-47.051270000000386,117.17968800000017,77.56396500000028,128.7177729999994,118.0771479999994,136.9228520000006,149.3588869999994,167.3076170000004,184.10253900000043,142.56396500000028,108.7177729999994,135.76904300000024,112.30761700000039
57,57.05126999999993,-46.92309599999999,115.51269500000035,78.0771479999994,133.58984400000008,117.69238299999961,137.05126999999993,149.7436520000001,165.89746099999957,180.2563479999999,138.20507799999996,109.74365200000011,137.56396500000028,113.7177729999994
58,45.897460999999566,-52.435790999999426,108.84619099999964,75.0,128.20507799999996,116.15380900000036,131.53857400000015,144.61523400000078,158.0771479999994,170.2563479999999,127.56396500000028,107.56396500000028,131.0258789999998,114.35888699999941
59,30.641113000000587,-62.17944299999999,100.25634799999989,68.7177729999994,115.25634799999989,114.87158199999976,123.46142599999985,136.15380900000036,147.43603499999972,156.41015599999992,116.15380900000036,102.05126999999993,116.79492200000004,114.10253900000043
60,18.589844000000085,-72.56420900000057,93.0771479999994,59.87158199999976,101.79492200000004,114.61523400000078,116.6665039999998,128.9741210000002,138.84619099999964,142.17968800000017,107.69238299999961,94.74365200000011,100.0,113.46142599999985
61,14.487304999999651,-79.10253899999998,89.48730499999965,49.74365200000011,93.9741210000002,115.12841800000024,113.58984400000008,126.53857400000015,135.38476599999922,132.05126999999993,102.82031300000017,88.7177729999994,87.69238299999961,113.46142599999985
62,17.30761700000039,-79.35888699999987,88.9741210000002,40.51269500000035,94.48730499999965,115.51269500000035,114.35888699999941,129.61523400000078,137.56396500000028,129.10253900000043,100.64111300000059,85.89746099999957,84.61523400000078,114.10253900000043
63,22.56396500000028,-74.74365200000011,89.23095699999976,32.94873000000007,100.38476599999922,115.51269500000035,117.43603499999972,135.6411130000006,142.82031300000017,133.46142599999985,100.38476599999922,86.41015599999992,89.23095699999976,115.12841800000024
64,25.384765999999217,-69.48706099999981,88.3334960000002,26.666503999999804,105.76904300000024,115.51269500000035,121.0258789999998,140.38476599999922,147.43603499999972,141.53857400000015,101.2822270000006,88.20507799999996,95.12841800000024,116.0258789999998
65,24.615234000000783,-67.30761700000039,86.41015599999992,20.384765999999217,106.2822270000006,115.89746099999957,124.10253900000043,141.53857400000015,148.84619099999964,147.6923829999996,102.30761700000039,89.48730499999965,96.0258789999998,116.41015599999992
66,22.82031300000017,-68.33325200000036,85.38476599999922,13.846190999999635,103.0771479999994,116.15380900000036,126.15380900000036,140.0,147.43603499999972,148.58984400000008,103.20507799999996,90.12841800000024,91.15380900000036,115.51269500000035
67,23.589844000000085,-69.23071300000038,86.9228520000006,8.589844000000085,100.38476599999922,116.15380900000036,127.69238299999961,138.7177729999994,146.0258789999998,145.89746099999957,104.48730499999965,90.64111300000059,85.38476599999922,113.84619099999964
68,27.82031300000017,-68.07690400000001,90.12841800000024,5.641113000000587,100.64111300000059,115.76904300000024,128.46142599999985,140.0,147.05126999999993,144.23095699999976,106.53857400000015,91.6665039999998,84.23095699999976,112.56396500000028
69,33.46142599999985,-65.89746100000002,93.20507799999996,4.743652000000111,103.0771479999994,115.12841800000024,128.58984400000008,143.20507799999996,150.6411130000006,146.9228520000006,108.7177729999994,93.0771479999994,89.35888699999941,112.56396500000028
70,37.94873000000007,-65.38452099999995,95.0,4.230956999999762,105.12841800000024,114.87158199999976,128.58984400000008,146.79492200000004,154.48730499999965,152.82031300000017,109.61523400000078,94.74365200000011,97.69238299999961,113.3334960000002
71,40.25634799999989,-67.05127000000039,95.89746099999957,2.9487300000000687,105.89746099999957,115.25634799999989,129.10253900000043,149.23095699999976,156.15380900000036,157.6923829999996,108.3334960000002,95.89746099999957,103.84619099999964,113.9741210000002
72,40.51269500000035,-69.35888699999987,96.2822270000006,0.38476599999921746,105.89746099999957,116.15380900000036,130.6411130000006,149.87158199999976,154.61523400000078,156.79492200000004,105.12841800000024,96.0258789999998,103.9741210000002,113.9741210000002
73,39.48730499999965,-70.89746100000002,95.76904300000024,-3.3334960000001956,105.25634799999989,116.9228520000006,132.3076170000004,148.7177729999994,150.2563479999999,148.58984400000008,101.41015599999992,94.87158199999976,98.58984400000008,114.35888699999941
74,37.94873000000007,-70.89746100000002,94.23095699999976,-7.692382999999609,103.9741210000002,117.17968800000017,132.6923829999996,145.76904300000024,144.7436520000001,136.53857400000015,98.58984400000008,93.20507799999996,91.2822270000006,115.25634799999989
75,36.9228520000006,-69.23071300000038,92.43603499999972,-11.794922000000042,102.82031300000017,116.53857400000015,131.41015599999992,142.3076170000004,140.89746099999957,127.30761700000039,97.82031300000017,92.82031300000017,86.15380900000036,116.15380900000036
76,37.43603499999972,-66.66674799999964,91.6665039999998,-14.487060999999812,103.3334960000002,115.76904300000024,129.10253900000043,140.6411130000006,141.0258789999998,126.15380900000036,99.23095699999976,94.61523400000078,84.61523400000078,116.0258789999998
77,40.0,-64.74365200000011,92.56396500000028,-15.256347999999889,106.15380900000036,115.12841800000024,127.43603499999972,141.53857400000015,144.87158199999976,133.46142599999985,101.79492200000004,97.69238299999961,85.0,114.87158199999976
78,43.974121000000196,-63.974365000000034,94.61523400000078,-14.358886999999868,110.0,115.12841800000024,127.43603499999972,144.23095699999976,150.38476599999922,144.10253900000043,103.9741210000002,99.87158199999976,85.38476599999922,113.7177729999994
79,48.46142599999985,-62.82055700000001,97.05126999999993,-11.923095999999987,112.82031300000017,115.38476599999922,128.9741210000002,146.15380900000036,155.0,152.3076170000004,105.38476599999922,99.87158199999976,86.41015599999992,113.0771479999994
80,52.17968800000017,-58.71801800000003,99.23095699999976,-8.461425999999847,112.82031300000017,115.12841800000024,131.41015599999992,146.0258789999998,157.17968800000017,154.87158199999976,107.30761700000039,98.58984400000008,89.87158199999976,112.82031300000017
81,53.974121000000196,-51.66674799999964,100.38476599999922,-5.128174000000399,110.0,114.35888699999941,132.94873000000007,143.58984400000008,156.41015599999992,152.43603499999972,111.41015599999992,97.56396500000028,95.89746099999957,113.0771479999994
82,53.7177729999994,-44.61547900000005,100.12841800000024,-3.9741210000001956,106.15380900000036,113.46142599999985,132.43603499999972,139.3588869999994,153.20507799999996,147.82031300000017,117.56396500000028,97.69238299999961,101.79492200000004,113.7177729999994
83,52.43603499999972,-40.76928699999962,98.84619099999964,-5.769286999999622,104.74365200000011,112.94873000000007,130.12841800000024,134.48730499999965,149.3588869999994,144.7436520000001,123.0771479999994,98.46142599999985,104.74365200000011,113.7177729999994
84,52.43603499999972,-39.74365200000011,98.58984400000008,-8.974365000000034,108.84619099999964,113.0771479999994,127.30761700000039,130.89746099999957,147.05126999999993,145.51269500000035,124.48730499999965,99.61523400000078,104.48730499999965,112.94873000000007
85,55.38476599999922,-38.71801800000003,100.38476599999922,-10.38452099999995,118.46142599999985,113.9741210000002,125.0,130.51269500000035,147.43603499999972,149.61523400000078,121.2822270000006,100.51269500000035,103.46142599999985,111.6665039999998
86,59.48730499999965,-35.64111300000013,102.94873000000007,-8.974365000000034,128.9741210000002,115.12841800000024,123.58984400000008,132.6923829999996,149.48730499999965,154.23095699999976,115.12841800000024,100.25634799999989,102.94873000000007,111.0258789999998
87,60.64111300000059,-31.923095999999987,102.69238299999961,-6.794922000000042,133.3334960000002,116.2822270000006,122.17968800000017,134.87158199999976,150.0,155.12841800000024,108.20507799999996,97.17968800000017,102.30761700000039,111.15380900000036
88,56.410155999999915,-30.89746100000002,97.94873000000007,-7.948729999999614,127.17968800000017,116.53857400000015,120.12841800000024,134.48730499999965,147.05126999999993,150.38476599999922,101.9228520000006,91.6665039999998,99.35888699999941,111.9228520000006
89,48.7177729999994,-33.974365000000034,90.38476599999922,-13.974365000000034,113.3334960000002,116.0258789999998,118.58984400000008,131.41015599999992,142.05126999999993,142.56396500000028,97.56396500000028,86.0258789999998,93.46142599999985,113.20507799999996
90,42.94873000000007,-38.974365000000034,84.48730499999965,-21.666747999999643,100.38476599999922,115.25634799999989,119.10253900000043,128.20507799999996,139.7436520000001,137.6923829999996,96.41015599999992,83.58984400000008,87.30761700000039,115.38476599999922
91,43.7177729999994,-41.92309599999999,82.94873000000007,-26.025634999999966,96.2822270000006,114.48730499999965,122.82031300000017,127.82031300000017,143.20507799999996,140.0,98.3334960000002,85.38476599999922,84.61523400000078,117.69238299999961
92,50.25634799999989,-41.153809000000365,85.51269500000035,-24.74365200000011,102.82031300000017,114.35888699999941,128.0771479999994,130.76904300000024,151.0258789999998,147.6923829999996,101.6665039999998,88.9741210000002,86.79492200000004,118.9741210000002
93,56.53857400000015,-38.20507799999996,88.9741210000002,-20.25634799999989,114.10253900000043,114.61523400000078,131.53857400000015,134.48730499999965,157.94873000000007,154.10253900000043,103.7177729999994,91.15380900000036,90.89746099999957,118.20507799999996
94,57.05126999999993,-36.41015600000037,90.25634799999989,-18.076904000000013,122.30761700000039,115.12841800000024,130.12841800000024,136.15380900000036,158.58984400000008,153.0771479999994,103.20507799999996,90.0,91.79492200000004,115.51269500000035
95,50.51269500000035,-38.07690400000001,88.0771479999994,-21.538574000000153,122.17968800000017,115.51269500000035,123.84619099999964,134.7436520000001,152.3076170000004,144.10253900000043,100.76904300000024,86.53857400000015,86.79492200000004,112.82031300000017
96,41.53857400000015,-41.92309599999999,84.10253900000043,-29.230713000000378,114.35888699999941,115.51269500000035,116.0258789999998,131.79492200000004,142.94873000000007,132.56396500000028,98.46142599999985,83.84619099999964,77.56396500000028,111.2822270000006
97,36.2822270000006,-44.61547900000005,81.6665039999998,-35.89746100000002,103.84619099999964,115.25634799999989,111.2822270000006,129.61523400000078,136.79492200000004,126.2822270000006,97.94873000000007,84.23095699999976,69.61523400000078,111.15380900000036
98,38.20507799999996,-42.82055700000001,83.46142599999985,-36.28198199999997,96.41015599999992,115.25634799999989,113.46142599999985,129.61523400000078,137.6923829999996,130.0,99.23095699999976,88.20507799999996,68.20507799999996,111.9228520000006
99,46.153809000000365,-35.64111300000013,89.23095699999976,-28.846190999999635,96.0258789999998,115.51269500000035,121.79492200000004,131.9228520000006,144.87158199999976,141.53857400000015,101.2822270000006,93.9741210000002,74.10253900000043,112.30761700000039
100,55.38476599999922,-26.538574000000153,95.76904300000024,-18.205077999999958,101.9228520000006,116.0258789999998,131.15380900000036,135.0,152.94873000000007,153.58984400000008,103.0771479999994,97.94873000000007,82.69238299999961,112.05126999999993
101,60.76904300000024,-21.153809000000365,98.7177729999994,-11.28198199999997,109.35888699999941,116.2822270000006,135.6411130000006,136.53857400000015,155.2563479999999,158.7177729999994,103.84619099999964,97.82031300000017,87.56396500000028,111.53857400000015
102,60.25634799999989,-22.948729999999614,96.2822270000006,-12.051270000000386,112.69238299999961,116.2822270000006,132.43603499999972,135.2563479999999,148.9741210000002,153.84619099999964,102.43603499999972,93.46142599999985,85.0,111.79492200000004
103,55.25634799999989,-30.25634799999989,90.89746099999957,-18.974365000000034,108.3334960000002,115.89746099999957,124.10253900000043,131.9228520000006,137.05126999999993,141.79492200000004,98.7177729999994,88.20507799999996,76.9228520000006,112.94873000000007
104,49.87158199999976,-37.30761700000039,87.05126999999993,-25.38452099999995,98.9741210000002,115.64111300000059,116.41015599999992,128.7177729999994,126.79492200000004,129.3588869999994,95.0,85.38476599999922,68.58984400000008,114.48730499999965
105,48.20507799999996,-37.69238299999961,87.56396500000028,-25.769286999999622,91.53857400000015,115.51269500000035,113.9741210000002,128.20507799999996,124.48730499999965,123.20507799999996,94.74365200000011,87.05126999999993,65.76904300000024,115.12841800000024
106,52.05126999999993,-29.74365200000011,92.82031300000017,-19.358886999999868,92.05126999999993,115.51269500000035,117.43603499999972,130.51269500000035,131.53857400000015,126.41015599999992,99.74365200000011,92.69238299999961,71.0258789999998,114.23095699999976
107,59.87158199999976,-16.666747999999643,100.0,-10.38452099999995,100.51269500000035,115.64111300000059,122.94873000000007,133.84619099999964,143.46142599999985,136.53857400000015,107.43603499999972,99.23095699999976,81.9228520000006,112.69238299999961
108,67.56396500000028,-5.38452099999995,105.0,-4.871825999999601,110.76904300000024,115.89746099999957,125.89746099999957,135.51269500000035,152.82031300000017,147.3076170000004,113.0771479999994,103.9741210000002,92.05126999999993,112.05126999999993
109,70.89746099999957,-1.4101559999999154,105.12841800000024,-5.256347999999889,116.15380900000036,115.51269500000035,124.23095699999976,134.23095699999976,154.23095699999976,152.17968800000017,112.30761700000039,105.0,95.25634799999989,112.43603499999972
110,68.20507799999996,-4.871825999999601,100.89746099999957,-9.102538999999979,115.12841800000024,114.35888699999941,119.87158199999976,130.6411130000006,147.3076170000004,148.0771479999994,105.38476599999922,102.30761700000039,90.25634799999989,113.3334960000002
111,61.2822270000006,-10.897461000000021,96.2822270000006,-12.179442999999992,111.6665039999998,112.69238299999961,118.0771479999994,127.43603499999972,137.3076170000004,137.6923829999996,96.79492200000004,98.20507799999996,81.9228520000006,113.84619099999964
112,54.61523400000078,-13.461425999999847,94.87158199999976,-12.051270000000386,109.87158199999976,111.53857400000015,121.6665039999998,126.41015599999992,130.12841800000024,127.56396500000028,92.43603499999972,95.64111300000059,76.15380900000036,113.7177729999994
113,51.025878999999804,-11.025634999999966,97.05126999999993,-10.0,110.38476599999922,111.41015599999992,128.84619099999964,127.30761700000039,128.84619099999964,123.46142599999985,94.61523400000078,96.0258789999998,75.25634799999989,113.0771479999994
114,51.025878999999804,-6.41015600000037,99.74365200000011,-9.230713000000378,111.15380900000036,112.05126999999993,134.23095699999976,127.82031300000017,131.6665039999998,126.2822270000006,100.64111300000059,98.20507799999996,76.79492200000004,112.30761700000039
115,53.0771479999994,-3.717772999999397,100.0,-10.897461000000021,110.89746099999957,112.94873000000007,134.10253900000043,126.6665039999998,135.2563479999999,131.79492200000004,105.64111300000059,100.0,78.3334960000002,111.6665039999998
116,55.51269500000035,-3.846190999999635,97.69238299999961,-12.948729999999614,110.89746099999957,113.84619099999964,128.9741210000002,124.23095699999976,136.79492200000004,134.61523400000078,106.6665039999998,99.74365200000011,79.23095699999976,111.0258789999998
117,56.79492200000004,-5.512939000000188,94.35888699999941,-12.948729999999614,111.15380900000036,114.35888699999941,122.43603499999972,121.15380900000036,134.87158199999976,131.41015599999992,103.84619099999964,96.53857400000015,80.38476599999922,110.51269500000035
118,56.025878999999804,-7.564209000000574,91.2822270000006,-10.641113000000132,110.25634799999989,114.35888699999941,117.17968800000017,118.20507799999996,129.87158199999976,123.0771479999994,98.9741210000002,91.79492200000004,81.6665039999998,110.51269500000035
119,53.20507799999996,-9.487060999999812,89.10253900000043,-8.076904000000013,107.30761700000039,114.10253900000043,114.23095699999976,116.0258789999998,123.20507799999996,114.48730499999965,94.35888699999941,87.69238299999961,82.05126999999993,111.53857400000015
120,50.38476599999922,-10.256347999999889,88.84619099999964,-7.307617000000391,104.10253900000043,113.9741210000002,113.7177729999994,115.38476599999922,118.3334960000002,111.15380900000036,92.82031300000017,86.2822270000006,81.6665039999998,113.7177729999994
121,50.12841800000024,-7.820557000000008,91.0258789999998,-7.948729999999614,104.35888699999941,114.35888699999941,116.0258789999998,117.56396500000028,118.84619099999964,116.15380900000036,96.0258789999998,88.0771479999994,82.30761700000039,115.76904300000024
122,53.20507799999996,-1.7949220000000423,95.51269500000035,-8.58984399999963,109.74365200000011,115.0,121.2822270000006,122.30761700000039,125.76904300000024,126.79492200000004,103.3334960000002,92.30761700000039,85.0,116.41015599999992
123,58.46142599999985,5.897460999999566,100.51269500000035,-8.205077999999958,118.20507799999996,115.38476599999922,128.46142599999985,127.82031300000017,136.2822270000006,137.3076170000004,111.0258789999998,97.05126999999993,88.9741210000002,115.25634799999989
124,63.46142599999985,12.051269999999931,104.35888699999941,-7.307617000000391,125.89746099999957,115.38476599999922,134.23095699999976,132.17968800000017,145.38476599999922,142.43603499999972,115.51269500000035,100.64111300000059,92.30761700000039,113.46142599999985
125,66.2822270000006,14.487304999999651,105.89746099999957,-6.666747999999643,129.7436520000001,115.25634799999989,135.76904300000024,134.3588869999994,149.48730499999965,141.9228520000006,115.12841800000024,102.69238299999961,93.7177729999994,112.30761700000039
126,65.64111300000059,13.205077999999958,105.12841800000024,-6.794922000000042,128.3334960000002,115.12841800000024,132.3076170000004,134.7436520000001,148.20507799999996,137.94873000000007,110.51269500000035,102.69238299999961,93.84619099999964,112.43603499999972
127,61.53857400000015,10.128418000000238,102.43603499999972,-7.564209000000574,122.56396500000028,115.51269500000035,126.0258789999998,133.7177729999994,143.7177729999994,133.20507799999996,103.9741210000002,100.89746099999957,92.82031300000017,112.94873000000007
128,56.153809000000365,7.051269999999931,98.9741210000002,-8.205077999999958,115.38476599999922,116.0258789999998,120.38476599999922,131.9228520000006,138.0771479999994,128.7177729999994,98.3334960000002,98.20507799999996,90.0,113.3334960000002
129,52.17968800000017,5.3847659999992175,95.64111300000059,-7.948729999999614,109.74365200000011,116.41015599999992,117.30761700000039,129.3588869999994,132.43603499999972,124.10253900000043,94.74365200000011,95.38476599999922,84.87158199999976,112.69238299999961
130,51.410155999999915,5.0,92.69238299999961,-7.564209000000574,107.05126999999993,116.15380900000036,116.2822270000006,125.38476599999922,126.9228520000006,118.7177729999994,92.82031300000017,92.69238299999961,77.56396500000028,111.0258789999998
131,52.82031300000017,4.358886999999413,89.48730499999965,-9.358886999999868,105.89746099999957,115.12841800000024,115.0,120.38476599999922,121.41015599999992,113.3334960000002,90.64111300000059,90.25634799999989,69.23095699999976,109.61523400000078
132,54.35888699999941,1.7949220000000423,86.15380900000036,-14.743652000000111,104.10253900000043,114.35888699999941,112.82031300000017,115.64111300000059,116.9228520000006,109.23095699999976,87.05126999999993,88.58984400000008,61.666503999999804,109.48730499999965
133,54.48730499999965,-2.4360349999997197,84.10253900000043,-21.923095999999987,101.6665039999998,114.23095699999976,110.76904300000024,113.7177729999994,115.12841800000024,107.82031300000017,82.94873000000007,88.3334960000002,57.43603499999972,110.76904300000024
134,53.589844000000085,-6.666747999999643,85.25634799999989,-27.051270000000386,100.25634799999989,114.74365200000011,110.89746099999957,116.0258789999998,117.82031300000017,109.87158199999976,80.38476599999922,89.10253900000043,58.333496000000196,112.69238299999961
135,52.82031300000017,-8.846190999999635,89.61523400000078,-26.794922000000042,100.64111300000059,115.38476599999922,113.7177729999994,121.9228520000006,123.84619099999964,113.84619099999964,80.64111300000059,90.12841800000024,63.7177729999994,113.58984400000008
136,52.56396500000028,-7.820557000000008,94.61523400000078,-21.153809000000365,101.6665039999998,115.0,117.43603499999972,128.0771479999994,130.12841800000024,117.17968800000017,82.43603499999972,90.89746099999957,70.12841800000024,113.3334960000002
137,52.56396500000028,-3.846190999999635,97.56396500000028,-13.846190999999635,102.69238299999961,113.58984400000008,119.61523400000078,131.53857400000015,133.3334960000002,117.69238299999961,83.7177729999994,91.41015599999992,73.3334960000002,112.82031300000017
138,52.43603499999972,1.5385740000001533,97.43603499999972,-8.846190999999635,104.10253900000043,111.53857400000015,119.10253900000043,131.6665039999998,133.20507799999996,115.76904300000024,83.0771479999994,91.79492200000004,71.79492200000004,113.0771479999994
139,52.30761700000039,6.666503999999804,95.38476599999922,-7.948729999999614,107.43603499999972,110.25634799999989,116.6665039999998,130.12841800000024,131.9228520000006,113.58984400000008,81.9228520000006,91.79492200000004,68.20507799999996,113.58984400000008
140,51.9228520000006,9.102539000000434,93.46142599999985,-10.256347999999889,111.9228520000006,110.64111300000059,114.48730499999965,128.7177729999994,131.41015599999992,113.0771479999994,82.43603499999972,91.0258789999998,66.79492200000004,113.84619099999964
141,51.410155999999915,8.205077999999958,92.56396500000028,-12.179442999999992,115.0,112.82031300000017,114.48730499999965,128.46142599999985,131.9228520000006,113.7177729999994,84.74365200000011,89.87158199999976,68.84619099999964,113.46142599999985
142,51.025878999999804,5.897460999999566,93.20507799999996,-10.38452099999995,115.38476599999922,115.51269500000035,117.05126999999993,129.23095699999976,132.56396500000028,114.48730499999965,87.56396500000028,89.23095699999976,72.82031300000017,112.69238299999961
143,52.30761700000039,6.410155999999915,95.12841800000024,-4.102538999999979,114.10253900000043,117.17968800000017,121.41015599999992,130.6411130000006,133.0771479999994,114.74365200000011,89.23095699999976,90.25634799999989,76.41015599999992,112.05126999999993
144,55.76904300000024,11.922852000000603,98.46142599999985,4.6152340000007825,113.9741210000002,117.17968800000017,125.76904300000024,131.9228520000006,134.3588869999994,115.51269500000035,89.74365200000011,93.20507799999996,79.23095699999976,112.17968800000017
145,59.35888699999941,20.25634799999989,101.2822270000006,11.025878999999804,115.38476599999922,115.89746099999957,128.20507799999996,131.6665039999998,136.0258789999998,117.30761700000039,89.61523400000078,96.79492200000004,81.53857400000015,112.82031300000017
146,59.74365200000011,25.0,101.15380900000036,10.384765999999217,115.76904300000024,114.23095699999976,127.56396500000028,128.9741210000002,135.89746099999957,119.35888699999941,88.3334960000002,98.20507799999996,81.41015599999992,113.46142599999985
147,54.23095699999976,20.641113000000587,96.53857400000015,2.5639650000002803,112.17968800000017,113.20507799999996,123.84619099999964,123.9741210000002,132.05126999999993,119.74365200000011,85.12841800000024,95.89746099999957,76.53857400000015,113.3334960000002
148,44.48730499999965,8.205077999999958,89.23095699999976,-7.692382999999609,105.0,112.94873000000007,118.9741210000002,118.7177729999994,125.25634799999989,118.58984400000008,80.64111300000059,90.76904300000024,66.15380900000036,112.56396500000028
149,35.0,-4.230713000000378,82.82031300000017,-13.974365000000034,98.46142599999985,113.0771479999994,115.38476599999922,115.64111300000059,119.61523400000078,116.9228520000006,77.69238299999961,85.76904300000024,54.74365200000011,112.17968800000017
150,30.51269500000035,-7.948729999999614,80.64111300000059,-13.461425999999847,96.2822270000006,113.46142599999985,114.48730499999965,115.51269500000035,118.58984400000008,116.0258789999998,78.84619099999964,83.0771479999994,49.48730499999965,113.20507799999996
151,32.30761700000039,-0.512695000000349,83.0771479999994,-8.846190999999635,98.9741210000002,113.3334960000002,115.64111300000059,117.56396500000028,122.43603499999972,115.76904300000024,83.58984400000008,83.20507799999996,54.23095699999976,114.74365200000011
152,37.69238299999961,10.384765999999217,87.17968800000017,-5.769286999999622,102.69238299999961,113.0771479999994,117.43603499999972,119.87158199999976,127.69238299999961,115.12841800000024,88.20507799999996,85.0,64.48730499999965,115.64111300000059
153,41.410155999999915,14.743652000000111,89.61523400000078,-6.538574000000153,103.84619099999964,113.46142599999985,119.23095699999976,120.89746099999957,130.12841800000024,112.69238299999961,88.46142599999985,86.79492200000004,70.51269500000035,115.12841800000024
154,41.025878999999804,8.461425999999847,89.10253900000043,-9.358886999999868,102.30761700000039,115.0,121.0258789999998,120.51269500000035,128.3334960000002,108.46142599999985,83.46142599999985,87.69238299999961,66.15380900000036,113.58984400000008
155,37.56396500000028,-2.8203119999998307,86.6665039999998,-9.61547900000005,100.25634799999989,117.05126999999993,122.30761700000039,119.61523400000078,123.7177729999994,104.23095699999976,76.41015599999992,87.43603499999972,54.102539000000434,111.53857400000015
156,34.87158199999976,-9.230713000000378,84.87158199999976,-5.769286999999622,99.10253900000043,117.69238299999961,121.6665039999998,118.0771479999994,118.84619099999964,101.53857400000015,72.05126999999993,86.41015599999992,43.589844000000085,110.12841800000024
157,35.76904300000024,-5.769286999999622,84.87158199999976,-0.12841800000023795,98.20507799999996,115.51269500000035,117.69238299999961,115.64111300000059,115.12841800000024,100.64111300000059,73.46142599999985,85.25634799999989,43.20507799999996,109.87158199999976
158,41.025878999999804,5.512695000000349,86.79492200000004,3.5898440000000846,96.41015599999992,111.9228520000006,110.89746099999957,112.43603499999972,113.20507799999996,100.51269500000035,80.76904300000024,84.61523400000078,55.25634799999989,111.2822270000006
159,49.87158199999976,18.333496000000196,90.25634799999989,4.871581999999762,95.0,109.10253900000043,104.87158199999976,110.38476599999922,114.10253900000043,102.30761700000039,92.56396500000028,85.64111300000059,75.76904300000024,113.3334960000002
160,61.53857400000015,28.589844000000085,95.38476599999922,7.051269999999931,96.41015599999992,108.3334960000002,104.23095699999976,112.05126999999993,119.10253900000043,108.20507799999996,106.15380900000036,89.61523400000078,97.82031300000017,114.87158199999976
161,74.23095699999976,35.38476599999922,102.94873000000007,13.205077999999958,101.0258789999998,108.84619099999964,110.64111300000059,117.94873000000007,127.94873000000007,118.84619099999964,118.3334960000002,96.79492200000004,115.0,114.87158199999976
162,85.12841800000024,39.35888699999941,110.89746099999957,22.30761700000039,106.2822270000006,110.25634799999989,120.64111300000059,125.38476599999922,137.43603499999972,130.6411130000006,126.41015599999992,104.74365200000011,124.61523400000078,113.58984400000008
163,90.51269500000035,40.0,116.0258789999998,29.74365200000011,108.9741210000002,111.79492200000004,127.43603499999972,129.7436520000001,141.79492200000004,136.9228520000006,128.58984400000008,109.35888699999941,127.17968800000017,112.05126999999993
164,88.46142599999985,36.79492200000004,115.38476599999922,30.641113000000587,107.82031300000017,112.43603499999972,126.79492200000004,128.0771479999994,137.6923829999996,133.84619099999964,125.76904300000024,108.46142599999985,125.51269500000035,110.89746099999957
165,81.15380900000036,30.51269500000035,109.48730499999965,24.48730499999965,104.10253900000043,111.53857400000015,120.0,122.17968800000017,127.30761700000039,122.94873000000007,120.12841800000024,103.46142599999985,121.6665039999998,110.89746099999957
166,72.94873000000007,24.102539000000434,102.43603499999972,15.769043000000238,99.74365200000011,109.61523400000078,112.82031300000017,116.79492200000004,117.17968800000017,111.0258789999998,114.61523400000078,98.3334960000002,117.30761700000039,111.9228520000006
167,68.0771479999994,21.666503999999804,98.3334960000002,10.897460999999566,95.76904300000024,108.20507799999996,110.38476599999922,115.38476599999922,113.3334960000002,104.87158199999976,111.6665039999998,96.53857400000015,114.48730499999965,113.20507799999996
168,68.46142599999985,25.384765999999217,99.35888699999941,14.102539000000434,92.82031300000017,107.82031300000017,113.46142599999985,117.43603499999972,117.17968800000017,107.17968800000017,112.05126999999993,98.7177729999994,115.0,114.35888699999941
169,72.05126999999993,34.35888699999941,103.3334960000002,22.82031300000017,91.2822270000006,107.69238299999961,118.20507799999996,120.12841800000024,124.23095699999976,115.0,115.0,102.56396500000028,119.35888699999941,114.74365200000011
170,75.51269500000035,43.974121000000196,106.6665039999998,29.871581999999762,91.79492200000004,107.82031300000017,120.38476599999922,120.76904300000024,128.7177729999994,121.53857400000015,118.20507799999996,104.74365200000011,124.74365200000011,114.48730499999965
171,75.51269500000035,48.20507799999996,106.2822270000006,28.717772999999397,94.35888699999941,108.58984400000008,118.7177729999994,119.48730499999965,128.0771479999994,122.30761700000039,119.23095699999976,103.9741210000002,126.53857400000015,113.9741210000002
172,71.79492200000004,43.7177729999994,102.43603499999972,18.974121000000196,97.94873000000007,110.25634799999989,115.51269500000035,118.46142599999985,124.23095699999976,118.3334960000002,117.56396500000028,101.15380900000036,123.20507799999996,113.0771479999994
173,67.05126999999993,34.48730499999965,97.82031300000017,7.43603499999972,101.15380900000036,111.79492200000004,113.58984400000008,119.35888699999941,121.53857400000015,114.61523400000078,115.25634799999989,98.7177729999994,118.0771479999994,112.17968800000017
174,64.61523400000078,28.205077999999958,95.76904300000024,1.9228520000006029,103.0771479999994,112.17968800000017,113.58984400000008,122.05126999999993,122.30761700000039,115.12841800000024,114.74365200000011,98.3334960000002,116.6665039999998,111.9228520000006
175,65.89746099999957,30.769043000000238,97.30761700000039,5.769043000000238,103.0771479999994,110.64111300000059,115.12841800000024,125.12841800000024,126.2822270000006,120.12841800000024,116.6665039999998,99.87158199999976,121.0258789999998,112.17968800000017
176,69.10253900000043,40.64111300000059,100.38476599999922,15.128418000000238,102.05126999999993,108.58984400000008,117.30761700000039,127.56396500000028,131.0258789999998,125.38476599999922,119.61523400000078,102.05126999999993,127.30761700000039,112.69238299999961
177,70.89746099999957,50.64111300000059,102.56396500000028,23.461425999999847,101.53857400000015,108.20507799999996,120.64111300000059,128.9741210000002,134.23095699999976,127.05126999999993,121.53857400000015,102.94873000000007,130.76904300000024,112.82031300000017
178,70.38476599999922,53.974121000000196,102.82031300000017,26.410155999999915,102.17968800000017,110.38476599999922,125.51269500000035,130.0,135.0,124.48730499999965,121.6665039999998,102.17968800000017,129.10253900000043,112.69238299999961
179,68.20507799999996,49.102539000000434,102.05126999999993,23.846190999999635,102.43603499999972,113.9741210000002,129.61523400000078,130.2563479999999,133.46142599999985,120.12841800000024,119.48730499999965,100.12841800000024,123.20507799999996,112.56396500000028
180,66.0258789999998,40.38476599999922,101.15380900000036,19.230956999999762,100.25634799999989,116.6665039999998,130.2563479999999,128.9741210000002,129.3588869999994,117.17968800000017,115.38476599999922,98.3334960000002,115.89746099999957,112.82031300000017
181,65.51269500000035,35.38476599999922,100.76904300000024,16.794922000000042,97.05126999999993,116.9228520000006,127.05126999999993,125.51269500000035,123.84619099999964,116.79492200000004,110.76904300000024,97.56396500000028,110.25634799999989,113.20507799999996
182,67.56396500000028,38.7177729999994,100.89746099999957,19.230956999999762,97.05126999999993,115.64111300000059,122.17968800000017,121.0258789999998,118.7177729999994,118.46142599999985,108.0771479999994,98.0771479999994,108.3334960000002,113.7177729999994
183,70.89746099999957,47.94873000000007,101.2822270000006,25.25634799999989,101.9228520000006,114.23095699999976,117.94873000000007,117.69238299999961,115.89746099999957,120.51269500000035,108.3334960000002,98.46142599999985,109.48730499999965,113.9741210000002
184,72.30761700000039,54.61523400000078,100.89746099999957,29.615234000000783,107.56396500000028,113.7177729999994,115.0,116.41015599999992,115.51269500000035,120.76904300000024,109.35888699999941,97.43603499999972,110.38476599999922,113.84619099999964
185,69.61523400000078,51.410155999999915,98.9741210000002,28.077147999999397,106.6665039999998,113.7177729999994,112.43603499999972,116.0258789999998,115.89746099999957,117.56396500000028,107.94873000000007,94.61523400000078,108.0771479999994,112.94873000000007
186,63.846190999999635,38.7177729999994,96.0258789999998,21.410155999999915,97.69238299999961,113.84619099999964,109.74365200000011,115.25634799999989,115.76904300000024,112.05126999999993,102.94873000000007,91.15380900000036,103.0771479999994,111.9228520000006
187,60.25634799999989,25.384765999999217,94.10253900000043,15.256347999999889,87.17968800000017,113.3334960000002,107.56396500000028,113.84619099999964,115.0,106.79492200000004,97.30761700000039,89.61523400000078,98.84619099999964,111.9228520000006
188,64.10253900000043,22.05126999999993,95.12841800000024,15.0,83.9741210000002,111.9228520000006,107.43603499999972,113.0771479999994,115.51269500000035,105.76904300000024,95.89746099999957,91.79492200000004,99.48730499999965,112.69238299999961
189,75.89746099999957,31.794922000000042,98.84619099999964,21.538574000000153,91.41015599999992,110.0,110.38476599999922,114.35888699999941,118.58984400000008,110.12841800000024,100.76904300000024,96.6665039999998,105.51269500000035,113.46142599999985
190,90.0,48.846190999999635,103.3334960000002,30.641113000000587,104.87158199999976,108.9741210000002,115.0,117.69238299999961,123.0771479999994,117.30761700000039,109.87158199999976,101.9228520000006,113.58984400000008,113.3334960000002
191,98.3334960000002,62.43603499999972,105.38476599999922,36.9228520000006,115.76904300000024,110.25634799999989,118.7177729999994,121.0258789999998,125.64111300000059,122.17968800000017,117.56396500000028,104.48730499999965,118.84619099999964,112.82031300000017
192,96.9228520000006,65.51269500000035,104.23095699999976,37.94873000000007,117.17968800000017,113.20507799999996,119.10253900000043,121.79492200000004,123.58984400000008,121.79492200000004,120.12841800000024,103.7177729999994,119.23095699999976,112.43603499999972
193,89.10253900000043,59.48730499999965,101.79492200000004,35.51269500000035,109.74365200000011,115.89746099999957,116.0258789999998,119.74365200000011,118.46142599999985,117.56396500000028,117.94873000000007,100.89746099999957,116.6665039999998,112.69238299999961
194,82.94873000000007,52.05126999999993,101.0258789999998,33.46142599999985,99.74365200000011,116.6665039999998,112.43603499999972,116.79492200000004,114.87158199999976,114.61523400000078,115.0,98.58984400000008,113.9741210000002,113.0771479999994
195,84.10253900000043,49.74365200000011,102.94873000000007,34.35888699999941,94.61523400000078,115.0,111.53857400000015,115.76904300000024,116.41015599999992,116.15380900000036,115.0,98.46142599999985,113.9741210000002,113.58984400000008
196,92.05126999999993,54.23095699999976,107.05126999999993,37.30761700000039,97.94873000000007,112.56396500000028,113.7177729999994,117.43603499999972,122.17968800000017,122.05126999999993,118.20507799999996,100.25634799999989,116.6665039999998,114.35888699999941
197,100.89746099999957,61.410155999999915,111.53857400000015,39.87158199999976,106.6665039999998,111.0258789999998,117.17968800000017,119.87158199999976,127.94873000000007,128.58984400000008,122.30761700000039,102.56396500000028,120.51269500000035,115.12841800000024
198,104.35888699999941,66.0258789999998,114.48730499999965,39.87158199999976,115.0,110.76904300000024,118.9741210000002,121.0258789999998,129.87158199999976,131.9228520000006,124.10253900000043,103.9741210000002,122.82031300000017,115.64111300000059
199,100.76904300000024,65.12841800000024,115.38476599999922,37.05126999999993,117.56396500000028,110.89746099999957,118.20507799999996,119.61523400000078,126.6665039999998,129.87158199999976,122.17968800000017,103.9741210000002,121.6665039999998,115.51269500000035
200,93.20507799999996,59.61523400000078,114.35888699999941,32.82031300000017,113.3334960000002,111.0258789999998,115.51269500000035,116.41015599999992,120.25634799999989,123.3334960000002,117.82031300000017,103.20507799999996,116.6665039999998,114.74365200000011
201,87.17968800000017,53.46142599999985,111.79492200000004,29.74365200000011,105.25634799999989,111.41015599999992,113.20507799999996,113.46142599999985,114.10253900000043,115.12841800000024,113.7177729999994,101.79492200000004,109.61523400000078,113.7177729999994
202,85.76904300000024,50.897460999999566,109.23095699999976,28.589844000000085,98.3334960000002,112.05126999999993,112.94873000000007,112.82031300000017,111.6665039999998,108.84619099999964,112.05126999999993,100.25634799999989,103.3334960000002,112.94873000000007
203,87.82031300000017,52.69238299999961,106.79492200000004,27.94873000000007,96.41015599999992,112.56396500000028,115.0,115.0,113.7177729999994,107.05126999999993,112.69238299999961,99.23095699999976,99.87158199999976,112.69238299999961
204,89.48730499999965,56.410155999999915,104.35888699999941,26.025878999999804,99.35888699999941,112.43603499999972,117.43603499999972,118.20507799999996,117.82031300000017,109.87158199999976,113.84619099999964,99.23095699999976,99.74365200000011,113.0771479999994
205,89.10253900000043,58.974121000000196,101.79492200000004,23.333496000000196,104.48730499999965,111.0258789999998,118.3334960000002,119.87158199999976,120.38476599999922,115.25634799999989,114.23095699999976,99.87158199999976,101.9228520000006,114.23095699999976
206,88.0771479999994,58.846190999999635,99.74365200000011,22.43603499999972,107.82031300000017,109.10253900000043,116.79492200000004,118.9741210000002,119.61523400000078,118.9741210000002,113.58984400000008,100.64111300000059,104.10253900000043,115.51269500000035
207,88.3334960000002,56.9228520000006,99.23095699999976,25.0,107.56396500000028,107.82031300000017,114.61523400000078,117.05126999999993,116.2822270000006,118.0771479999994,112.56396500000028,100.89746099999957,104.61523400000078,115.89746099999957
208,90.64111300000059,55.38476599999922,100.89746099999957,30.384765999999217,104.35888699999941,108.3334960000002,114.48730499999965,116.2822270000006,113.3334960000002,112.82031300000017,111.79492200000004,100.76904300000024,103.58984400000008,115.0
209,94.61523400000078,56.9228520000006,105.0,36.153809000000365,102.05126999999993,110.64111300000059,118.3334960000002,118.3334960000002,113.7177729999994,107.30761700000039,111.79492200000004,100.76904300000024,103.3334960000002,113.46142599999985
210,98.7177729999994,62.30761700000039,110.25634799999989,40.64111300000059,104.48730499999965,113.0771479999994,125.25634799999989,122.43603499999972,118.3334960000002,106.0258789999998,113.46142599999985,101.41015599999992,106.0258789999998,112.17968800000017
211,101.53857400000015,69.35888699999941,114.87158199999976,43.20507799999996,112.30761700000039,113.3334960000002,131.41015599999992,126.6665039999998,124.35888699999941,110.25634799999989,116.79492200000004,102.43603499999972,111.53857400000015,111.53857400000015
212,102.43603499999972,74.23095699999976,117.43603499999972,44.35888699999941,120.76904300000024,111.15380900000036,133.3334960000002,128.20507799999996,127.69238299999961,117.82031300000017,120.76904300000024,103.7177729999994,116.53857400000015,111.53857400000015
213,101.0258789999998,74.23095699999976,117.17968800000017,44.48730499999965,124.10253900000043,108.0771479999994,129.61523400000078,126.15380900000036,126.0258789999998,123.7177729999994,122.69238299999961,104.61523400000078,117.43603499999972,111.6665039999998
214,96.6665039999998,69.61523400000078,113.7177729999994,43.0771479999994,119.10253900000043,105.64111300000059,122.30761700000039,120.51269500000035,119.23095699999976,123.0771479999994,120.12841800000024,104.35888699999941,112.43603499999972,111.9228520000006
215,89.61523400000078,62.69238299999961,107.69238299999961,39.48730499999965,107.30761700000039,104.48730499999965,115.12841800000024,113.3334960000002,109.61523400000078,113.9741210000002,113.0771479999994,102.82031300000017,103.46142599999985,111.6665039999998
216,81.9228520000006,57.17968800000017,101.15380900000036,35.38476599999922,94.35888699999941,104.48730499999965,110.89746099999957,106.53857400000015,100.51269500000035,100.38476599999922,104.74365200000011,100.51269500000035,95.64111300000059,111.15380900000036
217,77.94873000000007,56.666503999999804,96.9228520000006,34.102539000000434,86.79492200000004,104.87158199999976,110.38476599999922,102.17968800000017,95.76904300000024,90.51269500000035,99.87158199999976,98.7177729999994,93.3334960000002,110.89746099999957
218,80.64111300000059,62.30761700000039,96.2822270000006,38.589844000000085,87.94873000000007,105.38476599999922,112.56396500000028,101.53857400000015,96.79492200000004,90.64111300000059,101.2822270000006,98.3334960000002,97.05126999999993,111.41015599999992
219,89.10253900000043,72.05126999999993,98.46142599999985,48.46142599999985,95.38476599999922,106.0258789999998,115.51269500000035,104.74365200000011,101.79492200000004,99.61523400000078,108.0771479999994,99.10253900000043,102.94873000000007,112.17968800000017
220,98.3334960000002,81.41015599999992,101.79492200000004,59.102539000000434,103.3334960000002,107.17968800000017,118.20507799999996,110.38476599999922,107.30761700000039,110.0,116.41015599999992,100.38476599999922,107.05126999999993,112.30761700000039
221,103.58984400000008,86.53857400000015,104.61523400000078,65.25634799999989,106.79492200000004,108.58984400000008,120.25634799999989,115.51269500000035,110.51269500000035,114.10253900000043,122.17968800000017,101.79492200000004,107.43603499999972,111.6665039999998
222,102.30761700000039,86.2822270000006,105.38476599999922,63.846190999999635,104.48730499999965,109.23095699999976,120.64111300000059,117.17968800000017,110.25634799999989,109.35888699999941,122.82031300000017,103.0771479999994,105.12841800000024,111.2822270000006
223,95.76904300000024,81.15380900000036,103.58984400000008,56.53857400000015,98.7177729999994,107.69238299999961,118.7177729999994,113.84619099999964,107.05126999999993,99.87158199999976,117.82031300000017,103.46142599999985,101.6665039999998,111.53857400000015
224,87.56396500000028,73.46142599999985,99.74365200000011,48.46142599999985,92.94873000000007,104.23095699999976,114.35888699999941,106.9228520000006,102.05126999999993,91.79492200000004,109.10253900000043,101.79492200000004,97.82031300000017,112.56396500000028
225,81.9228520000006,67.17968800000017,96.79492200000004,45.0,90.51269500000035,101.53857400000015,109.74365200000011,100.38476599999922,97.94873000000007,90.12841800000024,100.76904300000024,98.58984400000008,94.61523400000078,114.10253900000043
226,81.9228520000006,66.2822270000006,97.56396500000028,48.46142599999985,93.20507799999996,102.30761700000039,107.94873000000007,98.9741210000002,97.43603499999972,96.53857400000015,97.30761700000039,96.15380900000036,93.84619099999964,115.25634799999989
227,87.69238299999961,72.05126999999993,103.0771479999994,56.2822270000006,100.64111300000059,106.53857400000015,110.64111300000059,103.7177729999994,101.9228520000006,108.84619099999964,101.6665039999998,97.56396500000028,97.94873000000007,115.51269500000035
228,96.9228520000006,82.17968800000017,110.76904300000024,64.61523400000078,109.74365200000011,111.53857400000015,116.53857400000015,112.05126999999993,109.87158199999976,121.15380900000036,111.9228520000006,102.94873000000007,106.53857400000015,114.74365200000011
229,105.51269500000035,91.53857400000015,117.30761700000039,70.0,116.0258789999998,113.84619099999964,121.9228520000006,119.10253900000043,117.69238299999961,127.17968800000017,123.20507799999996,109.74365200000011,116.15380900000036,113.7177729999994
230,110.12841800000024,96.2822270000006,120.12841800000024,71.9228520000006,116.79492200000004,112.56396500000028,123.58984400000008,122.43603499999972,121.79492200000004,124.48730499999965,129.7436520000001,114.10253900000043,122.17968800000017,113.84619099999964
231,109.74365200000011,95.51269500000035,119.23095699999976,71.0258789999998,112.69238299999961,109.48730499999965,121.0258789999998,122.69238299999961,120.76904300000024,115.89746099999957,128.84619099999964,113.3334960000002,121.9228520000006,114.74365200000011
232,105.12841800000024,91.6665039999998,115.76904300000024,68.3334960000002,106.2822270000006,107.05126999999993,115.38476599999922,121.41015599999992,116.15380900000036,107.30761700000039,121.79492200000004,107.82031300000017,115.76904300000024,115.64111300000059
233,98.20507799999996,87.43603499999972,111.15380900000036,64.10253900000043,98.7177729999994,106.41015599999992,108.58984400000008,118.46142599999985,110.51269500000035,102.05126999999993,112.56396500000028,100.64111300000059,106.6665039999998,115.51269500000035
234,91.15380900000036,84.23095699999976,106.79492200000004,58.20507799999996,90.51269500000035,107.17968800000017,102.17968800000017,113.7177729999994,105.38476599999922,99.35888699999941,104.87158199999976,95.76904300000024,97.94873000000007,114.23095699999976
235,86.0258789999998,81.2822270000006,104.10253900000043,52.17968800000017,82.30761700000039,108.0771479999994,98.0771479999994,108.0771479999994,101.0258789999998,97.43603499999972,100.51269500000035,95.0,92.43603499999972,112.17968800000017
236,85.0,78.20507799999996,103.3334960000002,48.846190999999635,76.79492200000004,107.82031300000017,97.43603499999972,104.10253900000043,98.58984400000008,96.15380900000036,99.35888699999941,97.43603499999972,91.6665039999998,110.25634799999989
237,88.3334960000002,76.0258789999998,104.35888699999941,50.51269500000035,77.30761700000039,106.2822270000006,99.87158199999976,103.84619099999964,98.7177729999994,97.30761700000039,100.51269500000035,100.76904300000024,95.12841800000024,109.10253900000043
238,94.35888699999941,76.2822270000006,105.89746099999957,56.2822270000006,84.23095699999976,104.61523400000078,103.20507799999996,107.05126999999993,101.15380900000036,100.0,103.20507799999996,102.94873000000007,99.74365200000011,109.35888699999941
239,99.48730499999965,79.74365200000011,106.79492200000004,62.56396500000028,94.35888699999941,104.35888699999941,104.35888699999941,110.51269500000035,104.10253900000043,101.2822270000006,106.41015599999992,103.20507799999996,101.9228520000006,110.89746099999957
240,100.89746099999957,85.38476599999922,106.41015599999992,66.2822270000006,102.43603499999972,105.76904300000024,102.56396500000028,110.89746099999957,105.89746099999957,98.7177729999994,109.10253900000043,101.9228520000006,100.89746099999957,112.30761700000039
241,98.84619099999964,91.2822270000006,105.64111300000059,67.17968800000017,105.38476599999922,108.0771479999994,100.0,107.94873000000007,106.6665039999998,95.0,111.41015599999992,100.64111300000059,99.61523400000078,112.43603499999972
242,96.41015599999992,96.0258789999998,106.79492200000004,68.58984400000008,104.87158199999976,109.87158199999976,100.76904300000024,105.38476599999922,107.82031300000017,96.0258789999998,114.10253900000043,100.89746099999957,102.82031300000017,111.41015599999992
243,96.9228520000006,100.12841800000024,111.41015599999992,74.10253900000043,105.25634799999989,110.64111300000059,106.79492200000004,107.56396500000028,111.41015599999992,106.0258789999998,117.94873000000007,103.20507799999996,112.43603499999972,110.25634799999989
244,101.41015599999992,104.35888699999941,118.20507799999996,83.84619099999964,108.46142599999985,110.51269500000035,115.38476599999922,114.74365200000011,117.30761700000039,122.30761700000039,122.05126999999993,106.6665039999998,124.74365200000011,109.87158199999976
245,106.2822270000006,107.05126999999993,122.56396500000028,92.17968800000017,110.0,110.64111300000059,120.51269500000035,122.05126999999993,122.17968800000017,135.6411130000006,123.20507799999996,108.58984400000008,132.05126999999993,110.38476599999922
246,105.76904300000024,104.74365200000011,119.87158199999976,91.41015599999992,103.58984400000008,111.15380900000036,117.30761700000039,122.82031300000017,121.0258789999998,136.41015599999992,118.0771479999994,106.9228520000006,127.94873000000007,111.0258789999998
247,97.30761700000039,94.61523400000078,109.74365200000011,78.3334960000002,88.20507799999996,111.2822270000006,106.41015599999992,114.10253900000043,111.53857400000015,122.05126999999993,106.41015599999992,102.17968800000017,112.69238299999961,111.15380900000036
248,84.23095699999976,80.0,97.30761700000039,58.974121000000196,72.05126999999993,110.25634799999989,94.10253900000043,100.76904300000024,98.20507799999996,99.61523400000078,93.7177729999994,97.30761700000039,94.74365200000011,110.51269500000035
249,75.25634799999989,70.12841800000024,90.64111300000059,45.897460999999566,67.69238299999961,108.9741210000002,88.7177729999994,91.79492200000004,90.25634799999989,83.3334960000002,87.94873000000007,96.6665039999998,86.15380900000036,109.48730499999965
250,77.17968800000017,73.3334960000002,95.0,48.7177729999994,82.30761700000039,109.35888699999941,94.61523400000078,94.23095699999976,94.48730499999965,84.48730499999965,93.9741210000002,101.79492200000004,92.69238299999961,109.10253900000043
251,89.87158199999976,88.7177729999994,107.82031300000017,66.0258789999998,109.87158199999976,112.17968800000017,108.58984400000008,107.05126999999993,109.74365200000011,102.69238299999961,108.58984400000008,110.12841800000024,110.0,110.64111300000059
252,104.35888699999941,105.76904300000024,120.38476599999922,86.15380900000036,133.46142599999985,116.15380900000036,121.79492200000004,121.6665039999998,126.53857400000015,124.35888699999941,121.79492200000004,116.2822270000006,125.25634799999989,113.3334960000002
253,110.12841800000024,112.30761700000039,124.10253900000043,95.76904300000024,137.17968800000017,118.58984400000008,126.15380900000036,128.7177729999994,133.84619099999964,133.7177729999994,124.23095699999976,115.89746099999957,127.82031300000017,115.38476599999922
254,103.46142599999985,105.51269500000035,117.69238299999961,90.12841800000024,119.48730499999965,117.82031300000017,119.87158199999976,124.48730499999965,127.30761700000039,124.35888699999941,114.35888699999941,109.48730499999965,116.79492200000004,115.51269500000035
255,90.12841800000024,93.0771479999994,107.30761700000039,76.2822270000006,94.35888699999941,114.61523400000078,108.58984400000008,113.46142599999985,112.30761700000039,104.87158199999976,100.12841800000024,101.0258789999998,101.79492200000004,113.7177729999994
256,80.38476599999922,84.35888699999941,100.89746099999957,65.51269500000035,78.84619099999964,110.89746099999957,100.0,103.46142599999985,99.61523400000078,90.89746099999957,91.9228520000006,96.15380900000036,93.0771479999994,111.53857400000015
257,79.74365200000011,82.05126999999993,102.30761700000039,64.10253900000043,79.48730499999965,108.46142599999985,98.7177729999994,100.12841800000024,97.17968800000017,92.56396500000028,94.87158199999976,96.9228520000006,93.9741210000002,109.87158199999976
258,86.9228520000006,81.41015599999992,109.74365200000011,69.35888699999941,90.38476599999922,108.9741210000002,104.10253900000043,104.61523400000078,105.38476599999922,107.94873000000007,105.12841800000024,101.53857400000015,100.25634799999989,109.48730499999965
259,96.2822270000006,78.3334960000002,117.94873000000007,74.74365200000011,101.0258789999998,112.05126999999993,112.17968800000017,114.23095699999976,118.7177729999994,126.6665039999998,115.0,106.79492200000004,106.0258789999998,110.64111300000059
260,103.20507799999996,75.0,122.82031300000017,76.41015599999992,106.79492200000004,115.51269500000035,119.61523400000078,124.87158199999976,130.51269500000035,139.23095699999976,119.74365200000011,110.51269500000035,109.10253900000043,112.30761700000039
261,106.0258789999998,78.3334960000002,123.9741210000002,74.87158199999976,110.12841800000024,116.9228520000006,124.23095699999976,132.3076170000004,136.9228520000006,141.6665039999998,119.35888699999941,112.17968800000017,110.64111300000059,113.3334960000002
262,105.76904300000024,92.69238299999961,122.69238299999961,73.3334960000002,114.10253900000043,115.25634799999989,125.0,133.9741210000002,136.6665039999998,136.15380900000036,115.64111300000059,111.15380900000036,110.38476599999922,112.94873000000007
263,103.20507799999996,113.3334960000002,119.87158199999976,73.0771479999994,117.05126999999993,111.9228520000006,121.9228520000006,129.61523400000078,130.76904300000024,126.15380900000036,108.84619099999964,107.43603499999972,105.25634799999989,111.6665039999998
264,98.58984400000008,130.38476599999922,115.51269500000035,73.0771479999994,115.38476599999922,109.35888699999941,115.76904300000024,120.89746099999957,120.76904300000024,114.10253900000043,98.20507799999996,102.05126999999993,92.30761700000039,110.51269500000035
265,92.56396500000028,137.3076170000004,109.48730499999965,71.9228520000006,108.3334960000002,108.84619099999964,108.58984400000008,111.2822270000006,109.87158199999976,101.79492200000004,85.0,96.6665039999998,72.82031300000017,110.0
266,87.56396500000028,136.2822270000006,103.7177729999994,69.74365200000011,101.53857400000015,110.0,102.69238299999961,104.35888699999941,101.9228520000006,91.2822270000006,73.46142599999985,93.3334960000002,53.0771479999994,110.25634799999989
267,85.12841800000024,135.2563479999999,100.38476599999922,68.0771479999994,100.76904300000024,111.53857400000015,99.74365200000011,101.79492200000004,98.9741210000002,84.74365200000011,67.43603499999972,92.94873000000007,38.333496000000196,111.15380900000036
268,84.35888699999941,139.3588869999994,100.25634799999989,67.17968800000017,105.64111300000059,112.30761700000039,99.87158199999976,102.17968800000017,99.23095699999976,82.30761700000039,66.79492200000004,94.23095699999976,29.358886999999413,112.17968800000017
269,81.6665039999998,146.15380900000036,101.41015599999992,66.2822270000006,109.74365200000011,111.9228520000006,101.2822270000006,102.43603499999972,98.46142599999985,82.43603499999972,67.05126999999993,93.9741210000002,21.282227000000603,112.82031300000017
270,75.89746099999957,149.87158199999976,101.53857400000015,64.23095699999976,108.20507799999996,110.12841800000024,102.43603499999972,101.0258789999998,93.84619099999964,82.43603499999972,63.46142599999985,90.89746099999957,9.743652000000111,112.56396500000028
271,69.74365200000011,147.6923829999996,100.0,61.666503999999804,103.7177729999994,107.94873000000007,102.69238299999961,98.84619099999964,87.30761700000039,81.2822270000006,55.897460999999566,86.79492200000004,-4.102538999999979,111.53857400000015
272,67.56396500000028,143.0771479999994,98.3334960000002,60.897460999999566,103.0771479999994,106.41015599999992,102.56396500000028,97.94873000000007,83.46142599999985,79.35888699999941,48.20507799999996,85.38476599999922,-13.974365000000034,110.76904300000024
273,70.64111300000059,141.79492200000004,98.20507799999996,63.0771479999994,109.48730499999965,106.15380900000036,101.9228520000006,98.3334960000002,85.0,77.56396500000028,44.87158199999976,88.0771479999994,-15.1281740000004,110.64111300000059
274,75.89746099999957,147.17968800000017,99.48730499999965,66.6665039999998,119.74365200000011,107.05126999999993,100.51269500000035,98.84619099999964,90.51269500000035,76.79492200000004,46.9228520000006,92.82031300000017,-7.948729999999614,110.76904300000024
275,80.0,156.9228520000006,100.89746099999957,69.48730499999965,128.0771479999994,108.58984400000008,99.74365200000011,98.84619099999964,96.53857400000015,78.46142599999985,52.43603499999972,97.05126999999993,2.0512699999999313,111.0258789999998
276,81.15380900000036,166.2822270000006,101.9228520000006,70.76904300000024,131.0258789999998,109.74365200000011,101.15380900000036,99.87158199999976,101.2822270000006,83.46142599999985,58.46142599999985,99.10253900000043,9.871581999999762,111.0258789999998
277,80.38476599999922,171.6665039999998,103.20507799999996,71.79492200000004,129.48730499999965,109.61523400000078,105.64111300000059,103.46142599999985,104.87158199999976,91.0258789999998,63.0771479999994,99.48730499999965,14.102539000000434,111.41015599999992
278,80.12841800000024,172.17968800000017,104.87158199999976,72.94873000000007,127.05126999999993,107.43603499999972,111.15380900000036,108.84619099999964,107.43603499999972,98.3334960000002,66.15380900000036,98.9741210000002,16.153809000000365,111.9228520000006
279,81.15380900000036,168.9741210000002,106.0258789999998,72.94873000000007,125.89746099999957,103.84619099999964,114.35888699999941,112.82031300000017,108.20507799999996,101.79492200000004,67.82031300000017,98.20507799999996,18.461425999999847,112.56396500000028
280,81.9228520000006,163.20507799999996,105.76904300000024,69.74365200000011,125.25634799999989,100.89746099999957,113.0771479999994,112.82031300000017,106.0258789999998,99.10253900000043,68.20507799999996,97.82031300000017,20.897460999999566,112.69238299999961
281,80.89746099999957,156.15380900000036,104.10253900000043,63.333496000000196,122.17968800000017,100.12841800000024,108.3334960000002,108.84619099999964,101.79492200000004,91.6665039999998,67.56396500000028,97.56396500000028,22.30761700000039,112.30761700000039
282,78.9741210000002,150.2563479999999,102.43603499999972,57.69238299999961,116.15380900000036,102.17968800000017,104.23095699999976,104.61523400000078,98.58984400000008,84.48730499999965,67.17968800000017,97.82031300000017,22.30761700000039,111.6665039999998
283,79.10253900000043,148.7177729999994,102.56396500000028,57.30761700000039,111.2822270000006,105.51269500000035,105.12841800000024,104.48730499999965,99.74365200000011,83.3334960000002,69.10253900000043,99.35888699999941,22.69238299999961,111.41015599999992
284,82.82031300000017,152.6923829999996,105.0,62.69238299999961,111.9228520000006,107.94873000000007,111.41015599999992,109.87158199999976,105.89746099999957,89.87158199999976,72.82031300000017,101.9228520000006,25.0,112.05126999999993
285,87.17968800000017,159.23095699999976,107.94873000000007,68.9741210000002,117.69238299999961,108.58984400000008,118.46142599999985,117.56396500000028,113.46142599999985,99.74365200000011,75.64111300000059,103.46142599999985,27.82031300000017,113.3334960000002
286,87.69238299999961,162.17968800000017,108.58984400000008,69.74365200000011,122.94873000000007,107.69238299999961,120.76904300000024,121.53857400000015,117.05126999999993,104.48730499999965,73.9741210000002,102.30761700000039,27.82031300000017,114.23095699999976
287,81.9228520000006,157.94873000000007,105.64111300000059,62.56396500000028,122.69238299999961,106.2822270000006,115.64111300000059,117.94873000000007,113.84619099999964,99.48730499999965,66.79492200000004,98.3334960000002,23.589844000000085,114.23095699999976
288,73.3334960000002,148.7177729999994,100.51269500000035,52.17968800000017,117.69238299999961,105.51269500000035,106.79492200000004,108.20507799999996,105.51269500000035,87.82031300000017,57.82031300000017,93.84619099999964,17.94873000000007,113.3334960000002
289,67.82031300000017,141.53857400000015,96.53857400000015,47.05126999999993,114.48730499999965,105.64111300000059,100.51269500000035,98.46142599999985,97.17968800000017,78.7177729999994,53.20507799999996,91.6665039999998,15.512695000000349,112.69238299999961
290,70.0,142.43603499999972,96.2822270000006,51.9228520000006,118.58984400000008,106.6665039999998,101.15380900000036,94.87158199999976,94.10253900000043,79.87158199999976,57.17968800000017,93.20507799999996,19.871581999999762,113.0771479999994
291,78.58984400000008,151.41015599999992,99.48730499999965,64.23095699999976,128.46142599999985,108.0771479999994,107.82031300000017,99.35888699999941,97.17968800000017,91.0258789999998,68.3334960000002,97.56396500000028,29.871581999999762,114.35888699999941
292,87.56396500000028,162.17968800000017,103.3334960000002,75.12841800000024,136.15380900000036,109.74365200000011,115.12841800000024,108.58984400000008,103.9741210000002,104.74365200000011,80.25634799999989,101.6665039999998,40.64111300000059,115.25634799999989
293,91.15380900000036,168.0771479999994,105.12841800000024,76.79492200000004,134.23095699999976,111.2822270000006,118.46142599999985,116.15380900000036,110.0,112.56396500000028,86.9228520000006,103.7177729999994,47.82031300000017,115.0
294,89.35888699999941,167.82031300000017,104.48730499999965,68.9741210000002,123.7177729999994,112.30761700000039,117.43603499999972,118.84619099999964,113.46142599999985,111.79492200000004,86.9228520000006,103.20507799999996,50.76904300000024,113.46142599999985
295,86.15380900000036,165.12841800000024,102.94873000000007,58.589844000000085,113.46142599999985,112.17968800000017,115.0,117.43603499999972,114.74365200000011,106.79492200000004,83.7177729999994,101.53857400000015,51.53857400000015,111.0258789999998
296,85.38476599999922,163.7177729999994,102.43603499999972,53.20507799999996,111.9228520000006,110.89746099999957,114.48730499999965,115.38476599999922,114.87158199999976,103.84619099999964,82.56396500000028,100.38476599999922,52.17968800000017,108.84619099999964
297,87.56396500000028,164.10253900000043,103.20507799999996,54.35888699999941,120.25634799999989,109.48730499999965,116.41015599999992,115.0,114.35888699999941,105.38476599999922,85.25634799999989,100.51269500000035,52.56396500000028,108.3334960000002
298,90.38476599999922,163.20507799999996,103.84619099999964,57.69238299999961,132.05126999999993,109.35888699999941,118.9741210000002,116.15380900000036,112.30761700000039,108.0771479999994,89.10253900000043,101.6665039999998,50.897460999999566,109.74365200000011
299,91.2822270000006,159.3588869999994,103.3334960000002,57.43603499999972,138.58984400000008,110.76904300000024,119.48730499999965,116.9228520000006,108.3334960000002,106.79492200000004,90.12841800000024,102.30761700000039,46.53857400000015,112.43603499999972
300,89.23095699999976,153.84619099999964,101.9228520000006,52.17968800000017,135.6411130000006,112.69238299999961,117.17968800000017,115.12841800000024,102.30761700000039,98.9741210000002,85.51269500000035,101.53857400000015,40.64111300000059,114.61523400000078
301,85.0,149.48730499999965,100.38476599999922,44.74365200000011,125.25634799999989,113.46142599999985,113.3334960000002,109.74365200000011,96.0258789999998,86.6665039999998,76.41015599999992,98.9741210000002,35.12841800000024,115.25634799999989
302,80.25634799999989,148.20507799999996,98.9741210000002,39.23095699999976,115.12841800000024,111.9228520000006,110.89746099999957,102.82031300000017,90.89746099999957,74.48730499999965,65.76904300000024,95.64111300000059,31.282227000000603,114.48730499999965
303,76.53857400000015,148.84619099999964,97.05126999999993,37.69238299999961,111.15380900000036,109.10253900000043,110.89746099999957,97.43603499999972,87.69238299999961,66.53857400000015,56.79492200000004,91.79492200000004,28.974121000000196,112.82031300000017
304,74.23095699999976,148.3334960000002,93.7177729999994,39.102539000000434,113.0771479999994,107.69238299999961,112.17968800000017,95.51269500000035,86.0258789999998,63.7177729999994,52.05126999999993,88.0771479999994,26.922852000000603,111.2822270000006
305,72.56396500000028,143.9741210000002,89.48730499999965,40.51269500000035,115.51269500000035,109.48730499999965,112.43603499999972,96.53857400000015,85.25634799999989,64.87158199999976,51.9228520000006,85.0,23.846190999999635,111.0258789999998
306,70.89746099999957,136.9228520000006,85.76904300000024,40.25634799999989,114.48730499999965,113.46142599999985,110.51269500000035,98.58984400000008,84.74365200000011,68.46142599999985,55.38476599999922,83.84619099999964,20.51269500000035,112.05126999999993
307,69.74365200000011,131.15380900000036,84.23095699999976,39.35888699999941,111.2822270000006,116.9228520000006,108.20507799999996,100.0,85.38476599999922,73.58984400000008,60.51269500000035,85.0,19.48730499999965,113.58984400000008
308,69.74365200000011,130.2563479999999,86.15380900000036,39.102539000000434,110.0,117.94873000000007,107.82031300000017,101.41015599999992,87.82031300000017,79.61523400000078,65.64111300000059,88.3334960000002,22.43603499999972,114.10253900000043
309,71.41015599999992,135.0,91.0258789999998,40.12841800000024,112.56396500000028,117.30761700000039,110.89746099999957,103.9741210000002,92.43603499999972,84.48730499999965,69.87158199999976,92.69238299999961,29.102539000000434,113.20507799999996
310,74.10253900000043,142.56396500000028,97.05126999999993,41.410155999999915,117.56396500000028,116.2822270000006,115.76904300000024,108.0771479999994,97.94873000000007,86.0258789999998,72.30761700000039,96.79492200000004,36.410155999999915,111.9228520000006
311,77.43603499999972,148.84619099999964,102.05126999999993,42.17968800000017,122.30761700000039,115.51269500000035,120.0,112.30761700000039,102.30761700000039,83.9741210000002,72.43603499999972,99.74365200000011,40.51269500000035,111.6665039999998
312,81.41015599999992,151.53857400000015,104.48730499999965,43.0771479999994,125.51269500000035,115.38476599999922,121.41015599999992,115.51269500000035,104.61523400000078,81.0258789999998,70.51269500000035,100.89746099999957,39.48730499999965,112.69238299999961
313,85.12841800000024,150.2563479999999,104.35888699999941,45.12841800000024,126.79492200000004,116.0258789999998,120.64111300000059,117.43603499999972,105.51269500000035,80.38476599999922,68.20507799999996,100.76904300000024,34.102539000000434,114.74365200000011
314,87.17968800000017,146.41015599999992,103.0771479999994,47.43603499999972,125.38476599999922,116.9228520000006,119.35888699999941,118.0771479999994,105.64111300000059,83.7177729999994,67.17968800000017,100.25634799999989,26.794922000000042,116.9228520000006
315,86.0258789999998,141.41015599999992,101.53857400000015,47.94873000000007,120.76904300000024,117.17968800000017,118.3334960000002,117.17968800000017,104.35888699999941,88.7177729999994,67.43603499999972,99.48730499999965,20.769043000000238,118.0771479999994
316,82.30761700000039,135.89746099999957,100.51269500000035,45.64111300000059,113.58984400000008,116.6665039999998,117.05126999999993,114.61523400000078,101.41015599999992,91.2822270000006,68.0771479999994,98.58984400000008,18.077147999999397,117.56396500000028
317,78.58984400000008,131.9228520000006,99.87158199999976,42.43603499999972,106.53857400000015,116.0258789999998,114.87158199999976,110.64111300000059,97.43603499999972,89.10253900000043,68.3334960000002,97.94873000000007,19.358886999999413,115.76904300000024
318,77.56396500000028,130.89746099999957,99.74365200000011,41.79492200000004,102.56396500000028,116.15380900000036,112.17968800000017,106.2822270000006,94.10253900000043,82.43603499999972,67.82031300000017,98.20507799999996,22.69238299999961,113.84619099999964
319,80.12841800000024,132.56396500000028,99.87158199999976,45.0,102.30761700000039,116.0258789999998,109.74365200000011,102.69238299999961,92.56396500000028,74.74365200000011,66.9228520000006,99.61523400000078,25.128418000000238,112.94873000000007
320,84.23095699999976,134.23095699999976,99.48730499999965,49.61523400000078,103.9741210000002,115.0,108.58984400000008,100.38476599999922,92.56396500000028,69.74365200000011,65.38476599999922,101.15380900000036,25.0,113.0771479999994
321,86.53857400000015,133.3334960000002,98.7177729999994,51.025878999999804,105.38476599999922,113.58984400000008,108.84619099999964,99.48730499999965,92.69238299999961,70.0,62.94873000000007,101.6665039999998,22.82031300000017,113.46142599999985
322,85.76904300000024,130.38476599999922,98.84619099999964,47.94873000000007,106.15380900000036,113.20507799999996,110.64111300000059,99.74365200000011,91.79492200000004,75.38476599999922,60.64111300000059,101.0258789999998,21.153809000000365,113.46142599999985
323,84.23095699999976,129.7436520000001,101.53857400000015,43.7177729999994,107.69238299999961,114.23095699999976,113.7177729999994,101.53857400000015,90.12841800000024,83.58984400000008,59.87158199999976,100.89746099999957,22.05126999999993,112.94873000000007
324,85.38476599999922,135.12841800000024,107.30761700000039,43.7177729999994,111.41015599999992,115.89746099999957,118.0771479999994,105.0,89.61523400000078,91.53857400000015,62.17968800000017,103.3334960000002,26.282227000000603,112.30761700000039
325,91.15380900000036,146.6665039999998,114.48730499999965,50.38476599999922,117.82031300000017,117.17968800000017,123.20507799999996,109.61523400000078,92.56396500000028,97.05126999999993,67.17968800000017,108.3334960000002,32.43603499999972,111.6665039999998
326,99.35888699999941,159.48730499999965,120.12841800000024,60.897460999999566,125.64111300000059,117.69238299999961,127.69238299999961,114.74365200000011,98.9741210000002,98.7177729999994,72.94873000000007,114.23095699999976,38.20507799999996,111.6665039999998
327,105.12841800000024,167.17968800000017,121.15380900000036,68.84619099999964,131.53857400000015,117.43603499999972,129.61523400000078,118.3334960000002,106.15380900000036,96.79492200000004,76.79492200000004,117.69238299999961,40.76904300000024,112.43603499999972
328,103.9741210000002,166.15380900000036,116.0258789999998,68.46142599999985,131.9228520000006,117.17968800000017,127.56396500000028,118.46142599999985,109.48730499999965,92.17968800000017,76.9228520000006,115.76904300000024,38.46142599999985,113.7177729999994
329,96.0258789999998,158.0771479999994,106.41015599999992,60.12841800000024,125.64111300000059,116.53857400000015,122.43603499999972,114.23095699999976,106.9228520000006,86.15380900000036,72.94873000000007,108.3334960000002,32.30761700000039,114.74365200000011
330,85.64111300000059,148.20507799999996,97.05126999999993,49.74365200000011,116.0258789999998,115.64111300000059,116.53857400000015,107.82031300000017,100.51269500000035,80.89746099999957,67.05126999999993,99.23095699999976,26.025878999999804,115.0
331,78.84619099999964,142.05126999999993,92.69238299999961,44.74365200000011,107.94873000000007,115.25634799999989,112.82031300000017,103.3334960000002,94.61523400000078,79.23095699999976,62.69238299999961,93.9741210000002,23.589844000000085,114.48730499999965
332,78.58984400000008,141.79492200000004,95.38476599999922,48.0771479999994,104.87158199999976,115.89746099999957,112.69238299999961,104.10253900000043,93.7177729999994,82.30761700000039,63.0771479999994,95.51269500000035,26.922852000000603,113.3334960000002
333,82.69238299999961,145.89746099999957,102.69238299999961,56.666503999999804,106.6665039999998,117.05126999999993,115.89746099999957,110.0,98.46142599999985,88.20507799999996,67.94873000000007,102.30761700000039,33.974121000000196,112.17968800000017
334,87.17968800000017,150.6411130000006,109.87158199999976,65.38476599999922,111.9228520000006,117.17968800000017,120.12841800000024,117.17968800000017,105.64111300000059,92.69238299999961,74.61523400000078,109.23095699999976,40.38476599999922,111.53857400000015
335,88.7177729999994,152.3076170000004,112.82031300000017,70.38476599999922,118.46142599999985,115.38476599999922,122.43603499999972,121.2822270000006,110.64111300000059,92.05126999999993,78.9741210000002,111.79492200000004,42.43603499999972,111.41015599999992
336,86.6665039999998,149.61523400000078,110.38476599999922,70.64111300000059,123.84619099999964,112.82031300000017,121.2822270000006,120.38476599999922,110.38476599999922,86.41015599999992,77.82031300000017,109.10253900000043,39.61523400000078,111.6665039999998
337,82.17968800000017,143.20507799999996,104.74365200000011,66.79492200000004,125.12841800000024,111.0258789999998,117.30761700000039,115.25634799999989,105.38476599999922,79.35888699999941,71.0258789999998,103.46142599999985,33.46142599999985,111.79492200000004
338,76.9228520000006,135.6411130000006,98.9741210000002,60.38476599999922,120.64111300000059,110.38476599999922,111.9228520000006,108.9741210000002,98.20507799999996,75.25634799999989,60.64111300000059,98.0771479999994,27.17968800000017,111.6665039999998
339,72.43603499999972,130.2563479999999,95.89746099999957,53.7177729999994,113.3334960000002,110.51269500000035,107.30761700000039,104.61523400000078,92.43603499999972,76.53857400000015,51.025878999999804,95.25634799999989,24.358886999999413,112.17968800000017
340,69.74365200000011,129.3588869999994,96.15380900000036,50.25634799999989,108.84619099999964,110.76904300000024,105.12841800000024,103.58984400000008,91.15380900000036,82.69238299999961,46.79492200000004,95.25634799999989,26.410155999999915,113.7177729999994
341,68.9741210000002,132.56396500000028,98.3334960000002,52.56396500000028,110.51269500000035,110.89746099999957,106.53857400000015,105.0,94.61523400000078,89.87158199999976,50.25634799999989,97.43603499999972,32.30761700000039,115.25634799999989
342,69.35888699999941,136.9228520000006,100.25634799999989,60.12841800000024,116.0258789999998,110.25634799999989,110.64111300000059,106.15380900000036,100.25634799999989,94.10253900000043,59.102539000000434,99.87158199999976,38.0771479999994,115.51269500000035
343,70.12841800000024,138.20507799999996,100.25634799999989,68.58984400000008,119.35888699999941,108.7177729999994,114.35888699999941,105.38476599999922,103.9741210000002,92.69238299999961,67.82031300000017,100.89746099999957,40.25634799999989,114.23095699999976
344,70.89746099999957,135.2563479999999,98.46142599999985,73.46142599999985,117.43603499999972,107.05126999999993,114.87158199999976,103.46142599999985,103.7177729999994,87.94873000000007,72.17968800000017,100.12841800000024,38.7177729999994,112.30761700000039
345,72.17968800000017,131.15380900000036,97.05126999999993,73.20507799999996,112.94873000000007,106.2822270000006,112.43603499999972,102.94873000000007,100.76904300000024,85.0,72.69238299999961,99.23095699999976,37.05126999999993,111.41015599999992
346,75.38476599999922,131.0258789999998,97.82031300000017,70.25634799999989,111.15380900000036,106.79492200000004,110.38476599999922,106.0258789999998,98.58984400000008,88.3334960000002,73.20507799999996,99.87158199999976,39.23095699999976,112.05126999999993
347,80.51269500000035,137.43603499999972,100.76904300000024,68.46142599999985,113.46142599999985,108.3334960000002,111.53857400000015,111.53857400000015,99.10253900000043,97.30761700000039,76.9228520000006,102.56396500000028,45.76904300000024,113.84619099999964
348,86.41015599999992,147.6923829999996,104.10253900000043,69.87158199999976,117.56396500000028,111.15380900000036,115.89746099999957,116.53857400000015,102.17968800000017,106.0258789999998,83.20507799999996,105.76904300000024,53.46142599999985,116.0258789999998
349,90.64111300000059,155.76904300000024,105.64111300000059,73.20507799999996,120.12841800000024,115.25634799999989,120.12841800000024,117.94873000000007,105.64111300000059,108.9741210000002,88.3334960000002,107.69238299999961,57.94873000000007,116.9228520000006
350,91.41015599999992,156.41015599999992,104.87158199999976,75.89746099999957,120.51269500000035,119.48730499999965,120.25634799999989,114.48730499999965,107.17968800000017,105.0,88.7177729999994,107.43603499999972,56.79492200000004,115.25634799999989
351,87.82031300000017,148.58984400000008,102.56396500000028,75.0,118.84619099999964,121.6665039999998,114.61523400000078,106.9228520000006,104.74365200000011,96.53857400000015,83.3334960000002,105.12841800000024,50.25634799999989,112.43603499999972
352,80.89746099999957,135.6411130000006,99.74365200000011,69.35888699999941,115.64111300000059,119.23095699999976,105.64111300000059,97.43603499999972,97.56396500000028,87.05126999999993,74.35888699999941,101.2822270000006,41.2822270000006,110.76904300000024
353,73.84619099999964,125.0,97.30761700000039,61.53857400000015,112.05126999999993,112.82031300000017,98.20507799999996,89.48730499999965,88.0771479999994,79.61523400000078,66.6665039999998,97.69238299999961,34.23095699999976,112.17968800000017
354,70.38476599999922,123.0771479999994,96.41015599999992,56.79492200000004,110.64111300000059,106.15380900000036,96.15380900000036,86.15380900000036,81.0258789999998,76.6665039999998,64.74365200000011,96.6665039999998,33.46142599999985,115.51269500000035
355,72.56396500000028,131.0258789999998,97.56396500000028,59.35888699999941,112.56396500000028,103.7177729999994,99.23095699999976,88.3334960000002,80.25634799999989,79.23095699999976,69.74365200000011,98.9741210000002,39.87158199999976,118.20507799999996
356,78.84619099999964,143.3334960000002,100.12841800000024,67.94873000000007,115.25634799999989,107.05126999999993,104.61523400000078,94.23095699999976,85.89746099999957,85.38476599999922,77.94873000000007,103.20507799999996,49.74365200000011,118.0771479999994
357,85.25634799999989,151.79492200000004,102.43603499999972,76.53857400000015,114.74365200000011,113.20507799999996,108.58984400000008,99.87158199999976,93.58984400000008,90.89746099999957,83.9741210000002,106.2822270000006,57.30761700000039,115.89746099999957
358,88.20507799999996,151.79492200000004,103.0771479999994,79.48730499999965,110.12841800000024,117.69238299999961,108.9741210000002,102.17968800000017,98.84619099999964,92.30761700000039,84.87158199999976,106.41015599999992,59.35888699999941,113.3334960000002
359,87.69238299999961,145.89746099999957,102.05126999999993,76.6665039999998,105.89746099999957,118.58984400000008,106.9228520000006,101.15380900000036,100.89746099999957,90.89746099999957,82.30761700000039,104.23095699999976,57.43603499999972,111.79492200000004
360,86.41015599999992,140.6411130000006,101.0258789999998,72.94873000000007,107.56396500000028,116.9228520000006,105.0,99.61523400000078,102.30761700000039,90.25634799999989,80.51269500000035,102.56396500000028,56.025878999999804,111.41015599999992
361,86.53857400000015,140.51269500000035,100.89746099999957,72.43603499999972,115.76904300000024,115.0,105.0,100.0,105.51269500000035,92.82031300000017,81.6665039999998,102.94873000000007,57.56396500000028,112.17968800000017
362,87.43603499999972,144.48730499999965,101.0258789999998,74.87158199999976,125.0,113.84619099999964,106.15380900000036,101.6665039999998,109.61523400000078,96.9228520000006,84.48730499999965,104.48730499999965,59.87158199999976,113.3334960000002
363,87.56396500000028,147.94873000000007,100.51269500000035,76.9228520000006,128.7177729999994,113.84619099999964,106.9228520000006,103.0771479999994,111.53857400000015,99.10253900000043,85.89746099999957,105.64111300000059,60.12841800000024,113.9741210000002
364,86.79492200000004,148.46142599999985,100.25634799999989,76.53857400000015,125.12841800000024,114.48730499999965,107.30761700000039,103.3334960000002,110.12841800000024,97.43603499999972,84.48730499999965,105.76904300000024,58.7177729999994,113.3334960000002
365,87.56396500000028,147.82031300000017,102.05126999999993,75.76904300000024,118.7177729999994,115.0,109.23095699999976,103.7177729999994,107.43603499999972,93.9741210000002,82.43603499999972,106.41015599999992,59.48730499999965,111.79492200000004
366,92.82031300000017,149.87158199999976,106.9228520000006,77.82031300000017,115.0,115.12841800000024,113.20507799999996,105.64111300000059,106.79492200000004,92.43603499999972,82.69238299999961,108.84619099999964,65.89746099999957,110.0
367,102.05126999999993,155.0,112.69238299999961,84.10253900000043,116.15380900000036,115.51269500000035,117.17968800000017,109.48730499999965,109.48730499999965,94.61523400000078,86.41015599999992,112.56396500000028,76.0258789999998,108.7177729999994
368,110.25634799999989,159.48730499999965,115.89746099999957,91.0258789999998,120.51269500000035,116.41015599999992,117.94873000000007,113.20507799999996,113.58984400000008,98.84619099999964,91.6665039999998,115.38476599999922,83.58984400000008,108.3334960000002
369,112.30761700000039,158.84619099999964,114.35888699999941,93.58984400000008,124.35888699999941,117.82031300000017,114.23095699999976,114.35888699999941,114.87158199999976,101.2822270000006,95.0,115.51269500000035,82.82031300000017,108.84619099999964
370,106.53857400000015,152.3076170000004,109.10253900000043,89.23095699999976,124.74365200000011,118.46142599999985,107.56396500000028,111.6665039999998,111.41015599999992,99.35888699999941,93.20507799999996,112.30761700000039,73.46142599999985,110.51269500000035
371,96.9228520000006,143.84619099999964,103.0771479999994,79.74365200000011,122.05126999999993,117.56396500000028,101.41015599999992,106.0258789999998,104.35888699999941,92.94873000000007,86.0258789999998,106.41015599999992,61.2822270000006,112.30761700000039
372,89.87158199999976,138.46142599999985,98.7177729999994,69.74365200000011,119.10253900000043,115.51269500000035,97.94873000000007,100.38476599999922,98.0771479999994,85.38476599999922,75.89746099999957,100.51269500000035,53.46142599999985,113.3334960000002
373,89.35888699999941,138.46142599999985,97.17968800000017,63.7177729999994,118.9741210000002,113.7177729999994,97.82031300000017,96.9228520000006,95.89746099999957,81.0258789999998,67.69238299999961,96.9228520000006,53.846190999999635,113.3334960000002
374,94.48730499999965,142.43603499999972,98.20507799999996,63.7177729999994,121.6665039999998,112.94873000000007,100.12841800000024,96.9228520000006,98.58984400000008,83.0771479999994,65.64111300000059,97.30761700000039,60.897460999999566,112.05126999999993
375,100.76904300000024,147.3076170000004,101.0258789999998,69.23095699999976,125.0,113.3334960000002,104.48730499999965,100.0,104.48730499999965,91.2822270000006,71.0258789999998,101.6665039999998,69.74365200000011,110.51269500000035
376,104.61523400000078,151.2822270000006,104.74365200000011,77.69238299999961,127.56396500000028,114.35888699999941,111.0258789999998,105.51269500000035,111.53857400000015,103.0771479999994,81.2822270000006,108.20507799999996,76.79492200000004,109.35888699999941
377,105.38476599999922,154.10253900000043,108.0771479999994,85.76904300000024,130.0,116.0258789999998,118.20507799999996,111.9228520000006,118.0771479999994,114.48730499999965,91.9228520000006,114.35888699999941,80.89746099999957,108.9741210000002
378,104.23095699999976,155.0,110.0,90.0,132.43603499999972,117.69238299999961,122.43603499999972,116.9228520000006,122.43603499999972,120.89746099999957,98.20507799999996,117.82031300000017,82.56396500000028,109.61523400000078
379,102.17968800000017,152.82031300000017,108.9741210000002,88.20507799999996,133.0771479999994,118.7177729999994,120.76904300000024,117.69238299999961,123.0771479999994,119.48730499999965,97.69238299999961,116.6665039999998,81.79492200000004,110.89746099999957
380,99.87158199999976,146.9228520000006,105.0,81.41015599999992,129.23095699999976,118.58984400000008,114.10253900000043,113.0771479999994,119.61523400000078,110.76904300000024,91.2822270000006,110.89746099999957,77.82031300000017,112.30761700000039
381,98.46142599999985,139.3588869999994,99.61523400000078,73.7177729999994,121.41015599999992,117.56396500000028,107.30761700000039,105.25634799999989,113.9741210000002,98.3334960000002,83.46142599999985,103.20507799999996,71.2822270000006,113.58984400000008
382,99.23095699999976,134.61523400000078,96.53857400000015,70.51269500000035,114.74365200000011,116.53857400000015,105.12841800000024,98.58984400000008,109.10253900000043,88.0771479999994,79.48730499999965,98.3334960000002,65.64111300000059,114.61523400000078
383,102.94873000000007,136.0258789999998,98.20507799999996,74.48730499999965,114.87158199999976,116.2822270000006,108.7177729999994,96.79492200000004,107.56396500000028,85.51269500000035,81.79492200000004,99.23095699999976,64.74365200000011,114.74365200000011
