,EEG.AF3,EEG.F7,EEG.F3,EEG.FC5,EEG.T7,EEG.P7,EEG.O1,EEG.O2,EEG.P8,EEG.T8,EEG.FC6,EEG.F4,EEG.F8,EEG.AF4
0,86.53857400000015,100.25634799999989,101.6665039999998,97.05126999999993,121.79492200000004,116.15380900000036,115.38476599999922,126.9228520000006,119.23095699999976,111.9228520000006,109.61523400000078,108.20507799999996,104.48730499999965,110.51269500000035
1,85.38476599999922,100.0,99.61523400000078,91.0258789999998,115.76904300000024,116.0258789999998,117.30761700000039,125.0,119.74365200000011,115.12841800000024,107.17968800000017,107.05126999999993,104.87158199999976,111.9228520000006
2,85.0,95.64111300000059,96.41015599999992,82.05126999999993,108.0771479999994,115.89746099999957,115.64111300000059,119.61523400000078,115.12841800000024,110.38476599999922,103.46142599999985,105.64111300000059,98.9741210000002,111.9228520000006
3,83.84619099999964,88.0771479999994,93.46142599999985,75.0,102.82031300000017,114.61523400000078,109.61523400000078,113.84619099999964,107.17968800000017,100.0,97.30761700000039,103.58984400000008,88.9741210000002,110.64111300000059
4,82.30761700000039,81.41015599999992,91.9228520000006,73.58984400000008,103.0771479999994,111.6665039999998,101.53857400000015,110.25634799999989,100.51269500000035,89.48730499999965,90.12841800000024,101.79492200000004,79.87158199999976,109.61523400000078
5,82.94873000000007,80.25634799999989,93.0771479999994,77.82031300000017,108.84619099999964,108.46142599999985,96.6665039999998,110.12841800000024,99.10253900000043,85.25634799999989,85.64111300000059,101.9228520000006,76.6665039999998,109.74365200000011
6,87.56396500000028,86.2822270000006,96.9228520000006,85.12841800000024,117.30761700000039,106.9228520000006,99.48730499999965,113.58984400000008,104.10253900000043,89.87158199999976,87.17968800000017,104.61523400000078,79.87158199999976,110.76904300000024
7,94.23095699999976,96.15380900000036,101.9228520000006,91.79492200000004,124.10253900000043,108.3334960000002,109.10253900000043,119.10253900000043,112.94873000000007,100.76904300000024,93.9741210000002,108.58984400000008,86.0258789999998,111.79492200000004
8,98.58984400000008,103.9741210000002,105.12841800000024,95.0,126.0258789999998,111.6665039999998,119.74365200000011,123.7177729999994,120.89746099999957,111.0258789999998,101.6665039999998,111.2822270000006,89.74365200000011,112.17968800000017
9,96.41015599999992,104.74365200000011,104.61523400000078,93.20507799999996,122.05126999999993,114.61523400000078,124.23095699999976,124.87158199999976,123.9741210000002,114.48730499999965,104.74365200000011,111.0258789999998,86.9228520000006,112.30761700000039
10,87.30761700000039,98.20507799999996,100.0,87.43603499999972,114.74365200000011,115.38476599999922,119.35888699999941,121.79492200000004,120.76904300000024,109.35888699999941,100.51269500000035,107.82031300000017,77.82031300000017,112.17968800000017
11,75.64111300000059,88.58984400000008,93.7177729999994,80.38476599999922,108.3334960000002,113.58984400000008,108.84619099999964,115.76904300000024,113.7177729999994,99.48730499999965,91.0258789999998,103.46142599999985,66.6665039999998,112.17968800000017
12,67.43603499999972,81.41015599999992,88.7177729999994,75.76904300000024,106.0258789999998,110.89746099999957,99.48730499999965,109.35888699999941,106.9228520000006,90.51269500000035,81.79492200000004,100.0,58.846190999999635,112.56396500000028
13,65.64111300000059,79.61523400000078,86.9228520000006,74.87158199999976,107.17968800000017,109.35888699999941,95.76904300000024,104.23095699999976,102.69238299999961,86.0258789999998,77.43603499999972,98.20507799999996,56.79492200000004,112.94873000000007
14,67.94873000000007,81.0258789999998,87.30761700000039,75.89746099999957,107.43603499999972,109.61523400000078,96.9228520000006,100.64111300000059,100.76904300000024,85.38476599999922,78.46142599999985,96.9228520000006,58.0771479999994,113.20507799999996
15,69.23095699999976,81.53857400000015,87.69238299999961,75.89746099999957,103.7177729999994,110.51269500000035,98.7177729999994,98.3334960000002,99.35888699999941,85.64111300000059,81.6665039999998,95.51269500000035,58.974121000000196,112.94873000000007
16,67.17968800000017,79.61523400000078,86.79492200000004,73.84619099999964,98.0771479999994,111.15380900000036,98.9741210000002,97.56396500000028,97.94873000000007,85.38476599999922,83.3334960000002,94.35888699999941,58.20507799999996,112.17968800000017
17,64.10253900000043,77.56396500000028,85.76904300000024,71.6665039999998,96.0258789999998,111.41015599999992,98.9741210000002,99.23095699999976,97.94873000000007,85.25634799999989,83.58984400000008,95.12841800000024,57.69238299999961,111.41015599999992
18,64.10253900000043,78.84619099999964,86.41015599999992,71.79492200000004,101.2822270000006,112.05126999999993,101.15380900000036,103.58984400000008,100.51269500000035,86.2822270000006,84.87158199999976,98.20507799999996,59.61523400000078,110.76904300000024
19,68.46142599999985,84.10253900000043,88.58984400000008,73.9741210000002,111.79492200000004,112.82031300000017,105.64111300000059,108.46142599999985,103.9741210000002,88.0771479999994,87.82031300000017,101.6665039999998,62.94873000000007,110.51269500000035
20,73.3334960000002,88.7177729999994,89.23095699999976,74.87158199999976,120.38476599999922,113.20507799999996,108.84619099999964,109.74365200000011,103.9741210000002,87.05126999999993,89.48730499999965,101.6665039999998,63.0771479999994,110.25634799999989
21,72.43603499999972,87.17968800000017,84.61523400000078,71.15380900000036,120.25634799999989,112.43603499999972,107.05126999999993,105.0,97.94873000000007,80.51269500000035,85.51269500000035,96.2822270000006,56.025878999999804,110.0
22,64.23095699999976,78.46142599999985,74.74365200000011,61.9228520000006,111.15380900000036,110.64111300000059,99.87158199999976,96.0258789999998,88.20507799999996,70.25634799999989,76.53857400000015,87.94873000000007,42.69238299999961,109.35888699999941
23,53.846190999999635,68.58984400000008,64.10253900000043,50.51269500000035,100.0,108.84619099999964,91.53857400000015,88.20507799999996,80.89746099999957,62.56396500000028,68.84619099999964,81.9228520000006,30.384765999999217,108.84619099999964
24,48.974121000000196,65.12841800000024,58.333496000000196,41.79492200000004,95.25634799999989,108.7177729999994,87.05126999999993,86.41015599999992,81.15380900000036,63.20507799999996,69.35888699999941,82.17968800000017,27.43603499999972,108.84619099999964
25,52.56396500000028,70.25634799999989,59.102539000000434,38.333496000000196,99.87158199999976,110.38476599999922,88.20507799999996,90.89746099999957,88.20507799999996,71.53857400000015,78.3334960000002,87.43603499999972,35.25634799999989,109.35888699999941
26,60.38476599999922,79.35888699999941,62.69238299999961,38.7177729999994,109.74365200000011,112.30761700000039,92.82031300000017,97.69238299999961,96.6665039999998,81.15380900000036,89.74365200000011,92.43603499999972,47.17968800000017,110.0
27,66.41015599999992,86.0258789999998,64.35888699999941,39.23095699999976,119.23095699999976,113.20507799999996,97.30761700000039,102.30761700000039,101.15380900000036,85.76904300000024,96.79492200000004,93.3334960000002,54.74365200000011,110.12841800000024
28,68.58984400000008,88.7177729999994,62.94873000000007,38.7177729999994,125.25634799999989,112.94873000000007,100.89746099999957,103.84619099999964,101.9228520000006,84.61523400000078,97.94873000000007,91.2822270000006,55.25634799999989,110.25634799999989
29,69.61523400000078,90.51269500000035,61.666503999999804,38.46142599999985,128.9741210000002,112.94873000000007,105.38476599999922,105.76904300000024,103.7177729999994,82.56396500000028,96.41015599999992,91.15380900000036,52.94873000000007,110.76904300000024
30,72.56396500000028,95.0,63.846190999999635,40.51269500000035,131.41015599999992,114.10253900000043,112.17968800000017,111.0258789999998,110.51269500000035,85.25634799999989,96.53857400000015,95.64111300000059,54.102539000000434,111.53857400000015
31,77.05126999999993,101.6665039999998,68.7177729999994,44.102539000000434,131.53857400000015,115.76904300000024,119.35888699999941,118.58984400000008,120.51269500000035,93.3334960000002,99.23095699999976,103.0771479999994,60.12841800000024,111.9228520000006
32,79.23095699999976,105.89746099999957,71.53857400000015,44.35888699999941,127.17968800000017,116.41015599999992,122.69238299999961,123.0771479999994,127.43603499999972,101.2822270000006,101.6665039999998,107.69238299999961,66.0258789999998,111.53857400000015
33,75.89746099999957,102.30761700000039,68.3334960000002,37.43603499999972,117.17968800000017,115.0,118.84619099999964,119.74365200000011,124.61523400000078,102.43603499999972,99.35888699999941,105.38476599999922,65.12841800000024,111.0258789999998
34,67.30761700000039,91.0258789999998,59.35888699999941,24.871581999999762,104.87158199999976,111.53857400000015,108.84619099999964,109.61523400000078,112.17968800000017,95.25634799999989,91.6665039999998,96.79492200000004,55.897460999999566,111.0258789999998
35,58.589844000000085,78.84619099999964,50.25634799999989,14.743652000000111,97.30761700000039,107.43603499999972,98.46142599999985,99.23095699999976,97.56396500000028,85.38476599999922,83.3334960000002,87.56396500000028,43.974121000000196,111.79492200000004
36,55.76904300000024,75.12841800000024,47.69238299999961,14.743652000000111,100.0,105.0,93.84619099999964,95.89746099999957,90.76904300000024,81.0258789999998,81.2822270000006,84.48730499999965,38.46142599999985,112.82031300000017
37,61.153809000000365,82.94873000000007,53.333496000000196,25.51269500000035,111.2822270000006,105.38476599999922,96.79492200000004,101.41015599999992,96.2822270000006,85.51269500000035,88.0771479999994,89.48730499999965,43.20507799999996,113.3334960000002
38,70.38476599999922,96.79492200000004,63.333496000000196,38.333496000000196,122.30761700000039,107.94873000000007,103.58984400000008,111.0258789999998,108.9741210000002,95.51269500000035,98.9741210000002,98.7177729999994,53.20507799999996,112.82031300000017
39,76.9228520000006,106.41015599999992,70.64111300000059,43.20507799999996,125.0,110.38476599999922,108.9741210000002,117.56396500000028,118.9741210000002,103.84619099999964,105.89746099999957,105.51269500000035,59.35888699999941,111.15380900000036
40,76.79492200000004,105.51269500000035,71.41015599999992,37.30761700000039,118.46142599999985,111.2822270000006,109.74365200000011,117.69238299999961,119.74365200000011,106.2822270000006,104.48730499999965,106.0258789999998,57.05126999999993,108.9741210000002
41,72.05126999999993,96.0258789999998,68.0771479999994,27.30761700000039,109.61523400000078,110.64111300000059,107.43603499999972,113.84619099999964,112.94873000000007,104.48730499999965,97.56396500000028,102.30761700000039,49.61523400000078,107.69238299999961
42,67.56396500000028,85.51269500000035,65.25634799999989,22.56396500000028,106.0258789999998,109.87158199999976,105.0,111.0258789999998,105.38476599999922,102.05126999999993,91.15380900000036,98.58984400000008,43.46142599999985,108.58984400000008
43,66.15380900000036,80.25634799999989,65.25634799999989,26.794922000000042,108.9741210000002,109.48730499999965,103.9741210000002,111.53857400000015,102.94873000000007,100.89746099999957,89.74365200000011,97.56396500000028,42.43603499999972,111.0258789999998
44,66.53857400000015,81.53857400000015,67.05126999999993,35.0,113.9741210000002,109.35888699999941,104.35888699999941,114.48730499999965,106.0258789999998,100.25634799999989,92.56396500000028,98.84619099999964,45.64111300000059,112.94873000000007
45,66.6665039999998,86.15380900000036,68.3334960000002,40.51269500000035,115.76904300000024,108.9741210000002,106.53857400000015,117.17968800000017,111.2822270000006,99.48730499999965,96.41015599999992,100.64111300000059,49.23095699999976,113.3334960000002
46,66.0258789999998,91.0258789999998,68.46142599999985,40.64111300000059,114.61523400000078,108.84619099999964,110.25634799999989,118.0771479999994,115.51269500000035,99.74365200000011,98.84619099999964,101.53857400000015,51.153809000000365,112.43603499999972
47,66.53857400000015,95.12841800000024,68.58984400000008,39.35888699999941,114.10253900000043,109.48730499999965,114.61523400000078,117.05126999999993,117.43603499999972,102.82031300000017,99.61523400000078,101.53857400000015,52.30761700000039,111.0258789999998
48,69.61523400000078,99.48730499999965,69.23095699999976,41.153809000000365,116.6665039999998,110.51269500000035,117.17968800000017,115.12841800000024,117.30761700000039,108.3334960000002,100.12841800000024,101.0258789999998,54.74365200000011,110.0
49,73.58984400000008,103.9741210000002,70.12841800000024,46.666503999999804,120.38476599999922,110.89746099999957,116.2822270000006,113.84619099999964,115.64111300000059,112.82031300000017,101.0258789999998,100.64111300000059,58.589844000000085,109.61523400000078
50,75.38476599999922,107.56396500000028,70.89746099999957,52.30761700000039,121.41015599999992,110.0,111.9228520000006,114.10253900000043,113.46142599999985,112.56396500000028,102.56396500000028,100.76904300000024,61.666503999999804,109.87158199999976
51,73.7177729999994,108.3334960000002,71.53857400000015,53.7177729999994,118.0771479999994,108.46142599999985,106.79492200000004,116.0258789999998,112.17968800000017,106.9228520000006,103.84619099999964,101.6665039999998,61.79492200000004,110.25634799999989
52,69.35888699999941,105.25634799999989,71.2822270000006,49.48730499999965,112.43603499999972,107.43603499999972,103.46142599999985,117.69238299999961,112.56396500000028,99.48730499999965,103.58984400000008,102.69238299999961,58.333496000000196,110.51269500000035
53,64.23095699999976,98.7177729999994,69.23095699999976,41.9228520000006,107.17968800000017,107.94873000000007,102.43603499999972,117.30761700000039,113.9741210000002,95.25634799999989,100.76904300000024,102.30761700000039,52.17968800000017,110.25634799999989
54,59.61523400000078,90.89746099999957,65.64111300000059,34.87158199999976,103.9741210000002,110.12841800000024,102.56396500000028,113.46142599999985,114.48730499999965,96.6665039999998,95.76904300000024,99.61523400000078,45.0,109.74365200000011
55,55.897460999999566,84.87158199999976,61.79492200000004,30.51269500000035,102.94873000000007,112.43603499999972,102.05126999999993,107.17968800000017,112.82031300000017,101.41015599999992,90.64111300000059,95.12841800000024,39.48730499999965,109.74365200000011
56,54.102539000000434,82.56396500000028,59.23095699999976,28.205077999999958,103.0771479999994,112.69238299999961,100.89746099999957,101.53857400000015,109.10253900000043,104.48730499999965,88.0771479999994,90.64111300000059,37.82031300000017,110.25634799999989
57,54.74365200000011,84.10253900000043,58.974121000000196,26.666503999999804,103.3334960000002,110.64111300000059,100.64111300000059,100.25634799999989,104.23095699999976,102.82031300000017,88.9741210000002,88.46142599999985,40.25634799999989,110.76904300000024
58,58.333496000000196,87.94873000000007,61.410155999999915,26.410155999999915,103.3334960000002,108.46142599999985,102.56396500000028,103.84619099999964,99.61523400000078,97.69238299999961,92.56396500000028,90.12841800000024,44.61523400000078,111.2822270000006
59,64.35888699999941,92.69238299999961,66.6665039999998,29.74365200000011,104.61523400000078,108.0771479999994,106.79492200000004,110.12841800000024,97.30761700000039,92.94873000000007,96.79492200000004,94.87158199999976,49.102539000000434,111.79492200000004
60,71.41015599999992,97.69238299999961,73.3334960000002,37.94873000000007,108.9741210000002,109.87158199999976,111.79492200000004,115.38476599999922,99.23095699999976,91.6665039999998,100.64111300000059,100.51269500000035,52.43603499999972,112.17968800000017
61,77.17968800000017,101.9228520000006,78.9741210000002,47.69238299999961,115.89746099999957,112.56396500000028,115.38476599999922,117.17968800000017,105.12841800000024,94.61523400000078,103.20507799999996,104.35888699999941,54.35888699999941,112.05126999999993
62,79.48730499999965,104.48730499999965,81.6665039999998,53.7177729999994,122.17968800000017,114.35888699999941,116.2822270000006,116.2822270000006,112.69238299999961,99.61523400000078,104.23095699999976,105.12841800000024,54.35888699999941,111.41015599999992
63,78.20507799999996,104.87158199999976,81.2822270000006,52.56396500000028,124.61523400000078,114.10253900000043,114.87158199999976,115.12841800000024,118.3334960000002,103.84619099999964,104.10253900000043,103.20507799999996,53.20507799999996,110.64111300000059
64,75.25634799999989,103.58984400000008,79.48730499999965,46.153809000000365,122.30761700000039,111.9228520000006,113.0771479999994,115.51269500000035,120.64111300000059,106.79492200000004,103.58984400000008,101.0258789999998,52.82031300000017,110.12841800000024
65,73.0771479999994,101.6665039999998,78.7177729999994,39.61523400000078,117.69238299999961,109.61523400000078,112.82031300000017,117.43603499999972,120.12841800000024,109.35888699999941,103.46142599999985,100.12841800000024,54.48730499999965,110.0
66,73.0771479999994,100.25634799999989,80.0,37.30761700000039,114.10253900000043,108.84619099999964,113.9741210000002,118.7177729999994,118.84619099999964,111.0258789999998,103.3334960000002,100.76904300000024,56.666503999999804,110.64111300000059
67,74.10253900000043,100.0,82.69238299999961,39.23095699999976,113.0771479999994,110.38476599999922,115.38476599999922,118.0771479999994,117.94873000000007,110.38476599999922,102.82031300000017,101.79492200000004,57.17968800000017,111.6665039999998
68,75.25634799999989,100.64111300000059,84.74365200000011,42.17968800000017,114.23095699999976,112.94873000000007,115.89746099999957,116.15380900000036,117.82031300000017,106.0258789999998,102.05126999999993,102.17968800000017,55.51269500000035,112.69238299999961
69,75.64111300000059,100.89746099999957,85.12841800000024,43.333496000000196,115.76904300000024,114.61523400000078,115.64111300000059,114.74365200000011,117.56396500000028,98.3334960000002,101.53857400000015,101.6665039999998,53.46142599999985,112.94873000000007
70,75.89746099999957,100.0,84.23095699999976,42.56396500000028,116.15380900000036,114.35888699999941,115.51269500000035,114.87158199999976,116.41015599999992,90.12841800000024,101.79492200000004,100.76904300000024,54.102539000000434,112.43603499999972
71,76.79492200000004,98.20507799999996,83.20507799999996,41.153809000000365,115.0,112.56396500000028,115.51269500000035,116.41015599999992,114.74365200000011,84.48730499999965,102.17968800000017,100.25634799999989,58.333496000000196,111.79492200000004
72,78.7177729999994,97.43603499999972,83.20507799999996,40.897460999999566,113.0771479999994,111.0258789999998,115.89746099999957,117.94873000000007,113.84619099999964,84.23095699999976,102.43603499999972,100.12841800000024,65.12841800000024,111.53857400000015
73,81.2822270000006,99.87158199999976,85.0,42.69238299999961,112.30761700000039,110.89746099999957,116.6665039999998,119.23095699999976,115.64111300000059,90.38476599999922,103.46142599999985,100.51269500000035,72.05126999999993,111.9228520000006
74,84.23095699999976,105.12841800000024,88.3334960000002,45.76904300000024,114.23095699999976,111.9228520000006,117.56396500000028,120.38476599999922,120.51269500000035,100.64111300000059,105.89746099999957,101.53857400000015,77.05126999999993,112.82031300000017
75,86.53857400000015,109.61523400000078,91.0258789999998,46.9228520000006,117.69238299999961,112.56396500000028,117.94873000000007,120.76904300000024,125.76904300000024,108.84619099999964,107.94873000000007,102.94873000000007,78.7177729999994,113.7177729999994
76,86.9228520000006,108.84619099999964,90.51269500000035,43.589844000000085,119.87158199999976,111.15380900000036,116.6665039999998,119.35888699999941,126.6665039999998,109.23095699999976,106.79492200000004,103.58984400000008,76.2822270000006,114.35888699999941
77,85.25634799999989,102.69238299999961,86.9228520000006,37.30761700000039,118.9741210000002,107.82031300000017,113.20507799999996,116.15380900000036,121.53857400000015,101.15380900000036,102.17968800000017,102.69238299999961,71.0258789999998,114.23095699999976
78,82.82031300000017,96.0258789999998,83.58984400000008,33.589844000000085,116.9228520000006,105.38476599999922,109.48730499999965,113.3334960000002,114.23095699999976,90.51269500000035,97.69238299999961,101.0258789999998,66.9228520000006,113.58984400000008
79,81.9228520000006,95.76904300000024,84.35888699999941,37.43603499999972,117.82031300000017,105.89746099999957,108.84619099999964,113.3334960000002,111.53857400000015,85.12841800000024,98.0771479999994,100.51269500000035,67.94873000000007,113.0771479999994
80,83.46142599999985,103.20507799999996,89.87158199999976,48.589844000000085,123.46142599999985,109.48730499999965,112.69238299999961,116.9228520000006,116.53857400000015,88.58984400000008,104.10253900000043,101.79492200000004,74.74365200000011,112.94873000000007
81,86.53857400000015,112.82031300000017,96.79492200000004,60.64111300000059,130.38476599999922,113.84619099999964,118.58984400000008,121.79492200000004,126.15380900000036,96.79492200000004,111.2822270000006,103.9741210000002,83.3334960000002,112.69238299999961
82,88.9741210000002,116.79492200000004,101.41015599999992,66.41015599999992,132.43603499999972,116.53857400000015,121.79492200000004,124.35888699999941,132.3076170000004,101.9228520000006,113.9741210000002,105.0,88.20507799999996,111.79492200000004
83,89.48730499999965,112.43603499999972,101.6665039999998,63.333496000000196,126.79492200000004,116.2822270000006,118.9741210000002,122.17968800000017,128.9741210000002,97.94873000000007,110.12841800000024,103.7177729999994,86.6665039999998,111.0258789999998
84,88.20507799999996,103.7177729999994,98.84619099999964,55.12841800000024,117.17968800000017,113.9741210000002,111.2822270000006,116.53857400000015,116.9228520000006,85.89746099999957,102.56396500000028,101.0258789999998,79.61523400000078,111.41015599999992
85,86.2822270000006,97.43603499999972,96.2822270000006,49.23095699999976,111.6665039999998,112.30761700000039,103.84619099999964,111.2822270000006,103.3334960000002,72.94873000000007,96.41015599999992,98.84619099999964,71.0258789999998,112.94873000000007
86,85.0,97.30761700000039,96.15380900000036,50.38476599999922,115.12841800000024,112.82031300000017,101.41015599999992,109.61523400000078,96.15380900000036,67.05126999999993,94.48730499999965,98.3334960000002,65.0,114.23095699999976
87,85.38476599999922,102.05126999999993,98.46142599999985,57.43603499999972,125.0,114.87158199999976,105.12841800000024,111.9228520000006,97.94873000000007,71.2822270000006,96.15380900000036,99.74365200000011,63.46142599999985,114.23095699999976
88,86.79492200000004,107.17968800000017,100.76904300000024,63.7177729999994,133.3334960000002,116.41015599999992,112.05126999999993,115.64111300000059,104.87158199999976,81.9228520000006,97.82031300000017,101.2822270000006,65.25634799999989,113.0771479999994
89,87.82031300000017,108.3334960000002,101.15380900000036,63.46142599999985,133.0771479999994,115.51269500000035,117.17968800000017,117.05126999999993,110.25634799999989,91.53857400000015,96.9228520000006,101.6665039999998,67.43603499999972,111.79492200000004
90,88.7177729999994,105.89746099999957,99.61523400000078,56.666503999999804,124.23095699999976,112.43603499999972,117.69238299999961,114.48730499999965,110.25634799999989,94.87158199999976,94.35888699999941,100.38476599999922,69.35888699999941,111.0258789999998
91,91.2822270000006,104.10253900000043,98.9741210000002,50.25634799999989,114.23095699999976,109.10253900000043,114.23095699999976,110.25634799999989,107.17968800000017,92.69238299999961,94.48730499999965,98.9741210000002,73.84619099999964,111.0258789999998
92,97.56396500000028,107.05126999999993,102.30761700000039,51.153809000000365,112.05126999999993,107.69238299999961,110.51269500000035,108.20507799999996,106.6665039999998,90.64111300000059,100.76904300000024,99.35888699999941,84.61523400000078,111.0258789999998
93,106.6665039999998,113.9741210000002,109.87158199999976,60.38476599999922,119.74365200000011,108.7177729999994,110.51269500000035,110.64111300000059,111.41015599999992,93.7177729999994,112.43603499999972,102.56396500000028,101.0258789999998,111.0258789999998
94,114.23095699999976,118.84619099999964,117.43603499999972,70.89746099999957,130.12841800000024,110.76904300000024,114.35888699999941,115.51269500000035,118.3334960000002,101.41015599999992,123.58984400000008,106.53857400000015,116.41015599999992,110.51269500000035
95,115.12841800000024,115.12841800000024,119.35888699999941,73.3334960000002,132.17968800000017,112.05126999999993,118.20507799999996,118.46142599999985,121.0258789999998,107.43603499999972,127.43603499999972,107.43603499999972,122.43603499999972,110.0
96,108.3334960000002,101.9228520000006,113.7177729999994,65.0,121.79492200000004,112.05126999999993,118.3334960000002,116.2822270000006,115.64111300000059,106.15380900000036,122.30761700000039,103.84619099999964,116.53857400000015,110.12841800000024
97,98.46142599999985,86.41015599999992,104.61523400000078,52.43603499999972,106.41015599999992,111.15380900000036,114.61523400000078,110.38476599999922,105.76904300000024,98.46142599999985,113.3334960000002,98.58984400000008,104.87158199999976,111.53857400000015
98,92.05126999999993,79.23095699999976,98.9741210000002,46.410155999999915,98.46142599999985,110.0,111.2822270000006,106.15380900000036,99.74365200000011,91.6665039999998,108.58984400000008,96.9228520000006,97.56396500000028,113.0771479999994
99,92.69238299999961,85.51269500000035,100.64111300000059,52.17968800000017,103.7177729999994,109.23095699999976,111.9228520000006,108.0771479999994,102.82031300000017,92.30761700000039,112.17968800000017,100.89746099999957,100.64111300000059,113.46142599999985
100,98.46142599999985,101.0258789999998,108.3334960000002,65.12841800000024,117.43603499999972,109.74365200000011,116.6665039999998,116.15380900000036,113.3334960000002,100.12841800000024,121.6665039999998,107.94873000000007,111.6665039999998,112.43603499999972
101,104.48730499999965,115.89746099999957,116.9228520000006,75.51269500000035,128.84619099999964,112.30761700000039,121.9228520000006,125.64111300000059,124.35888699999941,109.35888699999941,130.6411130000006,113.20507799999996,122.69238299999961,111.15380900000036
102,106.79492200000004,122.05126999999993,121.53857400000015,77.17968800000017,130.6411130000006,116.15380900000036,124.74365200000011,131.6665039999998,130.6411130000006,114.48730499999965,134.61523400000078,113.9741210000002,127.17968800000017,110.89746099999957
103,105.0,117.82031300000017,120.51269500000035,71.9228520000006,124.61523400000078,118.9741210000002,124.10253900000043,132.05126999999993,131.53857400000015,114.10253900000043,133.46142599999985,110.89746099999957,123.84619099999964,111.6665039999998
104,101.79492200000004,107.82031300000017,116.41015599999992,67.43603499999972,118.0771479999994,118.7177729999994,121.41015599999992,128.20507799999996,130.12841800000024,110.89746099999957,130.0,107.17968800000017,117.05126999999993,112.30761700000039
105,100.25634799999989,99.87158199999976,113.84619099999964,69.61523400000078,117.56396500000028,115.12841800000024,118.84619099999964,124.23095699999976,129.61523400000078,109.35888699999941,127.69238299999961,105.89746099999957,112.30761700000039,112.30761700000039
106,101.6665039999998,98.9741210000002,115.25634799999989,77.56396500000028,122.43603499999972,110.25634799999989,118.0771479999994,122.94873000000007,130.12841800000024,111.53857400000015,128.3334960000002,107.05126999999993,111.9228520000006,111.79492200000004
107,104.23095699999976,104.23095699999976,118.7177729999994,85.12841800000024,126.53857400000015,106.6665039999998,119.23095699999976,124.35888699999941,130.0,115.12841800000024,130.51269500000035,108.84619099999964,113.20507799999996,111.15380900000036
108,104.61523400000078,108.9741210000002,119.87158199999976,86.0258789999998,123.7177729999994,105.38476599999922,120.51269500000035,125.64111300000059,126.9228520000006,114.74365200000011,130.0,108.58984400000008,111.41015599999992,111.15380900000036
109,101.15380900000036,107.69238299999961,116.0258789999998,79.48730499999965,113.84619099999964,106.41015599999992,119.87158199999976,123.9741210000002,121.0258789999998,108.46142599999985,124.23095699999976,105.51269500000035,105.0,111.53857400000015
110,96.9228520000006,101.0258789999998,109.35888699999941,71.9228520000006,103.3334960000002,108.58984400000008,117.05126999999993,119.10253900000043,114.61523400000078,100.0,115.51269500000035,102.05126999999993,98.20507799999996,111.9228520000006
111,96.15380900000036,95.25634799999989,104.23095699999976,70.76904300000024,99.48730499999965,110.25634799999989,113.9741210000002,113.9741210000002,111.0258789999998,95.89746099999957,110.0,100.76904300000024,96.53857400000015,111.79492200000004
112,101.15380900000036,96.41015599999992,104.61523400000078,78.7177729999994,104.87158199999976,111.0258789999998,112.82031300000017,111.6665039999998,111.0258789999998,99.23095699999976,112.82031300000017,101.9228520000006,101.53857400000015,111.15380900000036
113,108.7177729999994,104.10253900000043,110.0,90.76904300000024,114.87158199999976,110.89746099999957,114.48730499999965,113.20507799999996,112.82031300000017,107.05126999999993,122.56396500000028,103.3334960000002,109.10253900000043,110.51269500000035
114,113.7177729999994,112.94873000000007,116.6665039999998,98.46142599999985,121.79492200000004,110.25634799999989,117.43603499999972,116.53857400000015,113.58984400000008,112.82031300000017,131.9228520000006,103.58984400000008,113.58984400000008,110.51269500000035
115,113.0771479999994,116.9228520000006,120.51269500000035,96.79492200000004,121.79492200000004,110.12841800000024,119.23095699999976,118.84619099999964,112.17968800000017,111.2822270000006,133.46142599999985,102.56396500000028,113.0771479999994,110.89746099999957
116,108.3334960000002,114.74365200000011,120.0,88.58984400000008,117.30761700000039,110.89746099999957,118.9741210000002,118.84619099999964,110.12841800000024,103.3334960000002,126.15380900000036,102.17968800000017,110.12841800000024,111.0258789999998
117,103.84619099999964,110.38476599999922,116.79492200000004,82.30761700000039,114.23095699999976,112.56396500000028,118.20507799999996,117.43603499999972,109.87158199999976,95.25634799999989,116.79492200000004,104.87158199999976,108.7177729999994,111.0258789999998
118,103.58984400000008,109.10253900000043,114.74365200000011,84.23095699999976,116.0258789999998,114.48730499999965,118.9741210000002,116.2822270000006,112.17968800000017,93.20507799999996,113.7177729999994,110.51269500000035,111.15380900000036,111.41015599999992
119,107.69238299999961,112.69238299999961,115.76904300000024,93.3334960000002,120.76904300000024,116.0258789999998,121.2822270000006,116.0258789999998,115.89746099999957,98.20507799999996,119.87158199999976,115.89746099999957,116.0258789999998,112.56396500000028
120,112.17968800000017,117.82031300000017,118.58984400000008,101.9228520000006,123.9741210000002,116.41015599999992,122.43603499999972,116.2822270000006,118.3334960000002,105.38476599999922,129.48730499999965,116.41015599999992,119.35888699999941,113.84619099999964
121,112.82031300000017,119.87158199999976,119.74365200000011,103.20507799999996,122.69238299999961,115.12841800000024,120.89746099999957,116.15380900000036,117.82031300000017,108.9741210000002,134.3588869999994,111.2822270000006,117.94873000000007,114.23095699999976
122,108.7177729999994,116.2822270000006,117.30761700000039,97.05126999999993,117.94873000000007,112.43603499999972,118.20507799999996,116.0258789999998,115.25634799999989,107.30761700000039,130.6411130000006,103.84619099999964,112.82031300000017,113.3334960000002
123,102.56396500000028,109.23095699999976,112.69238299999961,89.10253900000043,113.58984400000008,109.61523400000078,117.43603499999972,116.0258789999998,113.58984400000008,102.94873000000007,122.43603499999972,99.74365200000011,108.20507799999996,111.53857400000015
124,98.58984400000008,102.56396500000028,109.23095699999976,85.25634799999989,112.30761700000039,108.3334960000002,119.74365200000011,116.53857400000015,114.48730499999965,99.48730499999965,116.6665039999998,101.41015599999992,107.56396500000028,110.0
125,98.7177729999994,99.48730499999965,108.84619099999964,87.94873000000007,114.10253900000043,109.87158199999976,123.46142599999985,117.30761700000039,116.79492200000004,98.84619099999964,117.69238299999961,106.9228520000006,110.25634799999989,109.10253900000043
126,101.53857400000015,100.51269500000035,110.76904300000024,95.25634799999989,116.6665039999998,113.46142599999985,125.76904300000024,118.20507799999996,117.56396500000028,100.12841800000024,123.7177729999994,111.6665039999998,113.20507799999996,109.23095699999976
127,104.35888699999941,103.46142599999985,112.94873000000007,102.30761700000039,118.46142599999985,116.41015599999992,125.0,118.7177729999994,115.51269500000035,101.53857400000015,129.10253900000043,112.82031300000017,113.9741210000002,109.74365200000011
128,104.23095699999976,105.25634799999989,113.20507799999996,105.25634799999989,119.10253900000043,116.6665039999998,121.9228520000006,118.3334960000002,110.89746099999957,100.76904300000024,128.84619099999964,109.87158199999976,112.43603499999972,110.25634799999989
129,100.51269500000035,103.84619099999964,111.53857400000015,103.20507799999996,118.58984400000008,114.74365200000011,118.58984400000008,116.79492200000004,105.89746099999957,98.20507799999996,122.43603499999972,104.61523400000078,110.38476599999922,110.89746099999957
130,95.64111300000059,100.25634799999989,109.35888699999941,98.58984400000008,117.69238299999961,113.0771479999994,117.56396500000028,115.25634799999989,103.3334960000002,96.2822270000006,115.0,100.64111300000059,109.10253900000043,112.17968800000017
131,93.58984400000008,98.20507799999996,108.7177729999994,96.2822270000006,118.0771479999994,113.3334960000002,119.61523400000078,116.0258789999998,105.38476599999922,98.9741210000002,113.84619099999964,100.76904300000024,109.87158199999976,113.84619099999964
132,96.9228520000006,100.89746099999957,111.2822270000006,99.61523400000078,121.15380900000036,114.74365200000011,123.3334960000002,119.74365200000011,112.05126999999993,107.69238299999961,121.41015599999992,105.38476599999922,113.20507799999996,115.0
133,104.23095699999976,108.9741210000002,116.0258789999998,108.20507799999996,126.6665039999998,115.51269500000035,126.15380900000036,125.0,120.38476599999922,120.0,133.7177729999994,111.0258789999998,118.58984400000008,114.74365200000011
134,111.41015599999992,118.20507799999996,120.51269500000035,117.69238299999961,131.79492200000004,114.87158199999976,127.30761700000039,129.23095699999976,126.0258789999998,130.12841800000024,143.46142599999985,114.23095699999976,124.10253900000043,113.0771479999994
135,113.7177729999994,122.56396500000028,121.9228520000006,123.20507799999996,133.3334960000002,113.20507799999996,127.82031300000017,131.0258789999998,126.79492200000004,132.56396500000028,145.6411130000006,113.0771479999994,127.05126999999993,111.2822270000006
136,110.0,118.84619099999964,119.74365200000011,122.43603499999972,130.2563479999999,111.79492200000004,129.23095699999976,130.76904300000024,123.7177729999994,126.79492200000004,141.2822270000006,109.61523400000078,126.2822270000006,110.64111300000059
137,102.82031300000017,109.74365200000011,115.76904300000024,117.05126999999993,124.48730499999965,111.15380900000036,130.76904300000024,130.0,120.12841800000024,117.43603499999972,135.0,106.9228520000006,123.20507799999996,110.89746099999957
138,96.9228520000006,101.41015599999992,113.0771479999994,110.76904300000024,118.9741210000002,111.41015599999992,130.76904300000024,129.61523400000078,119.10253900000043,110.25634799999989,131.0258789999998,106.53857400000015,120.0,111.53857400000015
139,95.51269500000035,98.7177729999994,112.94873000000007,106.9228520000006,115.64111300000059,111.79492200000004,127.94873000000007,129.10253900000043,120.64111300000059,108.7177729999994,130.6411130000006,108.0771479999994,118.3334960000002,111.9228520000006
140,98.46142599999985,102.05126999999993,114.74365200000011,107.30761700000039,115.38476599999922,111.41015599999992,123.20507799999996,127.30761700000039,122.56396500000028,112.82031300000017,132.3076170000004,109.61523400000078,118.3334960000002,111.41015599999992
141,102.69238299999961,107.43603499999972,116.53857400000015,111.41015599999992,117.30761700000039,110.38476599999922,119.23095699999976,123.84619099999964,122.56396500000028,119.23095699999976,134.3588869999994,110.64111300000059,119.48730499999965,110.12841800000024
142,104.74365200000011,110.38476599999922,117.05126999999993,116.0258789999998,120.64111300000059,109.48730499999965,117.69238299999961,119.74365200000011,120.38476599999922,123.58984400000008,135.12841800000024,111.15380900000036,120.64111300000059,109.10253900000043
143,102.82031300000017,108.58984400000008,116.15380900000036,117.56396500000028,123.58984400000008,110.12841800000024,117.69238299999961,117.05126999999993,117.30761700000039,122.43603499999972,133.7177729999994,111.41015599999992,120.38476599999922,109.35888699999941
144,98.0771479999994,104.74365200000011,114.74365200000011,115.25634799999989,125.89746099999957,112.30761700000039,117.94873000000007,117.30761700000039,115.25634799999989,116.6665039999998,131.0258789999998,111.6665039999998,118.58984400000008,110.89746099999957
145,94.23095699999976,104.23095699999976,114.48730499999965,112.17968800000017,128.3334960000002,114.61523400000078,118.7177729999994,121.41015599999992,116.41015599999992,111.15380900000036,129.48730499999965,112.56396500000028,117.56396500000028,112.17968800000017
146,95.0,110.12841800000024,117.05126999999993,112.17968800000017,132.05126999999993,115.12841800000024,121.6665039999998,128.20507799999996,122.30761700000039,111.6665039999998,131.41015599999992,115.0,120.25634799999989,112.30761700000039
147,101.15380900000036,119.61523400000078,122.30761700000039,115.64111300000059,136.41015599999992,113.46142599999985,127.17968800000017,134.7436520000001,131.2822270000006,119.35888699999941,136.41015599999992,118.3334960000002,126.9228520000006,111.79492200000004
148,108.46142599999985,125.51269500000035,126.6665039999998,118.0771479999994,137.82031300000017,111.41015599999992,132.94873000000007,137.6923829999996,138.46142599999985,129.48730499999965,140.6411130000006,120.12841800000024,133.20507799999996,111.79492200000004
149,111.0258789999998,121.41015599999992,126.2822270000006,115.38476599999922,133.20507799999996,110.51269500000035,134.61523400000078,135.51269500000035,138.58984400000008,134.10253900000043,139.7436520000001,117.43603499999972,132.56396500000028,112.30761700000039
150,105.76904300000024,107.43603499999972,119.74365200000011,107.69238299999961,122.82031300000017,111.53857400000015,130.2563479999999,129.61523400000078,130.2563479999999,127.82031300000017,132.6923829999996,110.12841800000024,122.17968800000017,112.82031300000017
151,95.12841800000024,90.64111300000059,110.0,99.74365200000011,111.0258789999998,113.3334960000002,121.9228520000006,122.56396500000028,117.56396500000028,111.9228520000006,122.56396500000028,101.9228520000006,105.76904300000024,112.56396500000028
152,84.87158199999976,79.48730499999965,102.17968800000017,97.43603499999972,103.46142599999985,113.9741210000002,114.10253900000043,116.9228520000006,105.76904300000024,93.3334960000002,113.7177729999994,97.30761700000039,90.25634799999989,111.41015599999992
153,80.25634799999989,78.20507799999996,100.38476599999922,102.69238299999961,103.46142599999985,113.3334960000002,111.0258789999998,114.10253900000043,98.58984400000008,80.12841800000024,109.48730499999965,98.20507799999996,81.53857400000015,110.0
154,82.56396500000028,84.61523400000078,104.48730499999965,111.6665039999998,110.64111300000059,112.30761700000039,113.0771479999994,113.7177729999994,97.05126999999993,77.43603499999972,110.76904300000024,103.0771479999994,81.6665039999998,108.9741210000002
155,89.10253900000043,93.58984400000008,111.0258789999998,118.9741210000002,120.76904300000024,112.56396500000028,117.05126999999993,114.74365200000011,99.87158199999976,84.48730499999965,115.0,108.3334960000002,88.46142599999985,109.35888699999941
156,94.74365200000011,100.51269500000035,116.15380900000036,121.0258789999998,128.46142599999985,113.84619099999964,119.61523400000078,115.25634799999989,104.23095699999976,95.38476599999922,118.46142599999985,110.64111300000059,97.43603499999972,111.41015599999992
157,96.6665039999998,103.9741210000002,117.94873000000007,119.35888699999941,130.38476599999922,115.38476599999922,119.87158199999976,114.87158199999976,107.82031300000017,103.58984400000008,118.3334960000002,109.10253900000043,103.84619099999964,114.23095699999976
158,94.87158199999976,105.51269500000035,117.43603499999972,117.56396500000028,126.79492200000004,115.89746099999957,120.0,115.12841800000024,110.25634799999989,106.53857400000015,115.76904300000024,106.0258789999998,105.89746099999957,116.15380900000036
159,92.69238299999961,107.05126999999993,117.17968800000017,118.84619099999964,121.2822270000006,115.64111300000059,122.69238299999961,117.94873000000007,112.69238299999961,106.9228520000006,114.23095699999976,104.74365200000011,104.10253900000043,116.0258789999998
160,92.82031300000017,110.0,119.87158199999976,123.58984400000008,118.46142599999985,115.0,127.56396500000028,123.20507799999996,116.53857400000015,109.23095699999976,116.0258789999998,107.69238299999961,101.2822270000006,113.84619099999964
161,96.53857400000015,114.74365200000011,125.64111300000059,130.38476599999922,121.2822270000006,114.61523400000078,131.79492200000004,128.84619099999964,121.53857400000015,114.23095699999976,120.64111300000059,113.58984400000008,99.87158199999976,111.0258789999998
162,102.43603499999972,119.61523400000078,131.79492200000004,136.41015599999992,128.58984400000008,114.61523400000078,132.17968800000017,132.17968800000017,125.89746099999957,119.48730499999965,125.0,118.9741210000002,100.89746099999957,108.84619099999964
163,107.30761700000039,122.43603499999972,135.12841800000024,139.61523400000078,136.6665039999998,115.0,127.82031300000017,131.6665039999998,127.17968800000017,121.0258789999998,126.41015599999992,120.64111300000059,103.84619099999964,108.0771479999994
164,107.94873000000007,121.2822270000006,133.58984400000008,138.58984400000008,141.2822270000006,115.64111300000059,121.2822270000006,127.94873000000007,124.48730499999965,117.56396500000028,124.35888699999941,118.58984400000008,106.15380900000036,109.10253900000043
165,103.58984400000008,116.0258789999998,128.20507799999996,133.9741210000002,139.48730499999965,115.64111300000059,115.89746099999957,122.69238299999961,118.7177729999994,110.51269500000035,120.12841800000024,114.23095699999976,104.87158199999976,111.15380900000036
166,96.2822270000006,108.46142599999985,121.9228520000006,127.82031300000017,131.9228520000006,114.61523400000078,113.3334960000002,117.30761700000039,111.6665039999998,102.30761700000039,115.0,109.87158199999976,98.3334960000002,112.82031300000017
167,89.10253900000043,101.0258789999998,116.9228520000006,122.05126999999993,121.0258789999998,112.69238299999961,112.56396500000028,112.82031300000017,105.25634799999989,95.0,110.38476599999922,106.2822270000006,88.0771479999994,113.3334960000002
168,85.25634799999989,96.41015599999992,114.35888699999941,118.7177729999994,110.12841800000024,111.79492200000004,112.05126999999993,109.48730499999965,100.51269500000035,90.25634799999989,107.05126999999993,104.10253900000043,79.10253900000043,112.69238299999961
169,86.15380900000036,95.89746099999957,113.9741210000002,119.10253900000043,103.0771479999994,112.82031300000017,111.41015599999992,108.46142599999985,98.84619099999964,89.74365200000011,106.41015599999992,104.48730499999965,77.69238299999961,111.2822270000006
170,92.30761700000039,98.9741210000002,115.89746099999957,123.9741210000002,103.0771479999994,115.0,112.56396500000028,110.25634799999989,101.6665039999998,94.48730499999965,110.12841800000024,107.69238299999961,87.17968800000017,109.87158199999976
171,101.79492200000004,103.84619099999964,120.25634799999989,131.15380900000036,109.74365200000011,116.15380900000036,116.6665039999998,114.74365200000011,108.7177729999994,103.9741210000002,118.20507799999996,113.0771479999994,105.12841800000024,108.84619099999964
172,110.0,107.82031300000017,125.38476599999922,137.3076170000004,118.84619099999964,115.25634799999989,122.56396500000028,119.74365200000011,116.79492200000004,114.35888699999941,128.0771479999994,117.69238299999961,122.82031300000017,108.58984400000008
173,111.6665039999998,108.46142599999985,128.7177729999994,138.9741210000002,123.84619099999964,113.3334960000002,126.79492200000004,122.69238299999961,121.0258789999998,120.89746099999957,134.87158199999976,119.10253900000043,131.2822270000006,109.61523400000078
174,105.25634799999989,105.25634799999989,128.0771479999994,135.51269500000035,120.76904300000024,111.9228520000006,126.0258789999998,121.53857400000015,118.7177729999994,119.87158199999976,134.61523400000078,116.2822270000006,126.79492200000004,111.53857400000015
175,95.0,100.0,123.46142599999985,129.61523400000078,111.6665039999998,111.2822270000006,120.0,116.9228520000006,111.41015599999992,112.43603499999972,127.56396500000028,110.76904300000024,114.10253900000043,113.0771479999994
176,87.56396500000028,95.76904300000024,117.69238299999961,124.87158199999976,103.0771479999994,111.2822270000006,112.82031300000017,112.43603499999972,104.23095699999976,103.9741210000002,119.23095699999976,105.76904300000024,102.82031300000017,113.20507799999996
177,87.43603499999972,95.76904300000024,114.10253900000043,124.35888699999941,101.0258789999998,111.79492200000004,109.48730499999965,111.6665039999998,103.0771479999994,100.51269500000035,115.76904300000024,103.3334960000002,101.0258789999998,112.30761700000039
178,93.46142599999985,100.76904300000024,114.61523400000078,128.3334960000002,106.2822270000006,112.82031300000017,112.05126999999993,115.38476599999922,109.10253900000043,105.25634799999989,120.0,103.9741210000002,109.10253900000043,111.0258789999998
179,100.0,107.82031300000017,118.3334960000002,135.0,113.9741210000002,113.7177729999994,117.69238299999961,120.64111300000059,117.94873000000007,114.74365200000011,127.94873000000007,106.41015599999992,120.38476599999922,110.51269500000035
180,101.6665039999998,111.2822270000006,122.05126999999993,139.7436520000001,117.05126999999993,112.94873000000007,121.0258789999998,122.43603499999972,122.56396500000028,121.79492200000004,132.17968800000017,108.3334960000002,126.41015599999992,110.76904300000024
181,96.0258789999998,106.9228520000006,122.43603499999972,138.84619099999964,111.6665039999998,110.76904300000024,118.7177729999994,117.94873000000007,118.46142599999985,120.12841800000024,128.20507799999996,108.46142599999985,123.0771479999994,111.2822270000006
182,86.0258789999998,95.0,118.20507799999996,131.9228520000006,100.38476599999922,108.7177729999994,111.2822270000006,108.9741210000002,107.56396500000028,110.12841800000024,118.0771479999994,106.6665039999998,112.82031300000017,111.53857400000015
183,77.82031300000017,82.82031300000017,111.53857400000015,123.46142599999985,90.0,107.82031300000017,103.3334960000002,100.76904300000024,97.17968800000017,98.58984400000008,109.74365200000011,103.46142599999985,102.56396500000028,111.53857400000015
184,76.79492200000004,78.9741210000002,106.41015599999992,120.12841800000024,87.56396500000028,107.82031300000017,100.0,98.20507799999996,94.61523400000078,93.46142599999985,109.87158199999976,100.51269500000035,99.23095699999976,111.2822270000006
185,84.35888699999941,87.94873000000007,106.79492200000004,125.76904300000024,95.64111300000059,108.20507799999996,103.7177729999994,102.82031300000017,102.05126999999993,98.3334960000002,119.61523400000078,99.35888699999941,105.38476599999922,111.41015599999992
186,96.41015599999992,105.38476599999922,112.82031300000017,138.0771479999994,109.35888699999941,109.10253900000043,112.17968800000017,112.17968800000017,115.12841800000024,110.12841800000024,133.46142599999985,100.76904300000024,118.20507799999996,112.05126999999993
187,106.0258789999998,120.76904300000024,120.38476599999922,150.12841800000024,120.89746099999957,110.64111300000059,119.74365200000011,121.2822270000006,126.15380900000036,121.9228520000006,142.94873000000007,103.7177729999994,131.0258789999998,112.69238299999961
188,108.3334960000002,125.89746099999957,123.9741210000002,155.38476599999922,123.9741210000002,112.17968800000017,122.82031300000017,125.25634799999989,129.7436520000001,127.43603499999972,143.0771479999994,107.17968800000017,137.82031300000017,112.56396500000028
189,104.10253900000043,119.87158199999976,121.6665039999998,152.3076170000004,119.10253900000043,112.56396500000028,121.15380900000036,123.3334960000002,126.0258789999998,125.12841800000024,136.0258789999998,110.0,136.0258789999998,111.79492200000004
190,98.7177729999994,109.87158199999976,116.2822270000006,144.7436520000001,112.17968800000017,111.2822270000006,117.82031300000017,118.46142599999985,119.61523400000078,118.3334960000002,128.9741210000002,112.17968800000017,127.94873000000007,111.0258789999998
191,96.6665039999998,104.61523400000078,112.82031300000017,139.7436520000001,109.10253900000043,109.61523400000078,115.76904300000024,115.0,115.51269500000035,112.43603499999972,128.58984400000008,113.58984400000008,118.84619099999964,110.76904300000024
192,99.23095699999976,107.82031300000017,114.61523400000078,141.2822270000006,111.9228520000006,109.35888699999941,116.6665039999998,115.76904300000024,115.76904300000024,111.2822270000006,135.89746099999957,114.48730499999965,113.84619099999964,111.15380900000036
193,103.46142599999985,116.0258789999998,120.51269500000035,148.58984400000008,117.82031300000017,111.0258789999998,119.74365200000011,119.74365200000011,118.84619099999964,114.48730499999965,145.89746099999957,115.76904300000024,115.38476599999922,111.79492200000004
194,105.89746099999957,122.56396500000028,126.41015599999992,156.6665039999998,121.6665039999998,113.0771479999994,122.17968800000017,123.20507799999996,121.6665039999998,119.23095699999976,152.43603499999972,117.43603499999972,121.53857400000015,112.30761700000039
195,104.35888699999941,123.3334960000002,128.0771479999994,159.48730499999965,119.87158199999976,113.58984400000008,121.41015599999992,122.56396500000028,121.6665039999998,121.2822270000006,152.3076170000004,118.3334960000002,128.20507799999996,112.69238299999961
196,99.74365200000011,119.23095699999976,124.74365200000011,155.2563479999999,112.82031300000017,112.17968800000017,117.17968800000017,117.30761700000039,118.58984400000008,119.61523400000078,147.3076170000004,117.30761700000039,131.6665039999998,112.43603499999972
197,95.51269500000035,114.10253900000043,119.48730499999965,147.82031300000017,105.12841800000024,110.12841800000024,112.56396500000028,111.0258789999998,115.0,116.53857400000015,142.3076170000004,115.38476599999922,131.79492200000004,112.17968800000017
198,95.51269500000035,111.2822270000006,117.69238299999961,143.7177729999994,101.53857400000015,109.35888699999941,111.9228520000006,109.48730499999965,114.48730499999965,116.41015599999992,141.9228520000006,114.74365200000011,131.15380900000036,111.9228520000006
199,101.79492200000004,111.79492200000004,122.43603499999972,146.6665039999998,104.23095699999976,110.51269500000035,117.43603499999972,115.64111300000059,118.9741210000002,121.53857400000015,146.53857400000015,116.6665039999998,133.58984400000008,111.2822270000006
200,112.05126999999993,114.74365200000011,131.9228520000006,155.38476599999922,110.38476599999922,113.20507799999996,127.17968800000017,127.56396500000028,127.17968800000017,130.12841800000024,152.56396500000028,120.51269500000035,139.61523400000078,110.0
201,121.15380900000036,118.46142599999985,140.12841800000024,164.3588869999994,115.25634799999989,115.38476599999922,135.89746099999957,138.58984400000008,134.48730499999965,137.56396500000028,155.51269500000035,124.10253900000043,145.76904300000024,108.84619099999964
202,124.10253900000043,121.0258789999998,141.53857400000015,167.94873000000007,115.0,115.76904300000024,138.3334960000002,141.9228520000006,136.15380900000036,138.46142599999985,152.3076170000004,125.25634799999989,146.15380900000036,109.48730499999965
203,119.10253900000043,120.25634799999989,135.38476599999922,163.20507799999996,109.74365200000011,113.84619099999964,132.94873000000007,135.76904300000024,130.38476599999922,131.15380900000036,143.9741210000002,123.20507799999996,138.58984400000008,112.30761700000039
204,109.35888699999941,115.76904300000024,126.15380900000036,152.82031300000017,102.82031300000017,110.89746099999957,123.3334960000002,125.12841800000024,120.38476599999922,119.23095699999976,134.3588869999994,119.10253900000043,126.6665039999998,115.25634799999989
205,100.76904300000024,109.48730499999965,119.35888699999941,143.20507799999996,98.0771479999994,108.58984400000008,116.0258789999998,117.56396500000028,112.69238299999961,109.87158199999976,127.82031300000017,115.12841800000024,117.56396500000028,116.53857400000015
206,98.20507799999996,104.87158199999976,117.94873000000007,140.76904300000024,97.69238299999961,108.0771479999994,115.51269500000035,117.69238299999961,112.05126999999993,108.58984400000008,127.05126999999993,113.20507799999996,115.89746099999957,115.64111300000059
207,102.30761700000039,104.87158199999976,120.76904300000024,146.9228520000006,101.2822270000006,109.10253900000043,121.9228520000006,123.84619099999964,118.20507799999996,115.12841800000024,131.2822270000006,113.9741210000002,120.76904300000024,114.23095699999976
208,110.0,109.48730499999965,124.23095699999976,156.9228520000006,107.17968800000017,110.76904300000024,130.38476599999922,130.89746099999957,127.05126999999993,124.87158199999976,137.3076170000004,116.53857400000015,127.17968800000017,112.94873000000007
209,116.0258789999998,115.38476599999922,125.76904300000024,163.58984400000008,113.0771479999994,111.9228520000006,135.38476599999922,133.58984400000008,132.6923829999996,131.79492200000004,141.0258789999998,119.23095699999976,129.61523400000078,112.05126999999993
210,116.79492200000004,117.82031300000017,125.38476599999922,162.94873000000007,117.05126999999993,112.30761700000039,134.3588869999994,130.51269500000035,131.9228520000006,131.9228520000006,140.51269500000035,120.0,125.64111300000059,111.2822270000006
211,112.05126999999993,113.3334960000002,123.9741210000002,156.6665039999998,118.3334960000002,112.17968800000017,128.58984400000008,123.46142599999985,125.51269500000035,125.76904300000024,136.2822270000006,118.20507799999996,116.79492200000004,111.15380900000036
212,104.23095699999976,102.82031300000017,122.05126999999993,149.7436520000001,116.53857400000015,111.6665039999998,122.05126999999993,116.0258789999998,116.6665039999998,116.79492200000004,130.6411130000006,114.10253900000043,106.41015599999992,112.05126999999993
213,96.41015599999992,91.0258789999998,119.74365200000011,146.41015599999992,112.82031300000017,110.76904300000024,117.43603499999972,110.51269500000035,109.10253900000043,109.10253900000043,125.25634799999989,108.84619099999964,97.82031300000017,113.84619099999964
214,90.38476599999922,83.0771479999994,116.53857400000015,146.2822270000006,108.20507799999996,108.84619099999964,115.0,106.79492200000004,103.84619099999964,104.23095699999976,120.51269500000035,104.23095699999976,91.79492200000004,115.64111300000059
215,85.64111300000059,81.15380900000036,111.79492200000004,146.9228520000006,103.9741210000002,106.9228520000006,112.94873000000007,103.7177729999994,99.74365200000011,100.76904300000024,115.0,100.89746099999957,87.56396500000028,116.6665039999998
216,81.53857400000015,82.94873000000007,105.64111300000059,145.51269500000035,100.64111300000059,106.15380900000036,110.76904300000024,101.15380900000036,95.89746099999957,96.9228520000006,108.20507799999996,99.23095699999976,84.10253900000043,116.53857400000015
217,78.3334960000002,85.38476599999922,99.74365200000011,141.79492200000004,98.84619099999964,107.05126999999993,109.35888699999941,99.87158199999976,93.0771479999994,92.69238299999961,101.41015599999992,98.7177729999994,81.53857400000015,115.25634799999989
218,77.56396500000028,87.05126999999993,97.05126999999993,138.20507799999996,99.48730499999965,108.58984400000008,110.12841800000024,100.12841800000024,93.20507799999996,89.87158199999976,97.30761700000039,98.58984400000008,80.89746099999957,113.3334960000002
219,79.87158199999976,88.0771479999994,98.84619099999964,137.17968800000017,103.0771479999994,109.87158199999976,112.30761700000039,101.0258789999998,96.79492200000004,90.89746099999957,97.56396500000028,98.46142599999985,82.43603499999972,111.79492200000004
220,83.58984400000008,88.46142599999985,103.84619099999964,138.9741210000002,108.20507799999996,110.12841800000024,114.48730499999965,100.89746099999957,102.56396500000028,96.15380900000036,101.9228520000006,98.3334960000002,85.51269500000035,111.2822270000006
221,85.76904300000024,88.84619099999964,108.20507799999996,141.2822270000006,111.79492200000004,109.35888699999941,114.87158199999976,100.0,108.20507799999996,103.9741210000002,108.58984400000008,98.3334960000002,88.3334960000002,111.53857400000015
222,85.76904300000024,90.38476599999922,110.0,142.56396500000028,111.9228520000006,108.20507799999996,114.10253900000043,100.51269500000035,111.41015599999992,110.76904300000024,115.25634799999989,98.9741210000002,90.76904300000024,111.53857400000015
223,85.51269500000035,95.25634799999989,110.51269500000035,143.7177729999994,109.23095699999976,107.56396500000028,113.84619099999964,104.35888699999941,112.30761700000039,114.23095699999976,120.64111300000059,100.51269500000035,93.7177729999994,111.15380900000036
224,88.46142599999985,103.46142599999985,111.79492200000004,147.56396500000028,107.56396500000028,107.94873000000007,115.25634799999989,110.51269500000035,112.69238299999961,114.48730499999965,124.23095699999976,102.56396500000028,98.3334960000002,110.89746099999957
225,95.0,111.6665039999998,114.23095699999976,155.6411130000006,110.64111300000059,109.10253900000043,117.17968800000017,115.76904300000024,114.23095699999976,114.23095699999976,126.15380900000036,104.23095699999976,103.0771479999994,111.2822270000006
226,101.2822270000006,114.87158199999976,115.76904300000024,164.7436520000001,118.0771479999994,110.0,117.17968800000017,116.79492200000004,117.30761700000039,116.2822270000006,125.51269500000035,104.61523400000078,104.48730499999965,112.05126999999993
227,102.43603499999972,110.12841800000024,114.35888699999941,169.23095699999976,125.38476599999922,110.12841800000024,113.84619099999964,113.20507799999996,119.74365200000011,120.64111300000059,122.05126999999993,103.58984400000008,100.12841800000024,112.56396500000028
228,97.17968800000017,99.61523400000078,109.61523400000078,166.53857400000015,126.9228520000006,109.74365200000011,107.94873000000007,107.69238299999961,119.35888699999941,124.10253900000043,116.15380900000036,101.79492200000004,91.0258789999998,112.43603499999972
229,89.74365200000011,90.12841800000024,104.23095699999976,159.87158199999976,121.79492200000004,109.61523400000078,102.43603499999972,103.9741210000002,115.25634799999989,122.82031300000017,111.0258789999998,100.76904300000024,82.94873000000007,111.79492200000004
230,87.56396500000028,89.10253900000043,102.30761700000039,156.6665039999998,114.23095699999976,109.87158199999976,101.0258789999998,104.23095699999976,110.51269500000035,115.89746099999957,111.41015599999992,101.9228520000006,82.56396500000028,111.79492200000004
231,95.64111300000059,99.48730499999965,106.6665039999998,161.79492200000004,110.89746099999957,110.89746099999957,105.0,108.0771479999994,109.35888699999941,107.30761700000039,119.74365200000011,106.0258789999998,92.82031300000017,112.69238299999961
232,112.05126999999993,117.43603499999972,116.6665039999998,174.10253900000043,115.0,111.9228520000006,112.17968800000017,113.0771479999994,113.9741210000002,103.46142599999985,133.84619099999964,112.05126999999993,109.48730499999965,114.10253900000043
233,128.84619099999964,134.48730499999965,128.20507799999996,186.79492200000004,123.84619099999964,111.79492200000004,118.46142599999985,116.6665039999998,122.30761700000039,108.0771479999994,147.3076170000004,117.56396500000028,124.48730499999965,114.74365200000011
234,137.94873000000007,142.94873000000007,136.0258789999998,193.20507799999996,131.15380900000036,110.12841800000024,120.64111300000059,117.30761700000039,129.23095699999976,118.7177729999994,154.10253900000043,120.12841800000024,131.6665039999998,114.10253900000043
235,136.0258789999998,140.2563479999999,136.6665039999998,191.41015599999992,131.6665039999998,107.94873000000007,118.7177729999994,116.0258789999998,131.0258789999998,129.48730499999965,151.79492200000004,118.84619099999964,130.38476599999922,112.82031300000017
236,126.79492200000004,130.12841800000024,131.15380900000036,184.61523400000078,125.0,106.9228520000006,115.51269500000035,114.74365200000011,128.0771479999994,135.0,142.94873000000007,115.38476599999922,124.87158199999976,112.17968800000017
237,117.43603499999972,120.25634799999989,123.58984400000008,177.6923829999996,115.89746099999957,107.94873000000007,113.9741210000002,115.12841800000024,123.84619099999964,133.9741210000002,132.94873000000007,112.30761700000039,120.38476599999922,111.9228520000006
238,112.94873000000007,116.15380900000036,118.84619099999964,173.58984400000008,110.38476599999922,110.0,115.25634799999989,117.05126999999993,122.69238299999961,129.23095699999976,127.05126999999993,111.41015599999992,119.35888699999941,111.6665039999998
239,113.58984400000008,118.0771479999994,118.58984400000008,173.3334960000002,111.6665039999998,111.79492200000004,118.20507799999996,119.10253900000043,125.89746099999957,125.51269500000035,127.69238299999961,112.17968800000017,120.76904300000024,111.53857400000015
240,115.89746099999957,123.58984400000008,121.41015599999992,175.76904300000024,118.58984400000008,112.69238299999961,120.38476599999922,120.38476599999922,131.79492200000004,125.89746099999957,133.58984400000008,113.84619099999964,122.82031300000017,112.05126999999993
241,117.56396500000028,129.87158199999976,124.74365200000011,179.3588869999994,127.05126999999993,112.94873000000007,120.51269500000035,121.41015599999992,136.53857400000015,130.6411130000006,141.53857400000015,116.2822270000006,124.48730499999965,113.58984400000008
242,118.0771479999994,134.7436520000001,126.2822270000006,183.20507799999996,132.43603499999972,112.56396500000028,118.7177729999994,121.9228520000006,137.56396500000028,137.05126999999993,147.56396500000028,118.84619099999964,126.6665039999998,115.64111300000059
243,118.84619099999964,136.53857400000015,125.0,186.2822270000006,131.9228520000006,111.79492200000004,116.15380900000036,121.0258789999998,134.23095699999976,140.89746099999957,148.20507799999996,120.0,128.9741210000002,117.43603499999972
244,119.74365200000011,134.3588869999994,121.0258789999998,186.79492200000004,125.38476599999922,110.64111300000059,114.10253900000043,117.69238299999961,127.69238299999961,138.9741210000002,142.17968800000017,118.3334960000002,129.48730499999965,118.0771479999994
245,119.10253900000043,129.10253900000043,116.0258789999998,184.23095699999976,115.64111300000059,109.23095699999976,112.94873000000007,112.69238299999961,120.38476599999922,131.0258789999998,131.79492200000004,113.58984400000008,126.0258789999998,117.17968800000017
246,115.64111300000059,122.69238299999961,112.69238299999961,179.48730499999965,107.94873000000007,107.43603499999972,112.30761700000039,108.0771479999994,114.35888699999941,120.38476599999922,121.41015599999992,107.82031300000017,118.7177729999994,115.0
247,109.87158199999976,116.79492200000004,111.79492200000004,174.7436520000001,106.0258789999998,105.76904300000024,111.2822270000006,105.38476599999922,110.89746099999957,110.89746099999957,114.35888699999941,103.46142599999985,110.25634799999989,112.69238299999961
248,103.84619099999964,112.56396500000028,112.30761700000039,171.41015599999992,109.48730499999965,104.74365200000011,109.48730499999965,105.12841800000024,109.48730499999965,104.87158199999976,112.30761700000039,102.17968800000017,103.84619099999964,111.79492200000004
249,100.38476599999922,110.64111300000059,113.3334960000002,170.89746099999957,114.74365200000011,104.74365200000011,108.0771479999994,106.6665039999998,109.10253900000043,103.46142599999985,115.64111300000059,103.7177729999994,101.9228520000006,113.3334960000002
250,101.53857400000015,112.69238299999961,114.48730499999965,173.20507799999996,117.56396500000028,105.51269500000035,108.46142599999985,108.9741210000002,109.87158199999976,106.53857400000015,123.46142599999985,106.53857400000015,105.38476599999922,116.0258789999998
251,106.6665039999998,118.7177729999994,115.89746099999957,177.6923829999996,116.6665039999998,106.79492200000004,110.64111300000059,111.6665039999998,111.9228520000006,112.94873000000007,133.20507799999996,108.58984400000008,113.0771479999994,117.56396500000028
252,113.20507799999996,126.41015599999992,117.69238299999961,182.17968800000017,113.46142599999985,108.46142599999985,113.58984400000008,113.9741210000002,115.0,119.87158199999976,140.89746099999957,109.35888699999941,122.05126999999993,116.15380900000036
253,118.20507799999996,132.6923829999996,119.74365200000011,185.2563479999999,111.2822270000006,110.25634799999989,115.64111300000059,115.89746099999957,118.7177729999994,125.25634799999989,143.46142599999985,109.61523400000078,129.61523400000078,112.82031300000017
254,120.51269500000035,135.38476599999922,122.05126999999993,186.9228520000006,112.17968800000017,111.15380900000036,116.53857400000015,117.30761700000039,121.9228520000006,128.3334960000002,141.41015599999992,111.41015599999992,133.3334960000002,109.74365200000011
255,120.51269500000035,134.87158199999976,124.10253900000043,188.0771479999994,115.25634799999989,110.38476599999922,117.05126999999993,118.20507799999996,123.3334960000002,129.87158199999976,137.82031300000017,114.74365200000011,132.3076170000004,108.84619099999964
256,119.23095699999976,133.3334960000002,125.25634799999989,188.7177729999994,117.94873000000007,109.10253900000043,118.46142599999985,118.7177729999994,122.69238299999961,131.15380900000036,136.0258789999998,117.94873000000007,127.17968800000017,110.64111300000059
257,118.0771479999994,132.82031300000017,125.76904300000024,188.7177729999994,118.58984400000008,109.35888699999941,120.89746099999957,119.23095699999976,121.15380900000036,132.17968800000017,137.82031300000017,118.58984400000008,121.41015599999992,113.7177729999994
258,117.05126999999993,132.82031300000017,125.51269500000035,187.56396500000028,116.9228520000006,112.43603499999972,123.0771479999994,120.0,121.0258789999998,132.3076170000004,142.56396500000028,115.76904300000024,118.58984400000008,115.89746099999957
259,115.89746099999957,131.41015599999992,124.35888699999941,185.89746099999957,113.84619099999964,116.6665039999998,123.20507799999996,120.51269500000035,122.94873000000007,130.12841800000024,147.43603499999972,110.89746099999957,119.48730499999965,115.64111300000059
260,114.23095699999976,127.69238299999961,122.43603499999972,184.10253900000043,110.0,119.23095699999976,121.0258789999998,120.51269500000035,125.12841800000024,125.89746099999957,149.23095699999976,106.9228520000006,121.2822270000006,113.58984400000008
261,113.20507799999996,122.56396500000028,120.38476599999922,183.20507799999996,106.53857400000015,117.94873000000007,117.94873000000007,119.74365200000011,125.64111300000059,121.2822270000006,147.43603499999972,106.2822270000006,121.2822270000006,111.9228520000006
262,114.10253900000043,118.3334960000002,119.48730499999965,183.84619099999964,104.74365200000011,113.46142599999985,116.15380900000036,118.9741210000002,124.23095699999976,118.7177729999994,144.23095699999976,109.23095699999976,118.9741210000002,112.43603499999972
263,116.6665039999998,116.6665039999998,120.25634799999989,185.89746099999957,104.23095699999976,108.3334960000002,116.53857400000015,118.3334960000002,121.53857400000015,118.3334960000002,142.3076170000004,113.84619099999964,116.41015599999992,115.0
264,118.9741210000002,117.17968800000017,121.15380900000036,187.17968800000017,103.84619099999964,105.0,117.82031300000017,118.20507799999996,118.46142599999985,118.0771479999994,141.79492200000004,116.9228520000006,114.87158199999976,117.30761700000039
265,118.58984400000008,117.30761700000039,120.25634799999989,185.2563479999999,102.17968800000017,104.35888699999941,118.0771479999994,118.0771479999994,115.12841800000024,115.64111300000059,140.51269500000035,116.9228520000006,113.84619099999964,117.56396500000028
266,114.87158199999976,114.61523400000078,117.05126999999993,179.87158199999976,99.87158199999976,105.38476599999922,116.6665039999998,117.30761700000039,111.53857400000015,110.0,136.6665039999998,113.9741210000002,112.30761700000039,116.0258789999998
267,110.25634799999989,109.87158199999976,113.58984400000008,173.7177729999994,98.3334960000002,107.05126999999993,114.35888699999941,115.38476599999922,108.0771479999994,103.3334960000002,131.0258789999998,110.0,109.10253900000043,114.48730499999965
268,108.46142599999985,107.17968800000017,112.94873000000007,171.15380900000036,99.87158199999976,108.0771479999994,113.0771479999994,113.0771479999994,105.51269500000035,99.74365200000011,127.69238299999961,107.43603499999972,105.64111300000059,113.7177729999994
269,111.53857400000015,110.38476599999922,116.9228520000006,175.51269500000035,105.38476599999922,108.7177729999994,114.23095699999976,112.17968800000017,105.64111300000059,103.46142599999985,131.0258789999998,108.0771479999994,104.87158199999976,113.84619099999964
270,118.9741210000002,120.0,124.23095699999976,185.76904300000024,113.3334960000002,109.48730499999965,117.82031300000017,113.7177729999994,109.61523400000078,115.12841800000024,141.2822270000006,112.43603499999972,109.48730499999965,114.61523400000078
271,126.15380900000036,130.89746099999957,130.51269500000035,196.6665039999998,120.12841800000024,110.89746099999957,121.53857400000015,117.17968800000017,116.2822270000006,129.48730499999965,152.56396500000028,118.3334960000002,117.82031300000017,115.0
272,128.0771479999994,136.2822270000006,131.79492200000004,202.05126999999993,122.30761700000039,111.9228520000006,122.94873000000007,120.12841800000024,121.15380900000036,138.0771479999994,157.3076170000004,121.53857400000015,125.0,114.74365200000011
273,122.56396500000028,131.79492200000004,127.30761700000039,199.7436520000001,118.58984400000008,111.9228520000006,120.89746099999957,120.12841800000024,120.12841800000024,136.0258789999998,152.3076170000004,119.23095699999976,126.15380900000036,113.58984400000008
274,112.43603499999972,120.38476599999922,120.64111300000059,192.56396500000028,111.53857400000015,110.89746099999957,116.79492200000004,117.69238299999961,113.58984400000008,126.15380900000036,141.15380900000036,112.94873000000007,120.64111300000059,112.56396500000028
275,102.94873000000007,108.3334960000002,116.0258789999998,185.12841800000024,104.48730499999965,109.61523400000078,113.58984400000008,115.0,105.89746099999957,116.2822270000006,131.15380900000036,106.79492200000004,111.15380900000036,112.05126999999993
276,97.69238299999961,100.76904300000024,115.0,179.87158199999976,99.10253900000043,108.9741210000002,113.0771479999994,114.10253900000043,101.79492200000004,112.05126999999993,127.17968800000017,103.9741210000002,102.17968800000017,111.9228520000006
277,96.79492200000004,98.46142599999985,116.41015599999992,176.79492200000004,94.74365200000011,108.84619099999964,114.10253900000043,114.35888699999941,102.05126999999993,112.94873000000007,128.20507799999996,105.0,96.79492200000004,111.9228520000006
278,97.82031300000017,99.10253900000043,117.17968800000017,174.7436520000001,91.79492200000004,109.10253900000043,114.61523400000078,113.84619099999964,104.10253900000043,114.48730499999965,129.61523400000078,107.82031300000017,95.38476599999922,112.05126999999993
279,99.74365200000011,101.0258789999998,116.0258789999998,174.10253900000043,92.05126999999993,110.0,114.10253900000043,111.79492200000004,105.0,113.46142599999985,127.56396500000028,110.51269500000035,96.9228520000006,113.0771479999994
280,102.56396500000028,103.7177729999994,113.9741210000002,176.0258789999998,96.79492200000004,111.41015599999992,114.48730499999965,109.61523400000078,104.87158199999976,110.64111300000059,122.05126999999993,111.53857400000015,99.61523400000078,114.48730499999965
281,106.79492200000004,107.17968800000017,113.3334960000002,180.2563479999999,104.74365200000011,113.0771479999994,117.43603499999972,109.74365200000011,106.0258789999998,109.10253900000043,117.17968800000017,110.38476599999922,102.17968800000017,115.0
282,111.6665039999998,111.41015599999992,115.89746099999957,185.76904300000024,112.05126999999993,113.7177729999994,122.17968800000017,112.56396500000028,109.87158199999976,111.0258789999998,116.9228520000006,108.58984400000008,103.7177729999994,114.10253900000043
283,115.38476599999922,115.0,120.0,190.51269500000035,115.25634799999989,112.94873000000007,126.0258789999998,116.15380900000036,115.25634799999989,116.2822270000006,122.05126999999993,107.94873000000007,103.9741210000002,112.69238299999961
284,115.76904300000024,115.51269500000035,122.94873000000007,192.05126999999993,113.3334960000002,110.51269500000035,126.41015599999992,118.3334960000002,118.58984400000008,121.53857400000015,128.7177729999994,109.61523400000078,103.20507799999996,111.79492200000004
285,111.79492200000004,111.15380900000036,122.30761700000039,189.3588869999994,108.0771479999994,107.56396500000028,122.82031300000017,117.69238299999961,117.30761700000039,123.0771479999994,131.41015599999992,112.17968800000017,101.6665039999998,111.2822270000006
286,104.74365200000011,102.94873000000007,118.9741210000002,183.46142599999985,101.53857400000015,105.64111300000059,117.17968800000017,115.25634799999989,111.53857400000015,119.35888699999941,128.0771479999994,113.20507799999996,100.0,111.2822270000006
287,97.82031300000017,95.0,115.51269500000035,177.05126999999993,95.76904300000024,105.38476599999922,112.43603499999972,112.69238299999961,104.35888699999941,112.94873000000007,121.0258789999998,111.53857400000015,98.20507799999996,111.41015599999992
288,93.84619099999964,91.41015599999992,113.7177729999994,172.56396500000028,91.79492200000004,106.2822270000006,110.12841800000024,111.15380900000036,99.35888699999941,108.46142599999985,115.0,108.46142599999985,96.79492200000004,112.05126999999993
289,93.7177729999994,93.3334960000002,113.46142599999985,171.0258789999998,90.51269500000035,107.05126999999993,109.74365200000011,110.38476599999922,98.58984400000008,108.58984400000008,113.3334960000002,106.15380900000036,96.0258789999998,112.94873000000007
290,96.2822270000006,98.7177729999994,113.84619099999964,172.05126999999993,92.05126999999993,107.30761700000039,110.12841800000024,109.61523400000078,101.6665039999998,112.05126999999993,115.51269500000035,106.0258789999998,96.0258789999998,113.58984400000008
291,100.12841800000024,103.58984400000008,114.23095699999976,174.23095699999976,96.41015599999992,107.56396500000028,110.38476599999922,108.0771479999994,105.38476599999922,114.61523400000078,118.7177729999994,107.56396500000028,97.30761700000039,113.58984400000008
292,103.46142599999985,104.87158199999976,114.74365200000011,176.41015599999992,101.9228520000006,107.94873000000007,110.89746099999957,105.89746099999957,106.79492200000004,112.43603499999972,120.25634799999989,108.9741210000002,99.35888699999941,112.69238299999961
293,104.87158199999976,102.30761700000039,114.87158199999976,176.6665039999998,105.76904300000024,107.17968800000017,111.6665039999998,104.23095699999976,104.61523400000078,106.15380900000036,119.35888699999941,108.7177729999994,101.0258789999998,111.41015599999992
294,102.82031300000017,97.94873000000007,114.10253900000043,174.10253900000043,105.0,105.38476599999922,112.05126999999993,103.9741210000002,100.25634799999989,99.10253900000043,116.53857400000015,106.53857400000015,100.25634799999989,110.76904300000024
295,97.43603499999972,94.23095699999976,112.17968800000017,169.3588869999994,99.74365200000011,103.7177729999994,110.64111300000059,104.74365200000011,96.2822270000006,95.12841800000024,113.3334960000002,103.3334960000002,95.51269500000035,111.2822270000006
296,90.64111300000059,92.43603499999972,109.23095699999976,164.61523400000078,92.94873000000007,103.46142599999985,106.9228520000006,104.23095699999976,94.23095699999976,95.0,110.25634799999989,100.38476599999922,87.05126999999993,112.82031300000017
297,85.25634799999989,92.17968800000017,106.0258789999998,162.05126999999993,88.58984400000008,104.87158199999976,102.30761700000039,100.89746099999957,93.46142599999985,96.53857400000015,107.05126999999993,99.10253900000043,77.43603499999972,113.9741210000002
298,83.9741210000002,93.46142599999985,104.23095699999976,163.84619099999964,88.9741210000002,106.79492200000004,100.0,96.53857400000015,93.3334960000002,96.79492200000004,104.23095699999976,100.51269500000035,71.15380900000036,113.84619099999964
299,88.3334960000002,96.79492200000004,105.76904300000024,169.48730499999965,94.10253900000043,108.3334960000002,102.69238299999961,95.12841800000024,94.61523400000078,95.76904300000024,104.35888699999941,105.25634799999989,72.94873000000007,113.0771479999994
300,96.79492200000004,102.05126999999993,111.0258789999998,176.79492200000004,101.15380900000036,109.10253900000043,110.0,99.35888699999941,98.58984400000008,95.51269500000035,109.35888699999941,111.79492200000004,83.58984400000008,112.82031300000017
301,105.12841800000024,108.7177729999994,117.56396500000028,182.6923829999996,107.05126999999993,109.48730499999965,117.94873000000007,107.43603499999972,105.12841800000024,98.7177729999994,117.82031300000017,117.30761700000039,98.84619099999964,113.58984400000008
302,109.48730499999965,115.0,121.9228520000006,186.15380900000036,110.38476599999922,109.87158199999976,121.9228520000006,114.61523400000078,111.79492200000004,106.41015599999992,125.38476599999922,119.35888699999941,111.79492200000004,114.48730499999965
303,108.58984400000008,118.84619099999964,122.56396500000028,188.58984400000008,112.17968800000017,110.25634799999989,120.38476599999922,116.79492200000004,115.64111300000059,116.0258789999998,128.58984400000008,117.69238299999961,117.30761700000039,114.61523400000078
304,105.12841800000024,119.35888699999941,120.12841800000024,191.79492200000004,113.7177729999994,110.64111300000059,115.64111300000059,113.3334960000002,115.0,122.43603499999972,127.82031300000017,114.23095699999976,115.0,113.46142599999985
305,102.30761700000039,117.30761700000039,117.05126999999993,194.7436520000001,114.74365200000011,110.12841800000024,110.89746099999957,106.9228520000006,110.76904300000024,121.2822270000006,125.38476599999922,111.0258789999998,108.46142599999985,111.9228520000006
306,102.43603499999972,115.0,115.25634799999989,195.0,114.35888699999941,108.0771479999994,108.46142599999985,101.41015599999992,105.25634799999989,113.0771479999994,124.10253900000043,109.10253900000043,102.43603499999972,110.89746099999957
307,105.12841800000024,113.9741210000002,115.25634799999989,191.41015599999992,112.43603499999972,104.87158199999976,109.23095699999976,99.23095699999976,101.41015599999992,103.20507799999996,124.74365200000011,108.3334960000002,100.51269500000035,110.89746099999957
308,107.82031300000017,114.48730499999965,116.2822270000006,186.15380900000036,109.61523400000078,102.43603499999972,112.05126999999993,100.64111300000059,100.76904300000024,98.58984400000008,125.76904300000024,107.82031300000017,102.05126999999993,111.53857400000015
309,108.20507799999996,115.0,117.05126999999993,182.94873000000007,106.79492200000004,102.43603499999972,114.74365200000011,103.58984400000008,102.17968800000017,101.2822270000006,125.12841800000024,107.17968800000017,104.35888699999941,112.17968800000017
310,106.41015599999992,113.84619099999964,116.9228520000006,183.9741210000002,103.9741210000002,104.74365200000011,115.76904300000024,105.89746099999957,103.7177729999994,108.7177729999994,122.17968800000017,106.53857400000015,105.12841800000024,111.9228520000006
311,104.74365200000011,111.15380900000036,116.79492200000004,188.46142599999985,101.79492200000004,107.94873000000007,115.64111300000059,106.2822270000006,104.35888699999941,115.12841800000024,118.46142599999985,106.9228520000006,103.9741210000002,111.15380900000036
312,105.12841800000024,108.0771479999994,117.43603499999972,193.0771479999994,100.51269500000035,110.64111300000059,115.76904300000024,105.38476599999922,103.9741210000002,116.2822270000006,116.0258789999998,108.7177729999994,102.82031300000017,110.76904300000024
313,106.53857400000015,105.51269500000035,118.0771479999994,193.58984400000008,99.48730499999965,111.9228520000006,116.41015599999992,103.84619099999964,102.82031300000017,110.76904300000024,115.12841800000024,110.38476599999922,101.9228520000006,111.2822270000006
314,106.53857400000015,103.7177729999994,117.05126999999993,187.82031300000017,97.82031300000017,111.53857400000015,116.2822270000006,102.17968800000017,100.25634799999989,101.41015599999992,114.61523400000078,109.87158199999976,100.0,112.17968800000017
315,103.7177729999994,102.56396500000028,113.7177729999994,177.94873000000007,95.38476599999922,110.25634799999989,114.23095699999976,100.38476599999922,96.6665039999998,93.20507799999996,113.7177729999994,106.53857400000015,97.05126999999993,112.17968800000017
316,100.0,103.7177729999994,110.64111300000059,169.23095699999976,94.10253900000043,109.10253900000043,112.17968800000017,100.12841800000024,94.48730499999965,91.53857400000015,113.84619099999964,102.82031300000017,96.0258789999998,111.41015599999992
317,99.23095699999976,109.48730499999965,111.2822270000006,167.56396500000028,96.6665039999998,108.9741210000002,112.82031300000017,103.7177729999994,97.05126999999993,98.84619099999964,117.82031300000017,102.69238299999961,101.2822270000006,110.51269500000035
318,103.9741210000002,120.0,117.05126999999993,174.87158199999976,103.9741210000002,110.0,117.43603499999972,111.2822270000006,106.0258789999998,112.82031300000017,126.41015599999992,108.0771479999994,113.9741210000002,111.0258789999998
319,112.69238299999961,130.6411130000006,124.48730499999965,187.05126999999993,113.58984400000008,111.6665039999998,123.20507799999996,119.35888699999941,118.46142599999985,126.41015599999992,136.2822270000006,115.64111300000059,128.7177729999994,112.82031300000017
320,119.35888699999941,134.10253900000043,127.56396500000028,196.53857400000015,119.35888699999941,112.69238299999961,125.76904300000024,122.56396500000028,126.6665039999998,131.6665039999998,140.6411130000006,119.35888699999941,135.76904300000024,114.87158199999976
321,118.0771479999994,125.89746099999957,122.56396500000028,196.6665039999998,116.9228520000006,112.05126999999993,122.30761700000039,117.94873000000007,124.23095699999976,125.0,135.38476599999922,115.51269500000035,128.84619099999964,115.51269500000035
322,108.3334960000002,110.38476599999922,112.17968800000017,187.05126999999993,107.30761700000039,109.87158199999976,114.23095699999976,108.0771479999994,111.79492200000004,110.25634799999989,122.94873000000007,106.41015599999992,111.53857400000015,114.10253900000043
323,97.05126999999993,97.69238299999961,103.9741210000002,174.10253900000043,97.30761700000039,108.0771479999994,107.43603499999972,99.61523400000078,97.30761700000039,97.17968800000017,112.43603499999972,98.9741210000002,95.38476599999922,111.9228520000006
324,91.79492200000004,96.0258789999998,103.58984400000008,165.38476599999922,93.7177729999994,108.7177729999994,106.41015599999992,97.82031300000017,90.25634799999989,94.23095699999976,111.6665039999998,98.58984400000008,90.76904300000024,110.38476599999922
325,95.25634799999989,104.74365200000011,110.38476599999922,164.3588869999994,98.20507799999996,111.6665039999998,111.2822270000006,102.30761700000039,94.10253900000043,101.6665039999998,119.87158199999976,104.10253900000043,98.3334960000002,111.0258789999998
326,103.9741210000002,116.2822270000006,118.46142599999985,169.87158199999976,106.53857400000015,115.0,117.43603499999972,107.82031300000017,104.87158199999976,112.56396500000028,130.0,110.12841800000024,110.0,112.82031300000017
327,112.30761700000039,123.20507799999996,122.30761700000039,177.6923829999996,113.20507799999996,116.79492200000004,120.0,109.61523400000078,115.12841800000024,119.35888699999941,135.12841800000024,112.17968800000017,117.69238299999961,114.35888699999941
328,117.17968800000017,123.84619099999964,121.15380900000036,184.61523400000078,114.87158199999976,116.6665039999998,118.0771479999994,106.9228520000006,119.23095699999976,119.61523400000078,133.9741210000002,110.25634799999989,119.35888699999941,114.87158199999976
329,118.58984400000008,121.9228520000006,118.84619099999964,189.23095699999976,112.94873000000007,115.64111300000059,114.61523400000078,102.69238299999961,116.6665039999998,117.05126999999993,130.12841800000024,108.20507799999996,118.58984400000008,114.48730499999965
330,118.9741210000002,122.05126999999993,119.10253900000043,192.43603499999972,111.15380900000036,114.23095699999976,114.10253900000043,100.89746099999957,111.53857400000015,116.79492200000004,128.3334960000002,108.84619099999964,119.61523400000078,113.9741210000002
331,120.89746099999957,126.53857400000015,122.82031300000017,195.6411130000006,112.94873000000007,113.0771479999994,118.7177729999994,103.7177729999994,108.9741210000002,120.76904300000024,131.9228520000006,112.56396500000028,124.10253900000043,114.10253900000043
332,125.25634799999989,133.7177729999994,127.82031300000017,198.7177729999994,117.94873000000007,112.69238299999961,126.2822270000006,110.25634799999989,111.53857400000015,127.17968800000017,140.12841800000024,116.9228520000006,129.23095699999976,114.87158199999976
333,130.76904300000024,139.10253900000043,131.53857400000015,199.61523400000078,122.56396500000028,113.3334960000002,132.3076170000004,117.17968800000017,117.69238299999961,131.9228520000006,148.9741210000002,119.74365200000011,131.53857400000015,115.64111300000059
334,134.87158199999976,140.0,133.20507799999996,197.17968800000017,123.58984400000008,114.74365200000011,133.46142599999985,120.76904300000024,122.94873000000007,131.79492200000004,153.84619099999964,120.0,129.23095699999976,116.0258789999998
335,135.38476599999922,136.9228520000006,133.20507799999996,193.20507799999996,120.38476599999922,116.15380900000036,129.87158199999976,118.84619099999964,123.58984400000008,126.79492200000004,153.0771479999994,118.58984400000008,124.74365200000011,115.38476599999922
336,131.9228520000006,132.82031300000017,131.9228520000006,191.0258789999998,115.51269500000035,117.17968800000017,124.23095699999976,112.56396500000028,118.46142599999985,119.48730499999965,148.0771479999994,117.05126999999993,121.41015599999992,114.10253900000043
337,125.38476599999922,129.61523400000078,128.7177729999994,191.79492200000004,112.17968800000017,116.9228520000006,118.84619099999964,105.0,109.48730499999965,112.43603499999972,141.41015599999992,115.64111300000059,121.15380900000036,113.20507799999996
338,118.20507799999996,127.94873000000007,123.84619099999964,193.3334960000002,112.56396500000028,114.35888699999941,114.61523400000078,99.35888699999941,100.25634799999989,106.53857400000015,135.0,114.23095699999976,122.43603499999972,113.0771479999994
339,114.35888699999941,127.69238299999961,119.61523400000078,193.0771479999994,116.15380900000036,110.38476599999922,112.05126999999993,97.69238299999961,95.25634799999989,101.9228520000006,129.87158199999976,112.17968800000017,123.46142599999985,113.20507799999996
340,116.0258789999998,129.10253900000043,118.0771479999994,190.12841800000024,121.53857400000015,107.17968800000017,111.9228520000006,100.89746099999957,97.56396500000028,98.9741210000002,127.43603499999972,110.38476599999922,124.10253900000043,112.82031300000017
341,122.30761700000039,131.6665039999998,120.0,185.6411130000006,125.64111300000059,106.9228520000006,115.12841800000024,107.94873000000007,106.0258789999998,98.7177729999994,128.3334960000002,110.38476599999922,125.38476599999922,112.17968800000017
342,129.10253900000043,133.20507799999996,123.46142599999985,181.0258789999998,126.79492200000004,110.38476599999922,120.12841800000024,115.64111300000059,115.76904300000024,101.15380900000036,131.9228520000006,112.43603499999972,127.69238299999961,112.43603499999972
343,132.17968800000017,131.6665039999998,125.51269500000035,177.05126999999993,124.35888699999941,115.76904300000024,123.7177729999994,120.51269500000035,121.79492200000004,104.87158199999976,135.51269500000035,114.74365200000011,130.2563479999999,114.10253900000043
344,130.0,126.9228520000006,124.23095699999976,174.23095699999976,120.64111300000059,120.0,123.20507799999996,120.25634799999989,121.79492200000004,107.30761700000039,136.6665039999998,115.12841800000024,132.17968800000017,116.41015599999992
345,123.9741210000002,121.2822270000006,119.74365200000011,172.43603499999972,118.0771479999994,120.0,117.94873000000007,115.51269500000035,117.30761700000039,105.51269500000035,133.84619099999964,112.43603499999972,131.9228520000006,117.82031300000017
346,116.9228520000006,116.53857400000015,113.9741210000002,170.89746099999957,117.56396500000028,115.89746099999957,109.87158199999976,108.9741210000002,111.2822270000006,98.20507799999996,127.43603499999972,108.20507799999996,128.20507799999996,117.69238299999961
347,111.79492200000004,113.0771479999994,109.10253900000043,168.7177729999994,117.69238299999961,110.64111300000059,102.43603499999972,103.46142599999985,106.2822270000006,87.56396500000028,118.9741210000002,104.61523400000078,121.41015599999992,116.53857400000015
348,110.0,110.64111300000059,106.41015599999992,166.6665039999998,116.6665039999998,107.30761700000039,99.35888699999941,101.2822270000006,104.35888699999941,78.9741210000002,112.05126999999993,103.46142599999985,113.84619099999964,115.0
349,113.0771479999994,110.64111300000059,106.6665039999998,167.3076170000004,115.38476599999922,106.79492200000004,102.43603499999972,103.7177729999994,106.41015599999992,77.17968800000017,110.51269500000035,105.12841800000024,109.61523400000078,113.7177729999994
350,120.76904300000024,115.0,110.12841800000024,172.43603499999972,115.89746099999957,108.7177729999994,110.25634799999989,110.12841800000024,112.17968800000017,83.3334960000002,116.79492200000004,109.48730499999965,112.30761700000039,112.94873000000007
351,130.89746099999957,122.82031300000017,115.76904300000024,180.51269500000035,118.7177729999994,111.53857400000015,118.46142599999985,117.94873000000007,118.84619099999964,93.46142599999985,128.3334960000002,115.38476599999922,121.6665039999998,112.94873000000007
352,138.46142599999985,129.61523400000078,121.15380900000036,186.79492200000004,121.2822270000006,113.58984400000008,121.79492200000004,122.30761700000039,122.05126999999993,101.0258789999998,138.0771479999994,120.0,132.17968800000017,113.0771479999994
353,138.3334960000002,129.7436520000001,122.82031300000017,186.79492200000004,120.12841800000024,113.58984400000008,118.46142599999985,119.35888699999941,118.7177729999994,101.2822270000006,139.3588869999994,120.25634799999989,136.15380900000036,112.94873000000007
354,130.12841800000024,121.9228520000006,119.35888699999941,179.87158199999976,113.58984400000008,111.53857400000015,111.2822270000006,110.51269500000035,110.25634799999989,94.10253900000043,131.15380900000036,115.64111300000059,130.12841800000024,112.17968800000017
355,118.84619099999964,110.12841800000024,112.94873000000007,169.7436520000001,103.84619099999964,109.61523400000078,106.0258789999998,101.15380900000036,102.30761700000039,85.0,119.48730499999965,109.35888699999941,118.46142599999985,111.2822270000006
356,112.17968800000017,101.15380900000036,107.94873000000007,160.76904300000024,96.6665039999998,109.23095699999976,106.41015599999992,97.56396500000028,100.25634799999989,80.64111300000059,112.69238299999961,105.51269500000035,109.35888699999941,110.64111300000059
357,114.48730499999965,99.87158199999976,108.46142599999985,156.53857400000015,97.30761700000039,110.25634799999989,111.0258789999998,101.41015599999992,105.38476599999922,85.0,115.0,106.2822270000006,108.84619099999964,110.51269500000035
358,124.10253900000043,105.89746099999957,114.35888699999941,157.94873000000007,106.53857400000015,111.41015599999992,115.51269500000035,109.87158199999976,114.10253900000043,96.0258789999998,124.48730499999965,110.89746099999957,115.89746099999957,110.76904300000024
359,133.84619099999964,114.10253900000043,121.53857400000015,162.82031300000017,118.58984400000008,111.53857400000015,116.0258789999998,116.9228520000006,120.12841800000024,107.30761700000039,135.0,116.15380900000036,124.61523400000078,111.79492200000004
360,136.15380900000036,117.82031300000017,124.48730499999965,166.79492200000004,124.48730499999965,110.25634799999989,112.30761700000039,117.94873000000007,118.7177729999994,111.53857400000015,140.0,117.69238299999961,128.20507799999996,113.46142599999985
361,128.58984400000008,115.0,121.2822270000006,166.53857400000015,119.74365200000011,107.69238299999961,106.41015599999992,112.69238299999961,110.0,105.76904300000024,137.6923829999996,113.58984400000008,124.10253900000043,114.87158199999976
362,116.15380900000036,109.87158199999976,115.12841800000024,163.20507799999996,108.46142599999985,105.0,102.30761700000039,104.61523400000078,99.61523400000078,93.46142599999985,131.15380900000036,106.41015599999992,115.89746099999957,115.0
363,107.56396500000028,108.0771479999994,111.41015599999992,161.15380900000036,99.61523400000078,103.58984400000008,102.82031300000017,99.74365200000011,95.0,82.69238299999961,126.79492200000004,101.0258789999998,110.51269500000035,113.7177729999994
364,108.0771479999994,111.2822270000006,112.69238299999961,162.82031300000017,99.61523400000078,104.48730499999965,108.46142599999985,101.6665039999998,99.61523400000078,79.87158199999976,128.20507799999996,101.53857400000015,111.9228520000006,111.79492200000004
365,115.12841800000024,115.0,116.9228520000006,165.76904300000024,107.56396500000028,106.6665039999998,116.41015599999992,109.48730499999965,110.25634799999989,86.2822270000006,133.58984400000008,107.17968800000017,118.3334960000002,110.51269500000035
366,121.15380900000036,113.7177729999994,119.48730499999965,166.15380900000036,116.15380900000036,108.46142599999985,121.79492200000004,117.94873000000007,119.74365200000011,97.17968800000017,137.82031300000017,113.9741210000002,123.46142599999985,110.51269500000035
367,120.38476599999922,106.9228520000006,117.82031300000017,162.6923829999996,118.20507799999996,108.9741210000002,121.15380900000036,121.53857400000015,122.30761700000039,105.51269500000035,136.41015599999992,116.79492200000004,122.05126999999993,111.53857400000015
368,112.94873000000007,99.74365200000011,112.30761700000039,158.3334960000002,111.79492200000004,108.58984400000008,115.0,118.20507799999996,117.05126999999993,106.0258789999998,129.3588869999994,113.46142599999985,113.46142599999985,112.94873000000007
369,102.69238299999961,98.0771479999994,105.89746099999957,156.0258789999998,101.2822270000006,107.69238299999961,106.53857400000015,110.0,107.43603499999972,97.94873000000007,119.87158199999976,105.89746099999957,100.76904300000024,113.58984400000008
370,95.0,103.9741210000002,101.2822270000006,156.6665039999998,93.3334960000002,107.17968800000017,98.9741210000002,101.15380900000036,98.20507799999996,85.0,112.05126999999993,98.58984400000008,88.3334960000002,113.58984400000008
371,93.20507799999996,114.87158199999976,99.87158199999976,159.10253900000043,92.43603499999972,107.30761700000039,94.74365200000011,95.25634799999989,92.94873000000007,74.23095699999976,107.43603499999972,95.25634799999989,78.9741210000002,113.46142599999985
372,97.17968800000017,127.30761700000039,101.41015599999992,162.94873000000007,98.20507799999996,108.46142599999985,95.0,94.10253900000043,92.82031300000017,71.2822270000006,105.51269500000035,96.41015599999992,73.7177729999994,113.9741210000002
373,103.7177729999994,138.46142599999985,104.23095699999976,167.56396500000028,107.05126999999993,109.87158199999976,98.7177729999994,96.9228520000006,96.53857400000015,76.2822270000006,105.25634799999989,99.87158199999976,71.9228520000006,114.74365200000011
374,108.84619099999964,146.41015599999992,106.2822270000006,172.56396500000028,113.58984400000008,110.89746099999957,102.82031300000017,101.0258789999998,100.89746099999957,83.58984400000008,105.25634799999989,102.56396500000028,71.6665039999998,115.0
375,109.35888699999941,150.6411130000006,107.30761700000039,176.15380900000036,115.25634799999989,111.15380900000036,103.9741210000002,103.0771479999994,102.69238299999961,86.79492200000004,104.87158199999976,102.69238299999961,71.2822270000006,114.35888699999941
376,105.76904300000024,151.2822270000006,108.0771479999994,177.6923829999996,113.0771479999994,110.64111300000059,101.6665039999998,101.79492200000004,101.2822270000006,84.23095699999976,104.61523400000078,100.76904300000024,70.64111300000059,113.3334960000002
377,102.43603499999972,150.12841800000024,110.0,177.94873000000007,111.15380900000036,109.74365200000011,99.23095699999976,98.9741210000002,98.84619099999964,80.38476599999922,105.76904300000024,98.9741210000002,71.53857400000015,112.43603499999972
378,103.58984400000008,149.87158199999976,112.94873000000007,178.9741210000002,113.20507799999996,108.46142599999985,100.76904300000024,98.3334960000002,99.10253900000043,81.53857400000015,109.87158199999976,99.74365200000011,75.51269500000035,111.6665039999998
379,110.0,151.2822270000006,115.0,181.41015599999992,118.58984400000008,107.30761700000039,107.30761700000039,101.9228520000006,103.3334960000002,89.61523400000078,116.53857400000015,103.7177729999994,81.9228520000006,111.15380900000036
380,116.79492200000004,152.56396500000028,114.23095699999976,183.3334960000002,122.17968800000017,106.41015599999992,113.84619099999964,107.43603499999972,108.46142599999985,99.35888699999941,122.69238299999961,107.82031300000017,87.17968800000017,111.53857400000015
381,118.20507799999996,150.89746099999957,109.48730499999965,182.17968800000017,119.10253900000043,106.0258789999998,114.74365200000011,110.38476599999922,109.87158199999976,102.94873000000007,124.48730499999965,108.3334960000002,87.82031300000017,112.94873000000007
382,112.94873000000007,146.2822270000006,102.30761700000039,177.82031300000017,109.35888699999941,106.53857400000015,108.84619099999964,108.9741210000002,105.76904300000024,96.9228520000006,121.41015599999992,104.61523400000078,84.23095699999976,114.61523400000078
383,105.64111300000059,141.6665039999998,96.0258789999998,173.7177729999994,99.35888699999941,108.20507799999996,101.41015599999992,104.87158199999976,99.61523400000078,85.25634799999989,116.6665039999998,100.51269500000035,80.51269500000035,115.89746099999957
