,EEG.AF3,EEG.F7,EEG.F3,EEG.FC5,EEG.T7,EEG.P7,EEG.O1,EEG.O2,EEG.P8,EEG.T8,EEG.FC6,EEG.F4,EEG.F8,EEG.AF4
0,95.0,101.41015599999992,96.2822270000006,39.48730499999965,99.87158199999976,118.7177729999994,106.41015599999992,111.79492200000004,113.58984400000008,111.41015599999992,123.58984400000008,102.05126999999993,129.10253900000043,100.64111300000059
1,97.94873000000007,104.48730499999965,97.30761700000039,39.48730499999965,118.0771479999994,118.20507799999996,105.12841800000024,111.79492200000004,116.53857400000015,126.79492200000004,126.41015599999992,102.69238299999961,134.87158199999976,103.20507799999996
2,99.35888699999941,106.0258789999998,101.9228520000006,38.20507799999996,123.0771479999994,119.23095699999976,104.35888699999941,115.0,113.58984400000008,129.48730499999965,128.20507799999996,104.23095699999976,133.9741210000002,104.23095699999976
3,97.43603499999972,105.64111300000059,108.58984400000008,37.05126999999993,116.53857400000015,121.9228520000006,106.79492200000004,121.2822270000006,110.64111300000059,121.79492200000004,130.76904300000024,105.89746099999957,129.48730499999965,103.3334960000002
4,93.58984400000008,106.15380900000036,115.38476599999922,38.589844000000085,110.0,125.51269500000035,113.7177729999994,129.61523400000078,113.84619099999964,115.0,135.76904300000024,107.82031300000017,128.3334960000002,101.15380900000036
5,90.38476599999922,109.10253900000043,120.25634799999989,42.69238299999961,111.53857400000015,127.43603499999972,122.30761700000039,137.6923829999996,123.0771479999994,117.17968800000017,141.9228520000006,109.87158199999976,133.46142599999985,98.84619099999964
6,88.84619099999964,112.17968800000017,121.0258789999998,45.38476599999922,117.43603499999972,125.64111300000059,126.53857400000015,141.0258789999998,131.15380900000036,125.89746099999957,145.12841800000024,112.05126999999993,141.53857400000015,97.43603499999972
7,88.84619099999964,111.0258789999998,117.05126999999993,42.82031300000017,117.30761700000039,120.64111300000059,122.17968800000017,136.6665039999998,130.51269500000035,131.9228520000006,142.94873000000007,113.20507799999996,144.61523400000078,97.82031300000017
8,89.48730499999965,104.74365200000011,110.64111300000059,35.64111300000059,105.89746099999957,115.51269500000035,110.38476599999922,126.2822270000006,119.48730499999965,128.84619099999964,136.9228520000006,111.6665039999998,138.3334960000002,100.76904300000024
9,90.64111300000059,97.43603499999972,105.89746099999957,28.974121000000196,90.38476599999922,114.10253900000043,97.56396500000028,114.61523400000078,104.74365200000011,118.46142599999985,130.76904300000024,107.43603499999972,125.89746099999957,105.25634799999989
10,90.25634799999989,95.0,104.10253900000043,27.82031300000017,84.74365200000011,117.69238299999961,90.76904300000024,106.79492200000004,96.0258789999998,108.9741210000002,127.17968800000017,102.17968800000017,115.76904300000024,107.30761700000039
11,87.17968800000017,100.64111300000059,104.48730499999965,32.69238299999961,97.30761700000039,123.9741210000002,92.43603499999972,105.12841800000024,100.0,107.56396500000028,127.94873000000007,99.35888699999941,114.61523400000078,104.35888699999941
12,83.84619099999964,112.05126999999993,105.76904300000024,39.23095699999976,122.69238299999961,128.20507799999996,100.76904300000024,108.9741210000002,114.10253900000043,115.0,133.58984400000008,101.2822270000006,123.3334960000002,100.38476599999922
13,86.6665039999998,122.82031300000017,109.23095699999976,43.0771479999994,145.0,127.56396500000028,111.41015599999992,116.41015599999992,128.3334960000002,125.51269500000035,142.94873000000007,107.56396500000028,135.76904300000024,104.10253900000043
14,99.87158199999976,126.6665039999998,115.64111300000059,42.30761700000039,149.10253900000043,122.56396500000028,118.9741210000002,123.9741210000002,132.17968800000017,130.89746099999957,151.79492200000004,115.38476599999922,143.9741210000002,119.35888699999941
15,120.0,123.3334960000002,123.3334960000002,39.35888699999941,132.3076170000004,116.9228520000006,120.51269500000035,127.56396500000028,124.48730499999965,126.15380900000036,155.6411130000006,120.89746099999957,142.94873000000007,140.38476599999922
16,137.94873000000007,117.56396500000028,129.61523400000078,38.846190999999635,107.05126999999993,114.35888699999941,116.15380900000036,125.12841800000024,113.7177729999994,114.61523400000078,152.56396500000028,122.05126999999993,135.51269500000035,156.79492200000004
17,145.89746099999957,114.61523400000078,132.17968800000017,43.20507799999996,90.12841800000024,116.0258789999998,109.48730499999965,118.58984400000008,110.0,105.51269500000035,145.0,119.61523400000078,128.7177729999994,161.9228520000006
18,140.76904300000024,114.61523400000078,130.38476599999922,50.12841800000024,90.0,119.61523400000078,103.84619099999964,112.56396500000028,114.35888699999941,105.25634799999989,136.15380900000036,116.0258789999998,126.9228520000006,157.17968800000017
19,125.64111300000059,113.0771479999994,125.64111300000059,53.974121000000196,101.2822270000006,121.41015599999992,100.12841800000024,109.74365200000011,118.0771479999994,112.69238299999961,127.94873000000007,113.58984400000008,127.56396500000028,150.6411130000006
20,108.9741210000002,107.05126999999993,120.89746099999957,52.05126999999993,112.43603499999972,120.12841800000024,97.94873000000007,109.87158199999976,111.6665039999998,120.12841800000024,122.43603499999972,113.20507799999996,125.64111300000059,152.56396500000028
21,100.12841800000024,99.35888699999941,119.48730499999965,47.56396500000028,115.89746099999957,117.43603499999972,97.30761700000039,111.2822270000006,96.15380900000036,121.41015599999992,122.69238299999961,114.10253900000043,120.0,169.87158199999976
22,102.82031300000017,96.2822270000006,122.94873000000007,47.17968800000017,113.20507799999996,116.2822270000006,98.58984400000008,112.94873000000007,82.69238299999961,116.0258789999998,129.48730499999965,115.51269500000035,115.0,200.76904300000024
23,112.69238299999961,100.38476599999922,129.3588869999994,55.0,110.51269500000035,117.56396500000028,102.30761700000039,115.25634799999989,82.69238299999961,108.3334960000002,139.10253900000043,116.6665039999998,115.76904300000024,235.89746099999957
24,121.0258789999998,107.69238299999961,135.0,68.3334960000002,111.9228520000006,120.0,107.30761700000039,117.56396500000028,98.0771479999994,104.10253900000043,145.6411130000006,116.9228520000006,122.69238299999961,264.48730499999965
25,122.43603499999972,111.79492200000004,135.51269500000035,80.51269500000035,116.0258789999998,120.25634799999989,111.41015599999992,118.58984400000008,119.35888699999941,106.0258789999998,144.87158199999976,116.41015599999992,130.38476599999922,281.79492200000004
26,117.56396500000028,110.12841800000024,129.3588869999994,86.79492200000004,119.74365200000011,117.05126999999993,112.56396500000028,117.69238299999961,133.9741210000002,113.20507799999996,137.43603499999972,114.87158199999976,132.05126999999993,291.6665039999998
27,112.43603499999972,105.89746099999957,118.84619099999964,88.58984400000008,121.41015599999992,112.30761700000039,110.38476599999922,115.51269500000035,135.38476599999922,122.30761700000039,128.0771479999994,112.17968800000017,125.64111300000059,303.46142599999985
28,115.25634799999989,102.17968800000017,108.9741210000002,91.41015599999992,120.51269500000035,109.23095699999976,106.41015599999992,113.58984400000008,126.79492200000004,129.23095699999976,121.53857400000015,109.10253900000043,115.0,325.2563479999999
29,130.0,99.10253900000043,103.9741210000002,99.10253900000043,117.17968800000017,109.87158199999976,103.0771479999994,112.17968800000017,117.30761700000039,130.6411130000006,119.48730499999965,107.05126999999993,106.6665039999998,357.3076170000004
30,153.7177729999994,94.48730499999965,103.9741210000002,111.79492200000004,112.82031300000017,113.3334960000002,102.56396500000028,111.6665039999998,113.84619099999964,126.15380900000036,120.25634799999989,106.6665039999998,103.9741210000002,391.15380900000036
31,179.23095699999976,88.46142599999985,106.79492200000004,126.53857400000015,110.64111300000059,117.17968800000017,105.89746099999957,112.17968800000017,117.43603499999972,118.58984400000008,121.2822270000006,107.69238299999961,104.35888699999941,418.0771479999994
32,201.53857400000015,83.58984400000008,109.87158199999976,139.87158199999976,113.20507799999996,119.23095699999976,111.79492200000004,114.10253900000043,122.05126999999993,112.17968800000017,120.51269500000035,108.9741210000002,103.3334960000002,438.84619099999964
33,220.76904300000024,82.43603499999972,111.2822270000006,149.61523400000078,118.84619099999964,118.58984400000008,115.89746099999957,115.38476599999922,120.12841800000024,108.58984400000008,117.30761700000039,109.61523400000078,97.94873000000007,464.48730499999965
34,240.0,83.84619099999964,110.0,155.12841800000024,122.43603499999972,115.89746099999957,114.10253900000043,113.0771479999994,108.84619099999964,106.41015599999992,112.43603499999972,108.84619099999964,89.74365200000011,508.0771479999994
35,262.6923829999996,83.84619099999964,106.41015599999992,158.0771479999994,121.15380900000036,113.20507799999996,106.6665039999998,106.41015599999992,93.84619099999964,103.7177729999994,109.10253900000043,106.41015599999992,83.84619099999964,575.1284180000002
36,290.2563479999999,79.35888699999941,103.20507799999996,161.2822270000006,117.56396500000028,111.9228520000006,99.23095699999976,99.35888699999941,86.41015599999992,100.64111300000059,110.64111300000059,103.46142599999985,85.76904300000024,657.4360349999997
37,319.23095699999976,71.9228520000006,102.94873000000007,166.53857400000015,117.69238299999961,112.69238299999961,98.0771479999994,98.0771479999994,93.0771479999994,98.7177729999994,117.30761700000039,102.30761700000039,95.89746099999957,733.8461909999996
38,341.6665039999998,66.41015599999992,104.48730499999965,173.3334960000002,124.61523400000078,114.10253900000043,104.35888699999941,104.35888699999941,109.48730499999965,98.7177729999994,123.9741210000002,103.9741210000002,106.9228520000006,780.3847659999992
39,352.3076170000004,66.15380900000036,105.12841800000024,179.3588869999994,135.51269500000035,114.87158199999976,113.0771479999994,113.58984400000008,124.23095699999976,100.0,124.48730499999965,107.69238299999961,109.48730499999965,786.2822270000006
40,354.3588869999994,69.87158199999976,104.23095699999976,183.84619099999964,143.58984400000008,114.61523400000078,118.20507799999996,119.10253900000043,128.7177729999994,102.30761700000039,117.43603499999972,111.0258789999998,100.0,761.9228520000006
41,356.15380900000036,72.69238299999961,103.7177729999994,187.6923829999996,144.23095699999976,114.10253900000043,117.69238299999961,118.7177729999994,123.9741210000002,106.41015599999992,107.82031300000017,112.56396500000028,84.35888699999941,730.3847659999992
42,363.3334960000002,71.6665039999998,105.76904300000024,192.82031300000017,139.23095699999976,114.10253900000043,115.0,115.76904300000024,117.82031300000017,113.46142599999985,102.43603499999972,112.05126999999993,73.0771479999994,709.4873049999997
43,375.2563479999999,69.48730499999965,110.51269500000035,200.2563479999999,134.87158199999976,114.87158199999976,115.76904300000024,115.89746099999957,118.46142599999985,124.23095699999976,105.12841800000024,110.89746099999957,74.74365200000011,702.5639650000003
44,387.6923829999996,71.6665039999998,116.0258789999998,210.12841800000024,136.0258789999998,116.15380900000036,122.69238299999961,122.43603499999972,127.82031300000017,136.6665039999998,115.76904300000024,111.0258789999998,90.64111300000059,703.3334960000002
45,397.82031300000017,78.7177729999994,120.38476599999922,220.12841800000024,142.3076170000004,117.43603499999972,132.3076170000004,133.3334960000002,140.38476599999922,145.76904300000024,131.0258789999998,113.3334960000002,114.87158199999976,704.3588869999994
46,406.0258789999998,83.9741210000002,122.05126999999993,226.0258789999998,148.46142599999985,117.94873000000007,137.17968800000017,142.17968800000017,147.6923829999996,146.9228520000006,145.76904300000024,116.79492200000004,137.3076170000004,703.3334960000002
47,414.23095699999976,78.0771479999994,121.15380900000036,225.0,148.58984400000008,116.53857400000015,132.05126999999993,142.43603499999972,145.0,139.61523400000078,156.0258789999998,119.35888699999941,150.76904300000024,701.5385740000002
48,422.4360349999997,57.82031300000017,118.58984400000008,216.9228520000006,141.41015599999992,113.84619099999964,119.23095699999976,132.94873000000007,135.0,128.7177729999994,160.12841800000024,120.12841800000024,154.7436520000001,699.7436520000001
49,426.6665039999998,30.641113000000587,115.38476599999922,205.51269500000035,131.41015599999992,111.53857400000015,107.30761700000039,120.0,125.0,120.51269500000035,159.87158199999976,119.35888699999941,154.48730499999965,695.3847659999992
50,422.17968800000017,9.230956999999762,112.82031300000017,196.79492200000004,127.30761700000039,111.53857400000015,103.84619099999964,113.0771479999994,121.79492200000004,119.61523400000078,157.6923829999996,118.0771479999994,157.56396500000028,685.3847659999992
51,409.3588869999994,2.4360349999997197,111.6665039999998,194.61523400000078,133.3334960000002,113.58984400000008,109.35888699999941,116.6665039999998,125.89746099999957,126.0258789999998,155.6411130000006,117.17968800000017,166.9228520000006,671.5385740000002
52,393.46142599999985,7.179688000000169,111.2822270000006,197.3076170000004,143.46142599999985,116.15380900000036,117.30761700000039,126.2822270000006,130.89746099999957,134.61523400000078,153.58984400000008,116.53857400000015,178.46142599999985,658.4614259999998
53,380.89746099999957,12.692382999999609,110.51269500000035,199.61523400000078,146.15380900000036,117.56396500000028,120.12841800000024,132.94873000000007,130.76904300000024,140.2563479999999,151.2822270000006,115.76904300000024,184.23095699999976,649.6152340000008
54,375.3847659999992,11.153809000000365,109.23095699999976,198.7177729999994,136.15380900000036,117.82031300000017,117.30761700000039,132.6923829999996,126.0258789999998,142.43603499999972,150.2563479999999,115.12841800000024,180.76904300000024,645.1284180000002
55,377.94873000000007,5.128418000000238,110.12841800000024,196.53857400000015,121.2822270000006,117.56396500000028,113.7177729999994,129.3588869999994,124.48730499999965,144.23095699999976,153.9741210000002,115.76904300000024,173.84619099999964,645.1284180000002
56,388.0771479999994,3.077147999999397,115.38476599999922,197.3076170000004,115.76904300000024,117.30761700000039,115.0,129.87158199999976,132.56396500000028,148.7177729999994,163.46142599999985,118.3334960000002,173.20507799999996,649.2309569999998
57,402.05126999999993,10.641113000000587,124.10253900000043,202.56396500000028,127.05126999999993,117.05126999999993,121.53857400000015,136.53857400000015,149.23095699999976,155.51269500000035,175.2563479999999,122.69238299999961,183.20507799999996,655.8974609999996
58,413.9741210000002,24.74365200000011,132.56396500000028,209.7436520000001,150.0,117.30761700000039,129.48730499999965,146.0258789999998,165.6411130000006,160.76904300000024,182.56396500000028,127.17968800000017,197.43603499999972,660.5126950000003
59,417.94873000000007,36.410155999999915,136.2822270000006,214.48730499999965,170.89746099999957,118.7177729999994,134.10253900000043,152.05126999999993,172.05126999999993,160.51269500000035,180.51269500000035,129.7436520000001,204.61523400000078,657.8203130000002
60,411.0258789999998,38.20507799999996,132.56396500000028,213.46142599999985,177.82031300000017,120.38476599999922,132.43603499999972,150.12841800000024,165.51269500000035,152.43603499999972,169.48730499999965,128.46142599999985,197.05126999999993,645.6411130000006
61,395.12841800000024,28.974121000000196,121.9228520000006,206.41015599999992,167.43603499999972,120.51269500000035,123.7177729999994,139.61523400000078,150.0,137.17968800000017,153.7177729999994,122.94873000000007,177.05126999999993,626.0258789999998
62,375.51269500000035,14.102539000000434,107.94873000000007,195.76904300000024,145.89746099999957,117.30761700000039,110.76904300000024,124.61523400000078,132.56396500000028,119.74365200000011,138.3334960000002,114.48730499999965,154.10253900000043,604.4873049999997
63,358.3334960000002,1.4101559999999154,96.0258789999998,185.6411130000006,125.0,111.41015599999992,99.61523400000078,113.20507799999996,120.64111300000059,108.58984400000008,127.05126999999993,106.2822270000006,137.94873000000007,586.6665039999998
64,348.0771479999994,-3.4614259999998467,91.6665039999998,180.51269500000035,115.51269500000035,106.2822270000006,97.17968800000017,113.20507799999996,119.35888699999941,110.89746099999957,122.69238299999961,101.79492200000004,134.10253900000043,576.6665039999998
65,345.6411130000006,-0.8974609999995664,96.79492200000004,181.6665039999998,121.53857400000015,104.74365200000011,105.76904300000024,126.0258789999998,128.20507799999996,125.89746099999957,126.2822270000006,102.94873000000007,140.6411130000006,575.2563479999999
66,349.3588869999994,3.717772999999397,107.17968800000017,185.76904300000024,136.9228520000006,107.30761700000039,120.38476599999922,143.7177729999994,140.12841800000024,143.46142599999985,134.7436520000001,108.20507799999996,150.0,579.8715819999998
67,356.4101559999999,4.487304999999651,115.51269500000035,187.05126999999993,148.84619099999964,111.6665039999998,131.2822270000006,154.10253900000043,144.7436520000001,151.15380900000036,141.6665039999998,114.10253900000043,153.58984400000008,586.2822270000006
68,364.10253900000043,0.256347999999889,117.43603499999972,182.3076170000004,147.56396500000028,115.51269500000035,132.3076170000004,151.15380900000036,137.6923829999996,143.58984400000008,141.79492200000004,117.82031300000017,147.94873000000007,590.5126950000003
69,369.10253900000043,-5.256347999999889,114.48730499999965,174.48730499999965,133.7177729999994,117.30761700000039,124.61523400000078,138.9741210000002,124.48730499999965,127.56396500000028,135.6411130000006,118.3334960000002,137.82031300000017,589.2309569999998
70,367.3076170000004,-6.538574000000153,110.89746099999957,169.61523400000078,117.56396500000028,117.43603499999972,115.89746099999957,127.05126999999993,116.15380900000036,115.38476599999922,128.3334960000002,116.79492200000004,131.15380900000036,581.0258789999998
71,356.2822270000006,-2.0512699999999313,108.84619099999964,170.0,110.0,116.53857400000015,113.46142599999985,122.05126999999993,119.48730499999965,115.25634799999989,124.61523400000078,115.0,132.6923829999996,567.0512699999999
72,338.3334960000002,4.358886999999413,107.94873000000007,172.56396500000028,113.84619099999964,115.25634799999989,118.3334960000002,124.74365200000011,132.17968800000017,125.38476599999922,125.51269500000035,114.35888699999941,140.0,551.2822270000006
73,322.3076170000004,7.820313000000169,106.79492200000004,172.05126999999993,125.12841800000024,113.7177729999994,125.76904300000024,131.53857400000015,145.89746099999957,137.43603499999972,129.48730499999965,114.61523400000078,146.9228520000006,540.0
74,319.23095699999976,7.307617000000391,105.64111300000059,166.9228520000006,137.56396500000028,111.0258789999998,129.3588869999994,137.94873000000007,153.46142599999985,144.10253900000043,134.10253900000043,115.51269500000035,149.87158199999976,539.2309569999998
75,333.0771479999994,5.641113000000587,105.64111300000059,159.3588869999994,146.2822270000006,106.9228520000006,126.15380900000036,141.53857400000015,153.0771479999994,144.3588869999994,137.6923829999996,116.15380900000036,149.23095699999976,549.2309569999998
76,355.6411130000006,6.922852000000603,107.30761700000039,152.94873000000007,149.10253900000043,102.56396500000028,119.10253900000043,141.9228520000006,148.0771479999994,142.05126999999993,138.84619099999964,116.53857400000015,147.3076170000004,562.9487300000001
77,371.79492200000004,12.948730000000069,110.76904300000024,149.7436520000001,147.17968800000017,100.12841800000024,115.25634799999989,141.79492200000004,144.10253900000043,143.0771479999994,138.84619099999964,117.05126999999993,147.05126999999993,570.2563479999999
78,369.7436520000001,21.538574000000153,114.87158199999976,147.6923829999996,144.3588869999994,101.53857400000015,119.61523400000078,144.61523400000078,145.76904300000024,149.23095699999976,140.0,118.20507799999996,150.0,564.3588869999994
79,347.05126999999993,27.43603499999972,115.64111300000059,140.38476599999922,144.61523400000078,105.76904300000024,128.9741210000002,150.0,151.6665039999998,155.89746099999957,142.43603499999972,118.84619099999964,154.7436520000001,545.3847659999992
80,312.94873000000007,25.769043000000238,108.58984400000008,121.53857400000015,146.9228520000006,110.0,134.10253900000043,152.43603499999972,154.7436520000001,154.7436520000001,142.43603499999972,116.79492200000004,156.9228520000006,520.3847659999992
81,283.46142599999985,17.05126999999993,94.48730499999965,92.82031300000017,146.9228520000006,112.56396500000028,128.9741210000002,148.3334960000002,149.23095699999976,143.46142599999985,137.56396500000028,111.6665039999998,153.84619099999964,500.0
82,273.20507799999996,7.820313000000169,82.30761700000039,65.25634799999989,141.2822270000006,113.9741210000002,117.69238299999961,140.89746099999957,136.41015599999992,129.10253900000043,130.6411130000006,106.53857400000015,147.3076170000004,493.20507799999996
83,285.89746099999957,4.743652000000111,81.53857400000015,51.153809000000365,131.6665039999998,115.38476599999922,111.15380900000036,137.43603499999972,124.87158199999976,121.79492200000004,127.94873000000007,105.12841800000024,142.56396500000028,501.15380900000036
84,310.3847659999992,8.589844000000085,93.7177729999994,53.0771479999994,123.7177729999994,116.79492200000004,115.38476599999922,141.6665039999998,123.20507799999996,125.38476599999922,132.94873000000007,108.7177729999994,143.20507799999996,516.0258789999998
85,328.5898440000001,15.0,110.0,61.2822270000006,122.43603499999972,117.05126999999993,127.05126999999993,149.48730499999965,133.20507799999996,135.51269500000035,142.43603499999972,114.61523400000078,148.3334960000002,525.8974609999996
86,327.3076170000004,19.48730499999965,118.0771479999994,62.69238299999961,128.9741210000002,116.41015599999992,136.53857400000015,153.46142599999985,148.84619099999964,145.2563479999999,149.3588869999994,118.84619099999964,153.3334960000002,522.5639650000003
87,306.9228520000006,21.153809000000365,112.69238299999961,50.12841800000024,138.9741210000002,116.41015599999992,136.6665039999998,150.51269500000035,161.15380900000036,151.0258789999998,148.9741210000002,119.48730499999965,154.87158199999976,507.05126999999993
88,278.9741210000002,20.641113000000587,97.94873000000007,26.666503999999804,145.51269500000035,117.82031300000017,128.0771479999994,142.94873000000007,163.58984400000008,151.9228520000006,141.9228520000006,116.79492200000004,152.6923829999996,487.94873000000007
89,257.4360349999997,17.43603499999972,83.58984400000008,1.4101559999999154,143.0771479999994,118.84619099999964,116.9228520000006,134.87158199999976,155.51269500000035,148.3334960000002,133.0771479999994,112.82031300000017,148.20507799999996,474.6152340000008
90,250.12841800000024,11.794922000000042,77.94873000000007,-17.179442999999992,132.43603499999972,116.2822270000006,110.12841800000024,129.3588869999994,142.05126999999993,141.6665039999998,127.69238299999961,110.0,143.9741210000002,470.6411130000006
91,255.12841800000024,6.410155999999915,82.94873000000007,-25.641113000000132,119.10253900000043,110.38476599999922,111.0258789999998,127.43603499999972,131.53857400000015,135.76904300000024,128.20507799999996,109.61523400000078,142.6923829999996,473.7177729999994
92,263.46142599999985,4.743652000000111,93.20507799999996,-26.923095999999987,110.51269500000035,104.61523400000078,116.6665039999998,128.7177729999994,129.7436520000001,134.3588869999994,132.56396500000028,111.9228520000006,144.7436520000001,477.4360349999997
93,266.6665039999998,8.077147999999397,101.15380900000036,-26.153809000000365,110.76904300000024,103.3334960000002,120.76904300000024,131.53857400000015,135.6411130000006,137.17968800000017,136.6665039999998,114.74365200000011,148.7177729999994,476.15380900000036
94,262.4360349999997,15.0,102.69238299999961,-27.30761700000039,119.61523400000078,107.05126999999993,119.87158199999976,134.48730499999965,143.20507799999996,140.2563479999999,137.82031300000017,116.15380900000036,152.3076170000004,468.84619099999964
95,255.38476599999922,22.56396500000028,100.38476599999922,-30.89746100000002,132.82031300000017,111.9228520000006,116.79492200000004,138.46142599999985,146.53857400000015,140.12841800000024,136.9228520000006,115.76904300000024,155.12841800000024,458.5898440000001
96,251.9228520000006,28.846190999999635,99.87158199999976,-35.38452099999995,144.7436520000001,113.84619099999964,116.6665039999998,144.3588869999994,145.6411130000006,136.6665039999998,137.3076170000004,115.12841800000024,158.3334960000002,450.3847659999992
97,253.9741210000002,32.94873000000007,104.10253900000043,-40.1281740000004,151.0258789999998,111.6665039999998,122.17968800000017,151.2822270000006,143.7177729999994,132.94873000000007,141.15380900000036,115.89746099999957,162.6923829999996,445.89746099999957
98,256.53857400000015,35.0,109.87158199999976,-46.153809000000365,150.38476599999922,106.79492200000004,130.12841800000024,156.53857400000015,143.58984400000008,132.82031300000017,146.9228520000006,117.43603499999972,166.41015599999992,440.76904300000024
99,253.3334960000002,35.64111300000059,111.53857400000015,-55.25634799999989,145.38476599999922,103.20507799999996,134.48730499999965,157.05126999999993,144.7436520000001,137.56396500000028,151.79492200000004,117.69238299999961,166.9228520000006,424.87158199999976
100,243.0771479999994,36.666503999999804,106.6665039999998,-66.92309599999999,139.10253900000043,104.10253900000043,132.05126999999993,153.0771479999994,144.87158199999976,146.0258789999998,154.7436520000001,115.51269500000035,163.20507799999996,387.6923829999996
101,230.0,38.974121000000196,98.46142599999985,-79.23071300000038,132.82031300000017,110.12841800000024,125.25634799999989,148.46142599999985,142.56396500000028,154.10253900000043,156.53857400000015,111.41015599999992,157.94873000000007,325.12841800000024
102,218.20507799999996,41.025878999999804,90.89746099999957,-91.66674799999964,124.61523400000078,117.17968800000017,118.46142599999985,145.76904300000024,138.84619099999964,156.41015599999992,156.6665039999998,106.9228520000006,153.9741210000002,244.10253900000043
103,207.94873000000007,39.35888699999941,85.25634799999989,-106.66674799999964,113.0771479999994,120.0,114.10253900000043,143.7177729999994,135.0,149.87158199999976,152.17968800000017,102.82031300000017,151.79492200000004,161.2822270000006
104,198.9741210000002,33.974121000000196,80.76904300000024,-125.51293900000019,100.89746099999957,116.15380900000036,112.17968800000017,138.9741210000002,132.3076170000004,137.17968800000017,142.05126999999993,99.48730499999965,151.53857400000015,97.05126999999993
105,193.58984400000008,30.0,78.46142599999985,-144.4870609999998,94.61523400000078,108.9741210000002,112.43603499999972,132.17968800000017,132.56396500000028,127.30761700000039,131.79492200000004,98.3334960000002,154.3588869999994,62.69238299999961
106,195.76904300000024,32.94873000000007,80.76904300000024,-157.3076170000004,98.0771479999994,104.48730499999965,115.25634799999989,128.20507799999996,137.17968800000017,128.20507799999996,129.87158199999976,101.15380900000036,162.43603499999972,52.82031300000017
107,206.2822270000006,42.56396500000028,88.0771479999994,-160.64111300000013,108.84619099999964,105.51269500000035,120.38476599999922,131.53857400000015,144.7436520000001,138.9741210000002,140.38476599999922,106.9228520000006,174.3588869999994,48.333496000000196
108,221.53857400000015,52.94873000000007,96.79492200000004,-157.6923829999996,120.38476599999922,110.12841800000024,125.25634799999989,140.38476599999922,150.89746099999957,150.2563479999999,158.0771479999994,112.30761700000039,185.2563479999999,31.282227000000603
109,237.94873000000007,58.7177729999994,101.9228520000006,-156.15380900000036,127.69238299999961,114.61523400000078,126.79492200000004,148.3334960000002,151.9228520000006,153.46142599999985,172.56396500000028,114.61523400000078,191.2822270000006,-1.4101559999999154
110,254.61523400000078,59.102539000000434,101.41015599999992,-162.0512700000004,129.7436520000001,117.43603499999972,123.84619099999964,149.23095699999976,148.3334960000002,148.58984400000008,175.89746099999957,113.3334960000002,192.43603499999972,-36.41015600000037
111,273.0771479999994,57.30761700000039,97.17968800000017,-176.28198199999997,127.30761700000039,118.7177729999994,118.84619099999964,142.56396500000028,142.94873000000007,142.56396500000028,167.43603499999972,110.38476599999922,192.3076170000004,-56.153809000000365
112,294.23095699999976,57.05126999999993,92.94873000000007,-193.84619099999964,121.2822270000006,118.84619099999964,115.12841800000024,132.6923829999996,138.0771479999994,141.6665039999998,152.6923829999996,107.69238299999961,192.94873000000007,-52.948729999999614
113,317.3076170000004,59.61523400000078,92.05126999999993,-206.79492200000004,112.69238299999961,117.30761700000039,115.0,125.64111300000059,133.9741210000002,145.2563479999999,140.12841800000024,106.53857400000015,193.3334960000002,-33.71801800000003
114,339.3588869999994,64.10253900000043,95.51269500000035,-210.5129390000002,103.58984400000008,113.84619099999964,117.56396500000028,124.35888699999941,130.38476599999922,147.6923829999996,136.41015599999992,107.17968800000017,191.53857400000015,-13.205077999999958
115,355.6411130000006,67.43603499999972,100.0,-208.33325200000036,97.05126999999993,109.61523400000078,118.84619099999964,126.79492200000004,127.05126999999993,143.0771479999994,141.53857400000015,108.84619099999964,186.2822270000006,-3.5898440000000846
116,362.05126999999993,67.30761700000039,100.25634799999989,-208.84619099999964,96.79492200000004,106.2822270000006,114.74365200000011,127.82031300000017,123.3334960000002,130.51269500000035,149.10253900000043,110.25634799999989,178.46142599999985,-7.564209000000574
117,358.84619099999964,64.48730499999965,94.48730499999965,-217.56420900000057,103.9741210000002,104.87158199999976,106.41015599999992,125.0,119.10253900000043,116.41015599999992,152.05126999999993,110.38476599999922,170.76904300000024,-19.8718259999996
118,350.76904300000024,63.20507799999996,87.05126999999993,-231.79492200000004,115.64111300000059,106.53857400000015,100.25634799999989,121.53857400000015,115.51269500000035,110.38476599999922,148.84619099999964,109.87158199999976,167.94873000000007,-32.17944299999999
119,345.0,67.05126999999993,86.0258789999998,-242.820557,124.87158199999976,111.15380900000036,102.17968800000017,121.9228520000006,115.64111300000059,117.82031300000017,144.61523400000078,110.51269500000035,172.6923829999996,-38.846190999999635
120,344.23095699999976,75.76904300000024,95.0,-244.23071300000038,126.0258789999998,116.79492200000004,112.05126999999993,128.0771479999994,121.6665039999998,135.2563479999999,145.2563479999999,113.3334960000002,183.20507799999996,-39.48706099999981
121,344.3588869999994,84.61523400000078,109.48730499999965,-237.820557,117.94873000000007,120.12841800000024,122.56396500000028,136.15380900000036,131.53857400000015,151.6665039999998,150.38476599999922,117.30761700000039,191.79492200000004,-37.051270000000386
122,337.4360349999997,87.69238299999961,119.10253900000043,-232.179443,105.76904300000024,118.0771479999994,125.38476599999922,139.10253900000043,138.9741210000002,156.53857400000015,153.84619099999964,119.48730499999965,190.76904300000024,-35.38452099999995
123,319.3588869999994,82.82031300000017,117.43603499999972,-235.2563479999999,96.79492200000004,111.2822270000006,117.82031300000017,133.3334960000002,138.7177729999994,147.3076170000004,150.0,118.20507799999996,178.7177729999994,-36.53857400000015
124,295.0,74.74365200000011,107.05126999999993,-246.41015600000037,96.0258789999998,104.23095699999976,106.15380900000036,122.94873000000007,131.6665039999998,131.15380900000036,140.76904300000024,114.61523400000078,162.82031300000017,-39.35888699999987
125,274.48730499999965,71.41015599999992,97.94873000000007,-256.53857400000015,103.3334960000002,101.79492200000004,100.38476599999922,116.9228520000006,124.61523400000078,120.0,133.0771479999994,112.17968800000017,153.9741210000002,-40.89746100000002
126,264.23095699999976,76.79492200000004,98.3334960000002,-256.02563499999997,113.58984400000008,105.76904300000024,105.89746099999957,120.76904300000024,124.48730499999965,121.41015599999992,132.17968800000017,113.20507799999996,157.3076170000004,-38.846190999999635
127,262.17968800000017,87.56396500000028,107.94873000000007,-243.97436500000003,121.6665039999998,112.82031300000017,118.9741210000002,132.17968800000017,132.17968800000017,134.10253900000043,137.3076170000004,116.15380900000036,169.23095699999976,-33.974365000000034
128,260.3847659999992,96.6665039999998,119.48730499999965,-229.23071300000038,125.76904300000024,118.7177729999994,130.6411130000006,143.58984400000008,142.3076170000004,149.61523400000078,144.48730499999965,118.20507799999996,180.76904300000024,-28.58984399999963
129,252.05126999999993,98.7177729999994,125.12841800000024,-223.33325200000036,126.53857400000015,121.0258789999998,133.58984400000008,147.56396500000028,148.0771479999994,159.23095699999976,150.51269500000035,118.0771479999994,183.9741210000002,-25.769286999999622
130,235.6411130000006,93.20507799999996,121.53857400000015,-231.15380900000036,123.9741210000002,120.38476599999922,126.6665039999998,142.3076170000004,145.51269500000035,157.6923829999996,152.43603499999972,116.6665039999998,176.6665039999998,-27.051270000000386
131,215.12841800000024,82.82031300000017,111.41015599999992,-247.9487299999996,116.53857400000015,118.58984400000008,114.35888699999941,131.41015599999992,134.7436520000001,144.87158199999976,148.58984400000008,115.25634799999989,161.79492200000004,-32.17944299999999
132,196.53857400000015,71.53857400000015,100.51269500000035,-263.46142599999985,104.48730499999965,116.79492200000004,102.82031300000017,120.25634799999989,120.38476599999922,126.0258789999998,138.9741210000002,114.61523400000078,145.51269500000035,-38.58984399999963
133,185.38476599999922,63.846190999999635,94.10253900000043,-268.84619099999964,91.9228520000006,115.51269500000035,97.17968800000017,113.84619099999964,109.48730499999965,110.38476599999922,127.43603499999972,114.48730499999965,135.6411130000006,-42.82055700000001
134,182.56396500000028,62.82031300000017,94.87158199999976,-262.179443,85.0,115.12841800000024,99.61523400000078,113.7177729999994,107.56396500000028,105.89746099999957,119.10253900000043,114.35888699999941,136.9228520000006,-42.435790999999426
135,184.23095699999976,67.94873000000007,101.0258789999998,-249.23071300000038,86.2822270000006,115.64111300000059,107.94873000000007,117.94873000000007,114.10253900000043,113.46142599999985,117.30761700000039,113.20507799999996,147.3076170000004,-37.435790999999426
136,184.10253900000043,75.25634799999989,107.05126999999993,-239.7436520000001,91.53857400000015,116.41015599999992,116.6665039999998,122.56396500000028,122.56396500000028,124.23095699999976,120.51269500000035,110.25634799999989,158.20507799999996,-31.538574000000153
137,177.6923829999996,79.23095699999976,107.94873000000007,-241.15380900000036,93.20507799999996,116.53857400000015,119.74365200000011,123.84619099999964,125.25634799999989,127.30761700000039,124.35888699999941,106.15380900000036,160.51269500000035,-28.71801800000003
138,165.6411130000006,76.79492200000004,102.43603499999972,-253.33325200000036,87.43603499999972,115.38476599999922,114.87158199999976,120.25634799999989,120.0,118.3334960000002,124.35888699999941,102.05126999999993,151.0258789999998,-31.025634999999966
139,152.56396500000028,69.74365200000011,93.20507799999996,-268.20507799999996,78.9741210000002,113.0771479999994,105.0,113.46142599999985,110.25634799999989,103.7177729999994,120.12841800000024,99.48730499999965,135.76904300000024,-37.051270000000386
140,143.7177729999994,63.7177729999994,85.25634799999989,-276.28198199999997,77.69238299999961,110.25634799999989,97.05126999999993,107.82031300000017,102.05126999999993,95.89746099999957,114.74365200000011,98.84619099999964,124.61523400000078,-42.17944299999999
141,140.89746099999957,64.10253900000043,82.94873000000007,-273.076904,88.0771479999994,108.20507799999996,96.15380900000036,107.82031300000017,99.48730499999965,102.69238299999961,111.79492200000004,99.61523400000078,124.61523400000078,-42.17944299999999
142,141.53857400000015,71.15380900000036,87.56396500000028,-262.9487299999996,103.9741210000002,108.58984400000008,102.56396500000028,114.23095699999976,102.82031300000017,120.0,113.0771479999994,101.15380900000036,134.23095699999976,-36.66674799999964
143,140.89746099999957,79.10253900000043,95.89746099999957,-255.0,112.43603499999972,111.79492200000004,111.53857400000015,122.94873000000007,109.35888699999941,135.0,116.79492200000004,102.94873000000007,144.87158199999976,-29.358886999999868
144,135.38476599999922,81.0258789999998,101.9228520000006,-256.02563499999997,104.35888699999941,116.0258789999998,117.17968800000017,127.17968800000017,115.89746099999957,136.15380900000036,118.9741210000002,104.35888699999941,147.56396500000028,-25.512939000000188
145,125.12841800000024,73.9741210000002,100.0,-266.15380900000036,81.9228520000006,118.46142599999985,115.64111300000059,122.30761700000039,119.35888699999941,122.69238299999961,116.15380900000036,104.35888699999941,139.10253900000043,-28.71801800000003
146,112.17968800000017,61.025878999999804,88.9741210000002,-279.8718259999996,56.410155999999915,117.30761700000039,106.9228520000006,108.58984400000008,116.6665039999998,103.58984400000008,108.0771479999994,102.30761700000039,123.20507799999996,-37.82055700000001
147,100.12841800000024,48.846190999999635,73.84619099999964,-290.2563479999999,40.12841800000024,113.46142599999985,95.25634799999989,92.69238299999961,107.43603499999972,89.23095699999976,98.0771479999994,98.84619099999964,108.20507799999996,-47.69238299999961
148,91.79492200000004,43.974121000000196,62.82031300000017,-292.4357909999994,38.589844000000085,109.74365200000011,87.69238299999961,83.0771479999994,96.0258789999998,85.0,91.41015599999992,95.51269500000035,101.15380900000036,-52.435790999999426
149,89.61523400000078,49.87158199999976,61.9228520000006,-285.1281740000004,47.69238299999961,108.46142599999985,89.48730499999965,86.15380900000036,89.35888699999941,90.0,92.43603499999972,94.23095699999976,105.38476599999922,-48.846190999999635
150,94.10253900000043,64.74365200000011,71.53857400000015,-270.0,60.38476599999922,110.0,100.0,101.41015599999992,93.84619099999964,99.61523400000078,102.69238299999961,95.76904300000024,119.23095699999976,-37.82055700000001
151,103.0771479999994,82.05126999999993,86.0258789999998,-251.15380900000036,71.0258789999998,112.69238299999961,113.20507799999996,121.6665039999998,109.35888699999941,108.58984400000008,119.74365200000011,99.61523400000078,136.6665039999998,-24.358886999999868
152,110.89746099999957,92.94873000000007,97.17968800000017,-234.61547900000005,78.58984400000008,114.61523400000078,121.53857400000015,137.05126999999993,129.61523400000078,113.58984400000008,137.17968800000017,103.7177729999994,149.23095699999976,-14.8718259999996
153,111.2822270000006,91.2822270000006,99.23095699999976,-226.923096,82.17968800000017,114.61523400000078,121.0258789999998,140.76904300000024,144.10253900000043,113.58984400000008,146.53857400000015,105.38476599999922,149.7436520000001,-13.974365000000034
154,101.15380900000036,77.82031300000017,92.05126999999993,-231.15380900000036,79.74365200000011,112.56396500000028,112.82031300000017,132.43603499999972,144.3588869999994,109.74365200000011,141.79492200000004,103.9741210000002,137.05126999999993,-22.564209000000574
155,83.58984400000008,59.74365200000011,80.76904300000024,-244.8718259999996,69.74365200000011,110.12841800000024,101.79492200000004,118.3334960000002,129.48730499999965,104.61523400000078,124.87158199999976,100.25634799999989,117.69238299999961,-35.76928699999962
156,67.30761700000039,47.30761700000039,72.30761700000039,-259.4870609999998,56.025878999999804,109.23095699999976,94.23095699999976,107.69238299999961,108.58984400000008,102.82031300000017,105.76904300000024,96.9228520000006,103.84619099999964,-45.64111300000013
157,62.17968800000017,48.20507799999996,71.6665039999998,-264.2307130000004,48.333496000000196,110.76904300000024,94.61523400000078,107.69238299999961,96.41015599999992,107.94873000000007,96.79492200000004,96.53857400000015,106.6665039999998,-44.61547900000005
158,72.43603499999972,62.94873000000007,80.0,-252.820557,54.48730499999965,113.9741210000002,103.7177729999994,118.46142599999985,103.0771479999994,120.12841800000024,104.87158199999976,100.25634799999989,128.3334960000002,-31.025634999999966
159,92.82031300000017,83.7177729999994,93.58984400000008,-229.23071300000038,73.84619099999964,116.79492200000004,117.82031300000017,134.23095699999976,126.0258789999998,134.10253900000043,126.6665039999998,107.05126999999993,158.84619099999964,-11.28198199999997
160,111.0258789999998,98.46142599999985,106.0258789999998,-206.79492200000004,94.74365200000011,117.43603499999972,129.3588869999994,146.79492200000004,150.89746099999957,142.17968800000017,151.15380900000036,114.35888699999941,182.05126999999993,3.9741210000001956
161,116.2822270000006,98.58984400000008,111.15380900000036,-199.4870609999998,103.84619099999964,115.51269500000035,132.3076170000004,150.12841800000024,161.2822270000006,138.9741210000002,165.6411130000006,118.9741210000002,186.6665039999998,6.153809000000365
162,105.76904300000024,84.10253900000043,107.30761700000039,-211.41015600000037,95.25634799999989,111.6665039999998,125.38476599999922,143.7177729999994,151.0258789999998,126.53857400000015,164.3588869999994,118.84619099999964,173.9741210000002,-4.358886999999868
163,87.82031300000017,63.974121000000196,97.94873000000007,-233.58984399999963,75.76904300000024,107.30761700000039,113.0771479999994,132.6923829999996,127.94873000000007,113.3334960000002,151.53857400000015,115.38476599999922,155.76904300000024,-18.974365000000034
164,75.0,50.38476599999922,90.64111300000059,-249.4870609999998,59.35888699999941,103.9741210000002,102.43603499999972,124.74365200000011,108.46142599999985,109.10253900000043,137.43603499999972,112.69238299999961,145.6411130000006,-26.794922000000042
165,74.74365200000011,50.76904300000024,90.38476599999922,-248.84619099999964,56.2822270000006,103.20507799999996,98.3334960000002,124.10253900000043,105.0,115.64111300000059,130.51269500000035,113.46142599999985,149.23095699999976,-22.820557000000008
166,83.84619099999964,61.9228520000006,95.89746099999957,-234.4870609999998,65.51269500000035,105.51269500000035,100.38476599999922,128.84619099999964,116.6665039999998,125.25634799999989,131.2822270000006,116.53857400000015,160.38476599999922,-11.41015600000037
167,91.41015599999992,73.0771479999994,100.76904300000024,-218.97436500000003,76.2822270000006,109.48730499999965,103.84619099999964,131.79492200000004,131.79492200000004,126.15380900000036,133.58984400000008,117.94873000000007,166.9228520000006,-2.5639650000002803
168,89.48730499999965,75.38476599999922,99.48730499999965,-213.076904,78.58984400000008,112.82031300000017,104.35888699999941,127.82031300000017,137.6923829999996,114.87158199999976,131.79492200000004,115.12841800000024,161.0258789999998,-3.717772999999397
169,79.48730499999965,69.23095699999976,93.46142599999985,-217.0512700000004,71.79492200000004,113.46142599999985,101.79492200000004,118.7177729999994,131.41015599999992,99.61523400000078,127.30761700000039,109.61523400000078,145.12841800000024,-12.948729999999614
170,69.74365200000011,62.69238299999961,89.23095699999976,-222.179443,62.94873000000007,111.53857400000015,100.38476599999922,112.69238299999961,121.0258789999998,93.58984400000008,126.79492200000004,105.64111300000059,130.6411130000006,-22.051270000000386
171,66.53857400000015,63.0771479999994,91.2822270000006,-220.89746100000002,59.48730499999965,108.7177729999994,103.3334960000002,115.12841800000024,116.6665039999998,102.30761700000039,132.94873000000007,105.76904300000024,126.41015599999992,-24.61547900000005
172,67.69238299999961,69.10253900000043,96.41015599999992,-213.46142599999985,61.410155999999915,106.79492200000004,109.23095699999976,123.0771479999994,119.74365200000011,118.0771479999994,140.38476599999922,108.46142599999985,131.2822270000006,-21.41015600000037
173,66.6665039999998,73.9741210000002,98.46142599999985,-206.53857400000015,65.0,107.30761700000039,112.56396500000028,127.94873000000007,123.20507799999996,128.3334960000002,141.2822270000006,109.87158199999976,136.6665039999998,-18.333252000000357
174,60.12841800000024,72.94873000000007,94.35888699999941,-204.61547900000005,68.20507799999996,110.51269500000035,110.12841800000024,124.74365200000011,120.51269500000035,126.2822270000006,133.84619099999964,108.3334960000002,136.53857400000015,-18.58984399999963
175,52.30761700000039,68.3334960000002,88.20507799999996,-206.02563499999997,73.3334960000002,115.0,105.38476599999922,117.82031300000017,113.58984400000008,116.53857400000015,124.61523400000078,106.0258789999998,132.6923829999996,-20.512939000000188
176,49.23095699999976,66.41015599999992,86.53857400000015,-205.76928699999962,81.53857400000015,118.20507799999996,104.35888699999941,114.87158199999976,110.38476599999922,110.0,121.9228520000006,106.53857400000015,131.15380900000036,-20.25634799999989
177,53.333496000000196,71.15380900000036,91.6665039999998,-201.41015600000037,90.12841800000024,118.20507799999996,109.87158199999976,120.25634799999989,116.53857400000015,113.84619099999964,128.3334960000002,111.0258789999998,135.0,-16.153809000000365
178,61.2822270000006,80.64111300000059,100.25634799999989,-194.4870609999998,94.74365200000011,115.12841800000024,118.7177729999994,130.51269500000035,129.7436520000001,126.9228520000006,139.7436520000001,116.9228520000006,141.9228520000006,-10.1281740000004
179,67.05126999999993,89.48730499999965,106.53857400000015,-188.71801800000003,93.58984400000008,111.53857400000015,124.35888699999941,138.7177729999994,142.05126999999993,140.38476599999922,148.9741210000002,120.25634799999989,147.82031300000017,-5.897461000000021
180,67.30761700000039,92.05126999999993,106.79492200000004,-185.38452099999995,88.9741210000002,110.0,122.82031300000017,140.51269500000035,146.6665039999998,144.7436520000001,151.0258789999998,119.61523400000078,149.3588869999994,-4.743652000000111
181,62.30761700000039,86.6665039999998,102.69238299999961,-183.33325200000036,84.48730499999965,110.89746099999957,115.89746099999957,136.6665039999998,142.6923829999996,136.6665039999998,146.2822270000006,116.53857400000015,146.79492200000004,-5.897461000000021
182,55.38476599999922,76.41015599999992,98.84619099999964,-180.5129390000002,82.05126999999993,113.20507799999996,109.87158199999976,131.0258789999998,134.61523400000078,121.6665039999998,140.12841800000024,114.35888699999941,142.17968800000017,-7.948729999999614
183,49.35888699999941,66.79492200000004,98.0771479999994,-177.820557,80.64111300000059,115.51269500000035,109.23095699999976,127.17968800000017,126.79492200000004,109.48730499999965,137.56396500000028,114.61523400000078,138.20507799999996,-10.38452099999995
184,43.974121000000196,61.79492200000004,98.58984400000008,-178.84619099999964,77.94873000000007,116.9228520000006,112.30761700000039,125.12841800000024,120.89746099999957,107.17968800000017,138.58984400000008,115.89746099999957,135.51269500000035,-14.102538999999979
185,37.43603499999972,60.897460999999566,95.12841800000024,-186.53857400000015,73.20507799999996,116.41015599999992,113.46142599999985,122.05126999999993,115.38476599999922,113.0771479999994,137.94873000000007,114.35888699999941,132.82031300000017,-19.61547900000005
186,29.358886999999413,60.76904300000024,85.0,-198.46142599999985,68.20507799999996,113.58984400000008,108.7177729999994,116.2822270000006,109.35888699999941,119.87158199999976,130.6411130000006,108.58984400000008,128.3334960000002,-25.769286999999622
187,21.666503999999804,58.333496000000196,72.30761700000039,-207.56420900000057,65.25634799999989,109.23095699999976,100.51269500000035,109.35888699999941,104.74365200000011,121.15380900000036,118.3334960000002,100.64111300000059,122.17968800000017,-30.769286999999622
188,17.56396500000028,53.974121000000196,64.48730499999965,-207.56420900000057,65.51269500000035,105.64111300000059,95.25634799999989,105.89746099999957,104.35888699999941,116.53857400000015,108.3334960000002,95.38476599999922,116.9228520000006,-32.69238299999961
189,17.82031300000017,50.38476599999922,66.2822270000006,-199.35888699999987,67.43603499999972,105.51269500000035,97.82031300000017,108.58984400000008,108.84619099999964,110.64111300000059,107.82031300000017,96.2822270000006,115.38476599999922,-30.89746100000002
190,20.897460999999566,51.025878999999804,75.12841800000024,-188.84619099999964,68.84619099999964,108.7177729999994,106.79492200000004,115.51269500000035,116.0258789999998,109.35888699999941,117.30761700000039,102.56396500000028,118.46142599999985,-25.89746100000002
191,24.230956999999762,57.05126999999993,84.23095699999976,-182.56420900000057,69.35888699999941,112.94873000000007,116.0258789999998,121.79492200000004,121.79492200000004,115.51269500000035,130.51269500000035,110.38476599999922,125.25634799999989,-19.8718259999996
192,26.794922000000042,65.89746099999957,88.9741210000002,-182.43579099999943,71.15380900000036,115.12841800000024,120.0,123.58984400000008,124.10253900000043,126.2822270000006,139.48730499999965,115.76904300000024,132.6923829999996,-14.8718259999996
193,28.974121000000196,73.3334960000002,89.23095699999976,-185.38452099999995,76.15380900000036,114.61523400000078,118.3334960000002,121.9228520000006,123.84619099999964,135.6411130000006,140.2563479999999,116.9228520000006,137.82031300000017,-11.794922000000042
194,31.153809000000365,75.51269500000035,87.30761700000039,-187.43579099999943,83.20507799999996,112.94873000000007,114.10253900000043,120.25634799999989,122.69238299999961,138.20507799999996,134.87158199999976,114.23095699999976,138.58984400000008,-10.769286999999622
195,31.282227000000603,71.41015599999992,84.48730499999965,-186.66674799999964,88.20507799999996,111.9228520000006,110.38476599999922,120.0,121.53857400000015,132.56396500000028,127.56396500000028,109.35888699999941,133.58984400000008,-12.820557000000008
196,27.17968800000017,63.846190999999635,80.51269500000035,-184.7436520000001,87.05126999999993,112.43603499999972,107.17968800000017,118.84619099999964,119.87158199999976,120.76904300000024,121.6665039999998,104.23095699999976,123.3334960000002,-18.076904000000013
197,18.974121000000196,57.69238299999961,75.64111300000059,-183.46142599999985,80.0,113.7177729999994,103.3334960000002,114.23095699999976,117.30761700000039,107.56396500000028,118.0771479999994,100.51269500000035,111.41015599999992,-24.358886999999868
198,11.025878999999804,57.17968800000017,71.79492200000004,-182.9487299999996,70.89746099999957,113.84619099999964,99.61523400000078,107.43603499999972,115.12841800000024,97.82031300000017,116.2822270000006,99.35888699999941,104.10253900000043,-27.69238299999961
199,8.077147999999397,61.666503999999804,71.9228520000006,-180.89746100000002,64.87158199999976,111.6665039999998,98.0771479999994,102.43603499999972,114.35888699999941,94.10253900000043,115.76904300000024,101.41015599999992,105.51269500000035,-25.769286999999622
200,10.897460999999566,66.41015599999992,76.15380900000036,-176.15380900000036,64.10253900000043,107.17968800000017,99.61523400000078,101.79492200000004,113.84619099999964,96.53857400000015,116.15380900000036,105.51269500000035,113.9741210000002,-20.1281740000004
201,15.0,65.89746099999957,80.64111300000059,-171.15380900000036,67.05126999999993,102.82031300000017,102.30761700000039,103.7177729999994,110.51269500000035,101.79492200000004,116.79492200000004,108.7177729999994,122.43603499999972,-16.025634999999966
202,14.871581999999762,59.35888699999941,80.25634799999989,-169.8718259999996,70.64111300000059,101.2822270000006,102.82031300000017,104.10253900000043,103.0771479999994,106.41015599999992,116.53857400000015,108.46142599999985,123.84619099999964,-17.179442999999992
203,8.717772999999397,52.30761700000039,73.7177729999994,-173.20507799999996,73.58984400000008,102.69238299999961,99.35888699999941,100.64111300000059,94.87158199999976,108.0771479999994,115.25634799999989,104.48730499999965,117.43603499999972,-22.69238299999961
204,1.4101559999999154,51.9228520000006,65.38476599999922,-176.923096,76.6665039999998,105.25634799999989,94.23095699999976,95.89746099999957,92.94873000000007,107.94873000000007,113.9741210000002,99.48730499999965,109.61523400000078,-27.179442999999992
205,0.512695000000349,62.05126999999993,63.20507799999996,-174.61547900000005,81.41015599999992,106.0258789999998,93.3334960000002,96.15380900000036,102.56396500000028,110.38476599999922,115.38476599999922,97.56396500000028,109.87158199999976,-25.0
206,9.487304999999651,79.10253900000043,71.0258789999998,-163.46142599999985,87.17968800000017,105.0,101.15380900000036,105.38476599999922,121.41015599999992,118.84619099999964,121.6665039999998,101.2822270000006,122.56396500000028,-15.512939000000188
207,23.846190999999635,94.35888699999941,84.35888699999941,-148.46142599999985,90.64111300000059,103.7177729999994,115.76904300000024,120.89746099999957,139.48730499999965,131.41015599999992,131.53857400000015,109.10253900000043,141.9228520000006,-3.846190999999635
208,32.94873000000007,98.46142599999985,91.9228520000006,-139.7436520000001,88.58984400000008,103.9741210000002,128.3334960000002,133.0771479999994,145.12841800000024,139.23095699999976,138.84619099999964,115.25634799999989,154.10253900000043,1.6665039999998044
209,27.43603499999972,87.94873000000007,84.35888699999941,-145.64111300000013,80.89746099999957,105.0,128.20507799999996,131.53857400000015,132.43603499999972,132.82031300000017,135.6411130000006,114.35888699999941,147.43603499999972,-3.846190999999635
210,6.794922000000042,68.20507799999996,62.82031300000017,-164.7436520000001,72.43603499999972,105.25634799999989,112.82031300000017,114.61523400000078,106.9228520000006,110.25634799999989,119.23095699999976,105.89746099999957,122.43603499999972,-18.58984399999963
211,-18.461425999999847,50.76904300000024,39.102539000000434,-185.1281740000004,70.12841800000024,103.9741210000002,90.38476599999922,91.53857400000015,82.30761700000039,81.15380900000036,96.15380900000036,94.61523400000078,92.69238299999961,-34.48706099999981
212,-33.71801800000003,46.153809000000365,28.077147999999397,-192.9487299999996,76.6665039999998,102.82031300000017,75.12841800000024,76.53857400000015,72.82031300000017,61.410155999999915,79.48730499999965,87.69238299999961,75.38476599999922,-41.28198199999997
213,-30.1281740000004,56.025878999999804,36.53857400000015,-181.923096,88.0771479999994,103.84619099999964,77.05126999999993,78.3334960000002,82.82031300000017,63.46142599999985,79.10253900000043,89.48730499999965,79.35888699999941,-34.48706099999981
214,-11.28198199999997,73.20507799999996,58.0771479999994,-158.84619099999964,97.17968800000017,107.94873000000007,95.12841800000024,94.35888699999941,104.87158199999976,86.9228520000006,95.12841800000024,98.58984400000008,100.12841800000024,-17.820557000000008
215,9.871581999999762,87.69238299999961,78.58984400000008,-137.820557,99.48730499999965,113.3334960000002,117.56396500000028,112.94873000000007,124.48730499999965,118.7177729999994,116.9228520000006,109.10253900000043,123.9741210000002,-1.4101559999999154
216,19.102539000000434,92.56396500000028,84.87158199999976,-131.41015600000037,95.38476599999922,116.15380900000036,129.61523400000078,121.53857400000015,130.2563479999999,140.51269500000035,130.6411130000006,114.10253900000043,136.41015599999992,5.0
217,10.512695000000349,87.94873000000007,73.46142599999985,-141.02563499999997,87.69238299999961,113.20507799999996,123.7177729999994,115.12841800000024,120.25634799999989,140.6411130000006,128.46142599999985,110.76904300000024,131.53857400000015,-1.6665039999998044
218,-8.974365000000034,79.35888699999941,53.0771479999994,-156.53857400000015,79.23095699999976,105.25634799999989,105.12841800000024,99.74365200000011,102.82031300000017,122.30761700000039,113.7177729999994,101.9228520000006,116.15380900000036,-15.38452099999995
219,-25.25634799999989,72.94873000000007,39.102539000000434,-163.33325200000036,72.94873000000007,97.43603499999972,88.58984400000008,87.69238299999961,90.64111300000059,100.0,98.84619099999964,94.74365200000011,103.46142599999985,-25.38452099999995
220,-26.923095999999987,72.94873000000007,41.9228520000006,-153.33325200000036,71.53857400000015,96.0258789999998,86.6665039999998,88.0771479999994,91.9228520000006,88.84619099999964,95.51269500000035,94.48730499999965,102.94873000000007,-24.230713000000378
221,-14.230713000000378,78.7177729999994,59.23095699999976,-131.53857400000015,76.9228520000006,102.43603499999972,100.51269500000035,99.87158199999976,105.12841800000024,93.9741210000002,106.0258789999998,101.0258789999998,113.7177729999994,-12.564209000000574
222,3.077147999999397,86.9228520000006,78.58984400000008,-111.15380900000036,88.7177729999994,111.9228520000006,119.87158199999976,114.74365200000011,120.64111300000059,108.9741210000002,123.0771479999994,109.61523400000078,127.05126999999993,1.7949220000000423
223,13.589844000000085,93.84619099999964,88.20507799999996,-102.43579099999943,104.74365200000011,118.7177729999994,132.05126999999993,123.58984400000008,128.58984400000008,121.53857400000015,136.6665039999998,115.0,134.10253900000043,10.0
224,11.922852000000603,96.53857400000015,84.23095699999976,-106.28198199999997,118.84619099999964,119.61523400000078,131.0258789999998,123.20507799999996,125.38476599999922,123.0771479999994,139.7436520000001,115.0,132.17968800000017,8.717772999999397
225,-0.12841800000023795,92.43603499999972,70.89746099999957,-116.66674799999964,121.9228520000006,115.76904300000024,119.61523400000078,115.12841800000024,113.46142599999985,111.79492200000004,131.53857400000015,110.38476599999922,123.0771479999994,0.12841800000023795
226,-16.666747999999643,80.51269500000035,55.0,-126.53857400000015,107.94873000000007,110.38476599999922,104.61523400000078,102.69238299999961,98.0771479999994,94.23095699999976,116.53857400000015,103.84619099999964,111.15380900000036,-10.38452099999995
227,-30.0,65.38476599999922,43.7177729999994,-131.53857400000015,81.53857400000015,106.79492200000004,93.0771479999994,90.0,85.64111300000059,80.64111300000059,102.05126999999993,98.20507799999996,100.51269500000035,-17.30761700000039
228,-33.846190999999635,55.897460999999566,41.9228520000006,-129.8718259999996,58.0771479999994,106.79492200000004,89.61523400000078,82.17968800000017,81.41015599999992,79.23095699999976,94.74365200000011,95.38476599999922,96.2822270000006,-17.435790999999426
229,-27.435790999999426,58.7177729999994,49.35888699999941,-122.94872999999961,53.20507799999996,109.61523400000078,93.84619099999964,82.69238299999961,87.43603499999972,89.35888699999941,96.6665039999998,96.0258789999998,100.89746099999957,-11.41015600000037
230,-15.769286999999622,71.79492200000004,60.25634799999989,-114.35888699999987,69.74365200000011,112.69238299999961,101.6665039999998,90.51269500000035,100.51269500000035,101.41015599999992,104.61523400000078,98.7177729999994,111.6665039999998,-3.717772999999397
231,-6.538574000000153,84.61523400000078,67.05126999999993,-108.46142599999985,95.25634799999989,114.10253900000043,107.69238299999961,100.51269500000035,113.20507799999996,104.35888699999941,112.56396500000028,101.2822270000006,121.15380900000036,0.0
232,-4.487060999999812,87.30761700000039,66.15380900000036,-106.92309599999999,111.2822270000006,112.82031300000017,109.74365200000011,107.17968800000017,118.7177729999994,96.2822270000006,116.53857400000015,102.30761700000039,122.56396500000028,-2.4360349999997197
233,-8.205077999999958,77.94873000000007,61.025878999999804,-108.46142599999985,107.69238299999961,110.0,109.35888699999941,109.74365200000011,115.12841800000024,86.53857400000015,116.79492200000004,102.43603499999972,115.25634799999989,-8.58984399999963
234,-12.948729999999614,64.10253900000043,57.56396500000028,-109.61547900000005,88.7177729999994,106.9228520000006,110.12841800000024,111.0258789999998,106.79492200000004,87.69238299999961,115.76904300000024,102.94873000000007,105.12841800000024,-13.58984399999963
235,-14.8718259999996,56.2822270000006,58.7177729999994,-107.69238299999961,69.48730499999965,104.74365200000011,113.20507799999996,113.84619099999964,100.76904300000024,102.82031300000017,114.87158199999976,104.23095699999976,98.7177729999994,-14.230713000000378
236,-15.0,57.69238299999961,61.53857400000015,-103.58984399999963,62.30761700000039,103.84619099999964,115.76904300000024,117.43603499999972,100.25634799999989,120.76904300000024,112.43603499999972,105.12841800000024,97.43603499999972,-11.41015600000037
237,-17.948729999999614,62.43603499999972,60.38476599999922,-101.15380900000036,68.58984400000008,103.7177729999994,113.58984400000008,118.3334960000002,102.69238299999961,125.76904300000024,105.51269500000035,103.9741210000002,97.30761700000039,-9.487060999999812
238,-26.41015600000037,61.025878999999804,53.20507799999996,-103.46142599999985,80.12841800000024,103.9741210000002,106.15380900000036,113.9741210000002,102.69238299999961,110.89746099999957,94.35888699999941,100.64111300000059,94.10253900000043,-11.666747999999643
239,-36.92309599999999,51.53857400000015,43.589844000000085,-108.97436500000003,88.0771479999994,103.7177729999994,98.0771479999994,106.15380900000036,98.9741210000002,86.41015599999992,84.23095699999976,97.05126999999993,87.69238299999961,-16.666747999999643
240,-42.435790999999426,41.666503999999804,38.333496000000196,-113.20507799999996,89.61523400000078,102.56396500000028,95.25634799999989,99.35888699999941,95.51269500000035,70.38476599999922,81.53857400000015,95.76904300000024,82.17968800000017,-20.1281740000004
241,-39.48706099999981,41.025878999999804,41.025878999999804,-113.07690400000001,87.56396500000028,100.76904300000024,99.61523400000078,97.30761700000039,97.94873000000007,74.48730499999965,88.46142599999985,97.56396500000028,82.43603499999972,-18.71801800000003
242,-30.89746100000002,51.153809000000365,49.102539000000434,-109.61547900000005,85.25634799999989,100.12841800000024,107.17968800000017,99.74365200000011,107.30761700000039,93.46142599999985,99.48730499999965,101.15380900000036,88.46142599999985,-12.820557000000008
243,-24.230713000000378,63.974121000000196,56.410155999999915,-105.38452099999995,84.23095699999976,102.30761700000039,112.05126999999993,103.20507799999996,117.56396500000028,110.64111300000059,106.41015599999992,104.23095699999976,94.87158199999976,-6.923095999999987
244,-25.1281740000004,69.74365200000011,58.46142599999985,-102.69238299999961,83.46142599999985,106.9228520000006,110.64111300000059,103.9741210000002,121.0258789999998,112.17968800000017,104.10253900000043,104.74365200000011,95.12841800000024,-4.743652000000111
245,-33.20507799999996,65.12841800000024,55.64111300000059,-101.53857400000015,82.56396500000028,111.6665039999998,104.87158199999976,101.9228520000006,114.10253900000043,98.0771479999994,94.74365200000011,102.69238299999961,88.0771479999994,-6.794922000000042
246,-41.41015600000037,57.17968800000017,53.333496000000196,-100.38452099999995,83.84619099999964,114.61523400000078,100.51269500000035,100.38476599999922,101.79492200000004,81.41015599999992,86.6665039999998,100.25634799999989,79.61523400000078,-9.61547900000005
247,-40.51293900000019,56.153809000000365,57.94873000000007,-96.02563499999997,90.51269500000035,116.0258789999998,103.84619099999964,104.61523400000078,94.35888699999941,77.94873000000007,88.84619099999964,100.89746099999957,79.10253900000043,-8.58984399999963
248,-26.794922000000042,66.53857400000015,71.2822270000006,-86.66674799999964,102.30761700000039,116.9228520000006,116.0258789999998,115.89746099999957,100.51269500000035,92.30761700000039,103.46142599999985,106.2822270000006,91.15380900000036,-1.5385740000001533
249,-6.538574000000153,82.56396500000028,87.43603499999972,-73.20507799999996,112.69238299999961,117.05126999999993,130.76904300000024,129.87158199999976,118.46142599999985,114.61523400000078,123.9741210000002,114.35888699999941,110.25634799999989,8.461425999999847
250,8.461425999999847,93.58984400000008,97.05126999999993,-60.38452099999995,113.84619099999964,114.87158199999976,139.10253900000043,139.3588869999994,137.43603499999972,129.48730499999965,139.10253900000043,120.64111300000059,125.25634799999989,15.384765999999217
251,9.743652000000111,93.46142599999985,95.38476599999922,-52.948729999999614,104.10253900000043,110.12841800000024,136.2822270000006,140.0,145.51269500000035,128.7177729999994,141.2822270000006,121.41015599999992,128.20507799999996,15.641113000000587
252,-1.5385740000001533,84.87158199999976,85.12841800000024,-53.20507799999996,90.12841800000024,104.87158199999976,125.12841800000024,133.0771479999994,138.84619099999964,116.6665039999998,131.79492200000004,116.41015599999992,119.61523400000078,9.487304999999651
253,-18.076904000000013,74.35888699999941,72.17968800000017,-60.76928699999962,80.51269500000035,100.76904300000024,111.6665039999998,122.17968800000017,122.56396500000028,103.20507799999996,117.05126999999993,108.9741210000002,106.15380900000036,0.8974609999995664
254,-31.666747999999643,66.9228520000006,60.12841800000024,-73.33325200000036,79.23095699999976,98.58984400000008,100.12841800000024,109.74365200000011,105.64111300000059,95.0,103.84619099999964,102.17968800000017,93.7177729999994,-7.051270000000386
255,-38.20507799999996,63.846190999999635,50.51269500000035,-86.02563499999997,85.25634799999989,98.3334960000002,92.05126999999993,98.0771479999994,94.74365200000011,92.43603499999972,95.25634799999989,97.56396500000028,85.0,-12.179442999999992
256,-36.41015600000037,64.87158199999976,45.897460999999566,-91.92309599999999,94.61523400000078,100.12841800000024,89.48730499999965,91.2822270000006,91.41015599999992,93.3334960000002,92.30761700000039,95.89746099999957,80.89746099999957,-12.564209000000574
257,-27.820557000000008,69.10253900000043,49.48730499999965,-86.28198199999997,103.84619099999964,104.10253900000043,94.87158199999976,93.7177729999994,93.84619099999964,96.9228520000006,94.23095699999976,97.56396500000028,82.43603499999972,-7.051270000000386
258,-15.769286999999622,75.38476599999922,61.410155999999915,-70.51293900000019,108.9741210000002,109.10253900000043,108.7177729999994,105.89746099999957,99.35888699999941,103.20507799999996,99.35888699999941,102.69238299999961,89.48730499999965,2.5639650000002803
259,-5.38452099999995,82.05126999999993,76.2822270000006,-52.17944299999999,107.56396500000028,113.58984400000008,125.25634799999989,121.9228520000006,105.89746099999957,110.89746099999957,105.89746099999957,109.35888699999941,99.74365200000011,11.922852000000603
260,-0.769043000000238,87.17968800000017,86.2822270000006,-39.74365200000011,101.15380900000036,116.2822270000006,135.76904300000024,132.6923829999996,111.0258789999998,115.89746099999957,111.79492200000004,114.61523400000078,108.84619099999964,16.410155999999915
261,-2.9487300000000687,89.35888699999941,86.2822270000006,-36.92309599999999,94.61523400000078,117.17968800000017,133.84619099999964,132.17968800000017,112.94873000000007,113.46142599999985,115.38476599999922,116.0258789999998,112.94873000000007,14.487304999999651
262,-8.461425999999847,88.7177729999994,77.69238299999961,-40.64111300000013,93.7177729999994,116.6665039999998,121.15380900000036,121.9228520000006,111.53857400000015,103.7177729999994,115.76904300000024,112.94873000000007,111.79492200000004,9.358886999999413
263,-11.666747999999643,87.56396500000028,67.94873000000007,-43.46142599999985,100.51269500000035,115.38476599999922,106.9228520000006,110.76904300000024,109.48730499999965,93.58984400000008,113.9741210000002,107.94873000000007,108.7177729999994,6.538574000000153
264,-8.846190999999635,88.7177729999994,65.64111300000059,-39.48706099999981,112.30761700000039,114.35888699999941,101.41015599999992,108.7177729999994,111.15380900000036,92.69238299999961,112.82031300000017,105.38476599999922,108.20507799999996,9.615234000000783
265,-1.2822270000006029,92.69238299999961,73.58984400000008,-28.846190999999635,122.94873000000007,114.10253900000043,108.58984400000008,118.9741210000002,118.7177729999994,104.10253900000043,114.48730499999965,108.0771479999994,112.82031300000017,17.43603499999972
266,5.769043000000238,96.9228520000006,86.53857400000015,-17.435790999999426,125.76904300000024,114.10253900000043,123.20507799999996,135.2563479999999,129.23095699999976,120.0,118.7177729999994,114.35888699999941,120.12841800000024,24.74365200000011
267,6.538574000000153,97.94873000000007,94.61523400000078,-13.205077999999958,118.0771479999994,112.56396500000028,133.84619099999964,145.51269500000035,135.76904300000024,127.82031300000017,122.05126999999993,119.23095699999976,124.10253900000043,26.282227000000603
268,-1.6665039999998044,93.3334960000002,91.0258789999998,-19.487060999999812,103.9741210000002,107.94873000000007,131.79492200000004,141.9228520000006,132.56396500000028,120.89746099999957,120.0,118.3334960000002,120.0,20.641113000000587
269,-15.512939000000188,84.48730499999965,77.94873000000007,-33.46142599999985,92.82031300000017,101.79492200000004,118.3334960000002,126.9228520000006,120.12841800000024,105.12841800000024,110.89746099999957,111.41015599999992,108.58984400000008,10.769043000000238
270,-27.564209000000574,75.76904300000024,65.51269500000035,-46.92309599999999,92.69238299999961,98.3334960000002,104.35888699999941,111.9228520000006,106.41015599999992,93.9741210000002,99.10253900000043,103.84619099999964,95.25634799999989,2.5639650000002803
271,-30.769286999999622,71.0258789999998,63.20507799999996,-52.051270000000386,103.0771479999994,100.64111300000059,100.51269500000035,107.69238299999961,100.25634799999989,97.05126999999993,92.94873000000007,101.6665039999998,86.9228520000006,0.12841800000023795
272,-26.025634999999966,70.64111300000059,71.41015599999992,-47.69238299999961,113.46142599999985,107.17968800000017,107.56396500000028,114.87158199999976,104.35888699999941,112.17968800000017,96.2822270000006,106.53857400000015,85.76904300000024,3.077147999999397
273,-19.8718259999996,71.2822270000006,81.79492200000004,-38.846190999999635,112.94873000000007,113.20507799999996,116.6665039999998,124.48730499999965,112.82031300000017,127.05126999999993,105.64111300000059,113.84619099999964,89.48730499999965,7.820313000000169
274,-17.948729999999614,71.53857400000015,85.64111300000059,-31.28198199999997,101.41015599999992,114.48730499999965,118.9741210000002,126.2822270000006,117.94873000000007,130.38476599999922,113.46142599999985,117.82031300000017,94.61523400000078,11.666503999999804
275,-17.30761700000039,74.10253900000043,83.20507799999996,-26.025634999999966,90.51269500000035,110.64111300000059,114.23095699999976,119.74365200000011,117.94873000000007,121.53857400000015,116.53857400000015,116.79492200000004,101.6665039999998,15.769043000000238
276,-10.256347999999889,83.3334960000002,82.17968800000017,-19.74365200000011,92.82031300000017,104.87158199999976,110.0,113.0771479999994,116.79492200000004,109.74365200000011,118.0771479999994,114.35888699999941,113.7177729999994,24.230956999999762
277,7.692382999999609,99.61523400000078,89.23095699999976,-10.0,109.35888699999941,101.15380900000036,112.43603499999972,114.74365200000011,119.87158199999976,105.51269500000035,122.69238299999961,115.0,130.76904300000024,37.82031300000017
278,30.128418000000238,116.6665039999998,102.05126999999993,0.12841800000023795,127.05126999999993,101.2822270000006,119.61523400000078,124.48730499999965,126.9228520000006,111.53857400000015,130.38476599999922,120.25634799999989,146.9228520000006,51.666503999999804
279,45.25634799999989,125.25634799999989,111.2822270000006,4.6152340000007825,130.76904300000024,103.9741210000002,124.23095699999976,133.7177729999994,131.9228520000006,121.41015599999992,136.15380900000036,126.0258789999998,154.10253900000043,59.23095699999976
280,44.74365200000011,121.0258789999998,109.35888699999941,0.0,116.6665039999998,105.89746099999957,120.38476599999922,133.9741210000002,128.20507799999996,125.89746099999957,135.38476599999922,127.30761700000039,149.48730499999965,57.17968800000017
281,32.17968800000017,108.20507799999996,98.20507799999996,-10.1281740000004,94.87158199999976,104.74365200000011,109.74365200000011,124.48730499999965,115.64111300000059,120.89746099999957,128.20507799999996,122.30761700000039,138.7177729999994,49.23095699999976
282,20.128418000000238,97.30761700000039,87.69238299999961,-18.333252000000357,81.6665039999998,101.41015599999992,99.74365200000011,112.43603499999972,102.43603499999972,110.51269500000035,120.38476599999922,114.74365200000011,131.6665039999998,43.20507799999996
283,20.641113000000587,97.82031300000017,88.0771479999994,-17.564209000000574,86.41015599999992,99.35888699999941,98.20507799999996,107.56396500000028,99.48730499999965,104.23095699999976,120.12841800000024,110.64111300000059,135.38476599999922,45.51269500000035
284,35.76904300000024,111.2822270000006,101.2822270000006,-6.538574000000153,106.0258789999998,100.64111300000059,106.9228520000006,114.35888699999941,110.51269500000035,108.84619099999964,130.76904300000024,113.9741210000002,148.46142599999985,56.2822270000006
285,55.38476599999922,129.3588869999994,118.58984400000008,8.205077999999958,126.2822270000006,104.48730499999965,120.25634799999989,128.46142599999985,127.30761700000039,120.76904300000024,146.53857400000015,122.30761700000039,161.9228520000006,67.94873000000007
286,64.87158199999976,139.87158199999976,126.2822270000006,16.922852000000603,132.6923829999996,107.43603499999972,129.10253900000043,139.7436520000001,135.2563479999999,129.10253900000043,155.76904300000024,129.3588869999994,164.87158199999976,71.6665039999998
287,56.9228520000006,135.12841800000024,118.0771479999994,13.846190999999635,120.51269500000035,106.79492200000004,127.94873000000007,140.6411130000006,126.79492200000004,125.64111300000059,150.89746099999957,129.7436520000001,153.84619099999964,64.23095699999976
288,37.82031300000017,119.10253900000043,99.61523400000078,3.2050779999999577,99.74365200000011,103.7177729999994,119.10253900000043,131.9228520000006,107.82031300000017,112.56396500000028,135.6411130000006,123.58984400000008,136.41015599999992,50.64111300000059
289,21.410155999999915,103.9741210000002,84.48730499999965,-5.128174000000399,87.17968800000017,101.6665039999998,110.25634799999989,121.2822270000006,93.84619099999964,100.51269500000035,121.41015599999992,115.76904300000024,124.23095699999976,40.0
290,18.717772999999397,101.2822270000006,82.56396500000028,-3.4614259999998467,92.82031300000017,103.9741210000002,108.20507799999996,116.41015599999992,96.9228520000006,98.84619099999964,118.46142599999985,111.79492200000004,124.74365200000011,38.589844000000085
291,29.48730499999965,112.30761700000039,93.7177729999994,8.077147999999397,112.82031300000017,110.64111300000059,113.3334960000002,119.87158199999976,116.41015599999992,110.12841800000024,127.82031300000017,113.7177729999994,135.2563479999999,46.410155999999915
292,44.35888699999941,128.84619099999964,109.74365200000011,22.43603499999972,133.46142599999985,118.58984400000008,122.05126999999993,128.0771479999994,140.6411130000006,129.10253900000043,141.6665039999998,119.23095699999976,147.17968800000017,57.05126999999993
293,52.30761700000039,139.10253900000043,121.2822270000006,31.025878999999804,142.3076170000004,123.46142599999985,129.3588869999994,135.51269500000035,154.7436520000001,146.0258789999998,149.3588869999994,123.9741210000002,152.17968800000017,63.20507799999996
294,48.46142599999985,137.3076170000004,123.7177729999994,30.128418000000238,136.9228520000006,122.94873000000007,132.3076170000004,137.17968800000017,151.0258789999998,152.17968800000017,145.89746099999957,124.61523400000078,147.3076170000004,60.76904300000024
295,36.53857400000015,126.41015599999992,118.0771479999994,22.94873000000007,124.74365200000011,118.20507799999996,129.10253900000043,132.05126999999993,133.0771479999994,145.51269500000035,134.87158199999976,120.89746099999957,136.15380900000036,52.05126999999993
296,24.871581999999762,115.64111300000059,108.7177729999994,17.30761700000039,116.15380900000036,112.30761700000039,121.53857400000015,123.3334960000002,113.58984400000008,132.05126999999993,124.74365200000011,115.64111300000059,126.0258789999998,42.94873000000007
297,20.769043000000238,112.69238299999961,101.53857400000015,20.128418000000238,116.6665039999998,108.9741210000002,114.23095699999976,116.6665039999998,104.87158199999976,120.25634799999989,122.05126999999993,112.43603499999972,122.43603499999972,39.48730499999965
298,25.384765999999217,118.0771479999994,100.12841800000024,31.153809000000365,122.69238299999961,109.61523400000078,112.05126999999993,116.15380900000036,110.12841800000024,114.48730499999965,126.2822270000006,112.82031300000017,125.64111300000059,42.69238299999961
299,32.43603499999972,124.35888699999941,102.94873000000007,42.30761700000039,125.0,112.43603499999972,115.51269500000035,120.25634799999989,120.25634799999989,111.9228520000006,130.76904300000024,115.51269500000035,129.87158199999976,48.20507799999996
300,33.974121000000196,122.69238299999961,105.38476599999922,43.974121000000196,117.30761700000039,114.48730499999965,119.61523400000078,123.58984400000008,122.69238299999961,108.0771479999994,129.23095699999976,116.9228520000006,128.9741210000002,50.0
301,27.43603499999972,112.43603499999972,104.35888699999941,34.35888699999941,104.23095699999976,115.12841800000024,120.0,121.9228520000006,113.46142599999985,103.20507799999996,122.05126999999993,115.38476599999922,122.30761700000039,45.64111300000059
302,18.589844000000085,101.41015599999992,100.89746099999957,21.794922000000042,98.46142599999985,115.0,116.79492200000004,117.30761700000039,101.15380900000036,102.56396500000028,116.2822270000006,112.43603499999972,115.76904300000024,38.7177729999994
303,15.128418000000238,99.48730499999965,97.94873000000007,17.30761700000039,109.23095699999976,115.51269500000035,114.61523400000078,115.51269500000035,97.82031300000017,109.74365200000011,118.3334960000002,111.41015599999992,115.25634799999989,35.64111300000059
304,19.48730499999965,108.20507799999996,97.56396500000028,23.846190999999635,131.6665039999998,116.2822270000006,117.05126999999993,119.61523400000078,107.05126999999993,120.51269500000035,126.9228520000006,113.0771479999994,120.64111300000059,39.102539000000434
305,27.05126999999993,119.61523400000078,98.3334960000002,34.48730499999965,148.46142599999985,116.0258789999998,122.82031300000017,126.41015599999992,121.53857400000015,125.25634799999989,134.10253900000043,116.2822270000006,125.89746099999957,45.64111300000059
306,30.897460999999566,123.9741210000002,98.3334960000002,38.7177729999994,145.2563479999999,113.84619099999964,127.43603499999972,130.0,131.15380900000036,119.23095699999976,132.94873000000007,118.0771479999994,125.64111300000059,49.35888699999941
307,28.461425999999847,118.3334960000002,97.30761700000039,32.82031300000017,123.46142599999985,110.51269500000035,128.0771479999994,128.0771479999994,131.41015599999992,108.3334960000002,124.35888699999941,117.43603499999972,120.51269500000035,47.94873000000007
308,21.922852000000603,108.20507799999996,96.41015599999992,22.05126999999993,99.61523400000078,108.3334960000002,124.74365200000011,123.20507799999996,125.0,103.46142599999985,114.87158199999976,115.0,115.89746099999957,42.69238299999961
309,15.256347999999889,101.41015599999992,95.89746099999957,14.230956999999762,90.51269500000035,108.20507799999996,119.74365200000011,119.48730499999965,117.43603499999972,109.48730499999965,109.61523400000078,112.43603499999972,116.41015599999992,37.43603499999972
310,10.897460999999566,100.76904300000024,94.35888699999941,12.307617000000391,97.94873000000007,108.7177729999994,114.87158199999976,118.46142599999985,112.43603499999972,120.51269500000035,109.10253900000043,111.53857400000015,120.64111300000059,34.48730499999965
311,8.974121000000196,102.94873000000007,91.15380900000036,14.487304999999651,110.0,107.94873000000007,111.9228520000006,118.7177729999994,110.76904300000024,127.17968800000017,111.15380900000036,112.43603499999972,123.58984400000008,34.35888699999941
312,9.871581999999762,104.35888699999941,88.58984400000008,17.82031300000017,114.35888699999941,105.64111300000059,112.05126999999993,118.9741210000002,112.56396500000028,125.25634799999989,114.35888699999941,114.35888699999941,122.82031300000017,36.79492200000004
313,15.0,105.25634799999989,91.15380900000036,22.05126999999993,110.64111300000059,102.94873000000007,116.79492200000004,120.89746099999957,118.3334960000002,119.61523400000078,120.0,116.15380900000036,121.2822270000006,41.2822270000006
314,24.48730499999965,108.58984400000008,101.2822270000006,28.589844000000085,108.84619099999964,102.05126999999993,125.38476599999922,127.17968800000017,127.05126999999993,117.82031300000017,128.58984400000008,117.43603499999972,123.58984400000008,47.56396500000028
315,35.51269500000035,115.64111300000059,115.12841800000024,36.53857400000015,117.30761700000039,103.9741210000002,134.48730499999965,137.3076170000004,135.2563479999999,122.69238299999961,138.20507799999996,118.3334960000002,131.15380900000036,53.589844000000085
316,41.410155999999915,122.94873000000007,124.87158199999976,41.153809000000365,132.6923829999996,107.05126999999993,139.10253900000043,145.89746099999957,138.3334960000002,129.87158199999976,143.58984400000008,118.84619099999964,138.9741210000002,56.410155999999915
317,37.30761700000039,124.87158199999976,123.84619099999964,36.79492200000004,143.84619099999964,108.58984400000008,135.6411130000006,146.15380900000036,132.6923829999996,132.43603499999972,139.87158199999976,118.58984400000008,139.48730499999965,53.333496000000196
318,24.230956999999762,119.35888699999941,112.69238299999961,23.589844000000085,141.79492200000004,107.17968800000017,125.51269500000035,136.41015599999992,120.38476599999922,127.17968800000017,127.69238299999961,117.30761700000039,128.84619099999964,45.51269500000035
319,10.512695000000349,110.64111300000059,99.23095699999976,9.102539000000434,128.7177729999994,103.7177729999994,115.25634799999989,123.0771479999994,109.10253900000043,117.82031300000017,113.9741210000002,115.0,112.56396500000028,37.94873000000007
320,5.769043000000238,106.79492200000004,92.94873000000007,3.5898440000000846,115.12841800000024,100.64111300000059,112.56396500000028,116.9228520000006,108.20507799999996,112.43603499999972,108.3334960000002,113.46142599999985,102.30761700000039,36.53857400000015
321,13.333496000000196,112.17968800000017,98.3334960000002,11.538574000000153,109.61523400000078,100.64111300000059,120.64111300000059,125.0,120.89746099999957,115.89746099999957,114.74365200000011,114.48730499999965,105.64111300000059,43.0771479999994
322,26.282227000000603,122.05126999999993,110.12841800000024,26.025878999999804,111.6665039999998,103.7177729999994,133.9741210000002,142.05126999999993,139.23095699999976,124.23095699999976,127.30761700000039,117.56396500000028,119.10253900000043,52.82031300000017
323,33.333496000000196,126.0258789999998,118.0771479999994,34.61523400000078,114.23095699999976,107.17968800000017,142.43603499999972,154.61523400000078,150.12841800000024,128.9741210000002,135.12841800000024,120.12841800000024,130.12841800000024,57.94873000000007
324,28.205077999999958,118.46142599999985,115.76904300000024,30.0,112.17968800000017,108.84619099999964,139.61523400000078,152.56396500000028,145.2563479999999,125.0,131.6665039999998,119.61523400000078,128.58984400000008,53.974121000000196
325,14.743652000000111,103.3334960000002,105.25634799999989,15.897460999999566,106.9228520000006,108.7177729999994,127.82031300000017,137.3076170000004,128.58984400000008,115.64111300000059,119.48730499999965,115.76904300000024,115.89746099999957,43.20507799999996
326,2.1796880000001693,90.64111300000059,94.48730499999965,2.6923829999996087,103.84619099999964,107.94873000000007,114.87158199999976,120.0,110.76904300000024,108.46142599999985,106.79492200000004,110.51269500000035,101.53857400000015,32.69238299999961
327,-2.6923829999996087,87.30761700000039,89.48730499999965,-1.5385740000001533,105.89746099999957,107.69238299999961,107.30761700000039,111.53857400000015,100.76904300000024,107.56396500000028,99.61523400000078,106.79492200000004,95.25634799999989,28.461425999999847
328,1.4101559999999154,94.23095699999976,92.05126999999993,4.871581999999762,111.41015599999992,109.10253900000043,107.17968800000017,115.25634799999989,101.2822270000006,112.05126999999993,100.38476599999922,106.2822270000006,100.25634799999989,32.17968800000017
329,12.17968800000017,108.46142599999985,100.76904300000024,17.94873000000007,116.6665039999998,112.17968800000017,112.56396500000028,126.41015599999992,109.87158199999976,118.84619099999964,108.46142599999985,109.23095699999976,113.0771479999994,41.153809000000365
330,25.641113000000587,124.74365200000011,112.69238299999961,31.410155999999915,119.48730499999965,115.0,120.76904300000024,137.82031300000017,122.05126999999993,126.0258789999998,121.0258789999998,114.23095699999976,127.82031300000017,51.53857400000015
331,37.43603499999972,136.9228520000006,123.46142599999985,39.74365200000011,120.51269500000035,115.12841800000024,128.9741210000002,143.84619099999964,132.05126999999993,132.3076170000004,132.56396500000028,118.7177729999994,138.0771479999994,59.35888699999941
332,42.69238299999961,138.9741210000002,128.20507799999996,39.48730499999965,120.76904300000024,111.6665039999998,133.58984400000008,142.56396500000028,133.9741210000002,134.61523400000078,136.6665039999998,120.38476599999922,139.87158199999976,61.666503999999804
333,39.48730499999965,129.7436520000001,124.61523400000078,31.410155999999915,121.0258789999998,106.2822270000006,132.17968800000017,136.0258789999998,126.41015599999992,130.38476599999922,130.89746099999957,118.9741210000002,134.3588869999994,58.589844000000085
334,31.025878999999804,115.12841800000024,115.89746099999957,20.769043000000238,121.0258789999998,102.56396500000028,125.89746099999957,129.48730499999965,114.74365200000011,121.53857400000015,120.76904300000024,116.79492200000004,127.17968800000017,53.46142599999985
335,24.230956999999762,105.38476599999922,109.10253900000043,14.871581999999762,121.41015599999992,103.7177729999994,119.74365200000011,128.20507799999996,107.82031300000017,113.46142599999985,116.0258789999998,116.6665039999998,124.35888699999941,51.025878999999804
336,23.846190999999635,106.9228520000006,108.84619099999964,17.56396500000028,122.05126999999993,109.61523400000078,117.69238299999961,133.0771479999994,110.89746099999957,110.51269500000035,121.9228520000006,118.7177729999994,127.82031300000017,53.589844000000085
337,27.94873000000007,117.17968800000017,113.46142599999985,24.615234000000783,121.41015599999992,116.79492200000004,119.74365200000011,138.3334960000002,120.25634799999989,111.2822270000006,132.94873000000007,119.87158199999976,132.43603499999972,57.94873000000007
338,29.102539000000434,125.38476599999922,115.76904300000024,27.43603499999972,116.53857400000015,120.51269500000035,120.64111300000059,135.6411130000006,126.0258789999998,109.87158199999976,136.15380900000036,117.17968800000017,130.6411130000006,57.43603499999972
339,22.17968800000017,122.17968800000017,109.87158199999976,20.384765999999217,106.53857400000015,118.46142599999985,116.79492200000004,121.79492200000004,121.0258789999998,102.43603499999972,123.7177729999994,110.89746099999957,119.35888699999941,48.974121000000196
340,10.128418000000238,108.58984400000008,98.58984400000008,7.692382999999609,96.0258789999998,112.69238299999961,109.74365200000011,104.48730499999965,108.3334960000002,93.3334960000002,101.2822270000006,104.74365200000011,104.74365200000011,37.69238299999961
341,2.1796880000001693,95.38476599999922,91.53857400000015,-0.38476599999921746,93.3334960000002,108.3334960000002,105.76904300000024,96.53857400000015,98.46142599999985,90.89746099999957,84.87158199999976,102.82031300000017,97.17968800000017,32.43603499999972
342,4.102539000000434,93.0771479999994,95.38476599999922,2.8203130000001693,102.69238299999961,108.7177729999994,109.48730499999965,104.48730499999965,99.61523400000078,99.87158199999976,85.64111300000059,105.89746099999957,101.15380900000036,37.30761700000039
343,13.461425999999847,102.82031300000017,106.9228520000006,14.358886999999413,117.82031300000017,112.69238299999961,118.7177729999994,121.6665039999998,109.74365200000011,115.51269500000035,100.38476599999922,110.38476599999922,111.53857400000015,47.69238299999961
344,21.410155999999915,115.89746099999957,116.2822270000006,24.358886999999413,126.2822270000006,116.9228520000006,126.53857400000015,134.61523400000078,118.7177729999994,127.43603499999972,115.76904300000024,111.79492200000004,118.84619099999964,54.48730499999965
345,20.897460999999566,121.0258789999998,115.25634799999989,25.51269500000035,120.76904300000024,118.58984400000008,126.53857400000015,133.3334960000002,117.17968800000017,127.94873000000007,119.23095699999976,108.46142599999985,117.30761700000039,52.82031300000017
346,12.051269999999931,113.84619099999964,104.61523400000078,18.333496000000196,105.51269500000035,117.56396500000028,118.7177729999994,118.58984400000008,105.0,117.30761700000039,108.9741210000002,102.56396500000028,108.58984400000008,45.64111300000059
347,1.153809000000365,99.74365200000011,92.56396500000028,9.871581999999762,93.3334960000002,115.51269500000035,109.10253900000043,101.53857400000015,91.79492200000004,103.20507799999996,93.58984400000008,97.69238299999961,99.61523400000078,39.74365200000011
348,-3.9741210000001956,90.38476599999922,88.58984400000008,7.43603499999972,95.0,114.35888699999941,105.0,95.25634799999989,88.9741210000002,94.61523400000078,85.64111300000059,96.6665039999998,96.41015599999992,40.12841800000024
349,-0.512695000000349,93.58984400000008,95.38476599999922,13.205077999999958,110.76904300000024,114.74365200000011,108.84619099999964,104.10253900000043,99.10253900000043,95.89746099999957,90.76904300000024,100.12841800000024,100.38476599999922,46.025878999999804
350,8.077147999999397,107.05126999999993,106.53857400000015,22.17968800000017,130.12841800000024,115.51269500000035,116.53857400000015,120.25634799999989,113.7177729999994,104.23095699999976,103.9741210000002,105.38476599999922,107.30761700000039,52.69238299999961
351,14.230956999999762,119.74365200000011,112.43603499999972,27.05126999999993,139.48730499999965,115.38476599999922,121.2822270000006,129.7436520000001,120.64111300000059,111.6665039999998,113.58984400000008,108.7177729999994,111.6665039999998,54.87158199999976
352,14.358886999999413,122.82031300000017,108.9741210000002,24.358886999999413,132.17968800000017,113.58984400000008,120.0,124.61523400000078,114.48730499999965,112.43603499999972,113.3334960000002,107.69238299999961,110.76904300000024,52.17968800000017
353,10.384765999999217,116.0258789999998,101.15380900000036,17.30761700000039,113.7177729999994,111.53857400000015,115.64111300000059,109.35888699999941,102.05126999999993,107.17968800000017,106.2822270000006,103.7177729999994,107.94873000000007,48.46142599999985
354,8.205077999999958,106.53857400000015,97.56396500000028,11.666503999999804,96.2822270000006,110.76904300000024,113.20507799999996,96.53857400000015,94.23095699999976,101.15380900000036,101.41015599999992,101.15380900000036,108.20507799999996,48.20507799999996
355,10.769043000000238,102.05126999999993,101.53857400000015,11.025878999999804,91.2822270000006,111.6665039999998,113.84619099999964,95.12841800000024,96.6665039999998,98.46142599999985,103.9741210000002,102.30761700000039,112.94873000000007,52.17968800000017
356,16.666503999999804,105.0,108.7177729999994,14.358886999999413,101.6665039999998,113.3334960000002,115.25634799999989,103.7177729999994,106.79492200000004,99.61523400000078,111.79492200000004,106.53857400000015,118.9741210000002,56.666503999999804
357,22.05126999999993,112.56396500000028,113.0771479999994,18.846190999999635,120.76904300000024,114.23095699999976,114.48730499999965,113.7177729999994,117.43603499999972,103.3334960000002,118.20507799999996,110.64111300000059,122.17968800000017,57.94873000000007
358,24.48730499999965,118.84619099999964,112.30761700000039,22.56396500000028,136.6665039999998,113.20507799999996,112.69238299999961,117.94873000000007,122.30761700000039,108.58984400000008,118.7177729999994,112.56396500000028,120.76904300000024,55.76904300000024
359,23.974121000000196,119.48730499999965,108.7177729999994,25.641113000000587,140.38476599999922,109.87158199999976,113.3334960000002,116.15380900000036,119.10253900000043,113.7177729999994,113.58984400000008,111.53857400000015,115.89746099999957,53.0771479999994
360,21.410155999999915,113.58984400000008,105.51269500000035,27.05126999999993,129.10253900000043,105.51269500000035,116.79492200000004,112.43603499999972,108.84619099999964,115.76904300000024,105.64111300000059,108.46142599999985,109.23095699999976,52.17968800000017
361,16.666503999999804,103.46142599999985,102.82031300000017,24.230956999999762,106.6665039999998,101.41015599999992,118.9741210000002,109.10253900000043,94.35888699999941,110.76904300000024,95.89746099999957,103.84619099999964,102.05126999999993,52.30761700000039
362,10.384765999999217,93.46142599999985,97.94873000000007,15.0,80.64111300000059,98.58984400000008,115.38476599999922,104.23095699999976,79.23095699999976,97.30761700000039,84.74365200000011,98.7177729999994,95.38476599999922,50.76904300000024
363,5.3847659999992175,88.20507799999996,90.76904300000024,1.5385740000001533,61.025878999999804,97.30761700000039,106.0258789999998,97.30761700000039,68.0771479999994,80.25634799999989,75.12841800000024,95.51269500000035,91.53857400000015,47.94873000000007
364,6.153809000000365,91.0258789999998,85.64111300000059,-8.974365000000034,57.94873000000007,98.58984400000008,96.9228520000006,91.53857400000015,66.0258789999998,69.87158199999976,73.20507799999996,96.2822270000006,93.84619099999964,47.94873000000007
365,15.128418000000238,101.9228520000006,87.82031300000017,-10.512939000000188,73.84619099999964,101.9228520000006,95.38476599999922,91.53857400000015,75.89746099999957,73.9741210000002,83.20507799999996,101.0258789999998,102.82031300000017,54.23095699999976
366,29.102539000000434,115.64111300000059,97.69238299999961,-3.3334960000001956,98.9741210000002,105.76904300000024,102.94873000000007,98.3334960000002,94.61523400000078,91.2822270000006,102.05126999999993,107.69238299999961,114.35888699999941,64.35888699999941
367,40.64111300000059,125.25634799999989,109.48730499999965,6.153809000000365,117.17968800000017,107.56396500000028,114.35888699999941,107.82031300000017,112.69238299999961,111.2822270000006,120.0,112.94873000000007,122.17968800000017,72.05126999999993
368,43.974121000000196,126.79492200000004,116.0258789999998,10.897460999999566,118.58984400000008,106.9228520000006,121.79492200000004,114.10253900000043,120.51269500000035,122.05126999999993,127.56396500000028,114.74365200000011,122.82031300000017,72.43603499999972
369,39.102539000000434,121.6665039999998,114.23095699999976,7.692382999999609,107.05126999999993,105.51269500000035,121.2822270000006,114.35888699999941,115.38476599999922,118.7177729999994,122.43603499999972,113.20507799999996,118.20507799999996,66.41015599999992
370,31.666503999999804,115.12841800000024,106.6665039999998,-1.5385740000001533,94.35888699999941,105.51269500000035,115.89746099999957,110.64111300000059,103.84619099999964,106.2822270000006,110.64111300000059,110.0,113.0771479999994,58.974121000000196
371,28.461425999999847,112.05126999999993,100.64111300000059,-11.923095999999987,89.87158199999976,107.43603499999972,112.43603499999972,108.46142599999985,96.2822270000006,95.89746099999957,102.56396500000028,108.20507799999996,111.53857400000015,55.38476599999922
372,33.846190999999635,115.51269500000035,102.82031300000017,-17.69238299999961,95.38476599999922,110.51269500000035,115.89746099999957,113.3334960000002,100.25634799999989,97.69238299999961,107.17968800000017,110.25634799999989,116.2822270000006,58.20507799999996
373,45.64111300000059,125.64111300000059,113.58984400000008,-16.025634999999966,106.41015599999992,113.3334960000002,125.38476599999922,125.12841800000024,114.74365200000011,113.9741210000002,124.74365200000011,116.53857400000015,126.6665039999998,66.15380900000036
374,57.43603499999972,138.0771479999994,126.15380900000036,-9.743652000000111,116.15380900000036,113.58984400000008,134.7436520000001,138.0771479999994,131.6665039999998,136.6665039999998,145.6411130000006,122.94873000000007,138.7177729999994,74.87158199999976
375,60.897460999999566,145.51269500000035,130.76904300000024,-6.281981999999971,117.94873000000007,110.12841800000024,137.05126999999993,143.46142599999985,141.15380900000036,151.9228520000006,156.15380900000036,124.10253900000043,145.89746099999957,79.10253900000043
376,52.69238299999961,142.82031300000017,123.3334960000002,-12.820557000000008,110.12841800000024,103.9741210000002,130.12841800000024,136.79492200000004,137.82031300000017,149.7436520000001,148.9741210000002,118.20507799999996,143.3334960000002,76.2822270000006
377,37.82031300000017,131.2822270000006,109.10253900000043,-29.10253899999998,96.41015599999992,98.3334960000002,117.82031300000017,122.05126999999993,123.46142599999985,131.6665039999998,128.7177729999994,108.7177729999994,131.6665039999998,68.7177729999994
378,26.153809000000365,118.46142599999985,98.7177729999994,-46.66674799999964,84.87158199999976,96.79492200000004,107.56396500000028,108.9741210000002,106.2822270000006,109.48730499999965,108.9741210000002,101.6665039999998,118.0771479999994,61.666503999999804
379,25.897460999999566,112.94873000000007,99.74365200000011,-54.10253899999998,81.41015599999992,100.38476599999922,104.74365200000011,105.76904300000024,95.64111300000059,96.6665039999998,102.30761700000039,101.41015599999992,111.15380900000036,60.51269500000035
380,37.69238299999961,118.58984400000008,111.79492200000004,-45.51293900000019,86.79492200000004,107.69238299999961,110.76904300000024,113.7177729999994,97.69238299999961,99.61523400000078,111.79492200000004,107.56396500000028,115.89746099999957,66.15380900000036
381,54.87158199999976,133.0771479999994,127.56396500000028,-25.641113000000132,96.9228520000006,115.38476599999922,122.17968800000017,128.20507799999996,111.0258789999998,114.48730499999965,130.38476599999922,116.0258789999998,130.2563479999999,75.51269500000035
382,68.58984400000008,149.23095699999976,138.46142599999985,-6.794922000000042,107.30761700000039,119.87158199999976,133.0771479999994,141.41015599999992,128.0771479999994,131.6665039999998,147.3076170000004,121.79492200000004,146.6665039999998,83.46142599999985
383,71.79492200000004,158.58984400000008,138.84619099999964,-1.0258789999998044,113.20507799999996,118.9741210000002,137.43603499999972,147.05126999999993,139.3588869999994,140.51269500000035,153.58984400000008,122.43603499999972,155.12841800000024,85.51269500000035
