,EEG.AF3,EEG.F7,EEG.F3,EEG.FC5,EEG.T7,EEG.P7,EEG.O1,EEG.O2,EEG.P8,EEG.T8,EEG.FC6,EEG.F4,EEG.F8,EEG.AF4
0,-97.17944299999999,104.23095699999976,119.23095699999976,383.46142599999985,143.9741210000002,86.0258789999998,128.84619099999964,134.10253900000043,147.3076170000004,153.0771479999994,73.0771479999994,111.41015599999992,247.17968800000017,427.94873000000007
1,-107.05127000000039,98.7177729999994,117.82031300000017,382.05126999999993,141.9228520000006,86.79492200000004,128.3334960000002,132.56396500000028,143.3334960000002,151.15380900000036,70.12841800000024,112.82031300000017,244.7436520000001,412.17968800000017
2,-110.1281740000004,90.76904300000024,116.9228520000006,376.6665039999998,136.41015599999992,86.41015599999992,125.12841800000024,131.9228520000006,136.15380900000036,151.41015599999992,68.46142599999985,112.82031300000017,233.7177729999994,403.84619099999964
3,-106.28198199999997,84.87158199999976,115.89746099999957,369.48730499999965,129.23095699999976,85.12841800000024,120.64111300000059,131.2822270000006,128.9741210000002,152.3076170000004,67.43603499999972,110.76904300000024,218.46142599999985,403.46142599999985
4,-98.33325200000036,82.82031300000017,114.87158199999976,363.9741210000002,123.84619099999964,83.9741210000002,117.17968800000017,129.23095699999976,124.74365200000011,150.89746099999957,65.89746099999957,107.82031300000017,206.41015599999992,408.9741210000002
5,-91.15380900000036,82.82031300000017,114.35888699999941,362.5639650000003,122.56396500000028,83.3334960000002,116.2822270000006,125.89746099999957,124.35888699999941,145.6411130000006,63.846190999999635,105.89746099999957,202.82031300000017,414.48730499999965
6,-89.48706099999981,82.94873000000007,114.35888699999941,364.10253900000043,124.74365200000011,83.7177729999994,117.56396500000028,123.0771479999994,126.53857400000015,138.20507799999996,62.69238299999961,106.0258789999998,206.41015599999992,414.3588869999994
7,-94.48706099999981,83.20507799999996,114.74365200000011,365.51269500000035,127.30761700000039,84.74365200000011,119.48730499999965,122.30761700000039,128.84619099999964,132.43603499999972,62.82031300000017,107.30761700000039,211.2822270000006,406.4101559999999
8,-102.30761700000039,85.38476599999922,115.12841800000024,364.23095699999976,129.23095699999976,85.89746099999957,120.0,124.10253900000043,130.2563479999999,132.3076170000004,64.61523400000078,108.46142599999985,212.17968800000017,394.10253900000043
9,-106.66674799999964,90.0,115.25634799999989,361.2822270000006,131.15380900000036,86.53857400000015,119.23095699999976,127.05126999999993,130.51269500000035,138.84619099999964,67.43603499999972,108.46142599999985,207.94873000000007,384.48730499999965
10,-103.84619099999964,94.87158199999976,115.12841800000024,359.48730499999965,133.46142599999985,86.6665039999998,118.0771479999994,128.84619099999964,130.38476599999922,148.20507799999996,70.38476599999922,107.69238299999961,201.6665039999998,382.3076170000004
11,-96.28198199999997,96.15380900000036,114.61523400000078,360.0,134.10253900000043,86.41015599999992,117.82031300000017,129.10253900000043,130.6411130000006,154.48730499999965,72.17968800000017,107.30761700000039,197.05126999999993,386.0258789999998
12,-90.76928699999962,92.56396500000028,113.46142599999985,360.51269500000035,131.15380900000036,86.2822270000006,118.7177729999994,129.10253900000043,131.79492200000004,154.23095699999976,71.9228520000006,108.0771479999994,195.51269500000035,388.9741210000002
13,-93.07690400000001,86.53857400000015,111.0258789999998,357.5639650000003,125.51269500000035,86.6665039999998,120.12841800000024,130.76904300000024,133.7177729999994,148.9741210000002,70.12841800000024,109.10253900000043,195.2563479999999,384.3588869999994
14,-102.30761700000039,82.30761700000039,107.43603499999972,349.6152340000008,120.64111300000059,87.30761700000039,121.15380900000036,133.9741210000002,135.51269500000035,144.23095699999976,68.7177729999994,108.7177729999994,193.46142599999985,371.4101559999999
15,-113.33325200000036,81.15380900000036,102.82031300000017,338.7177729999994,118.7177729999994,87.30761700000039,121.0258789999998,136.15380900000036,135.51269500000035,143.7177729999994,68.46142599999985,106.2822270000006,188.58984400000008,355.2563479999999
16,-121.02563499999997,81.15380900000036,97.30761700000039,328.84619099999964,118.58984400000008,85.89746099999957,119.61523400000078,134.23095699999976,132.17968800000017,145.76904300000024,69.23095699999976,103.0771479999994,181.15380900000036,342.5639650000003
17,-123.84619099999964,78.84619099999964,91.53857400000015,323.7177729999994,117.94873000000007,84.23095699999976,116.9228520000006,127.56396500000028,125.51269500000035,145.12841800000024,69.61523400000078,101.0258789999998,172.94873000000007,336.0258789999998
18,-123.58984399999963,73.7177729999994,86.79492200000004,323.7177729999994,116.79492200000004,84.35888699999941,114.23095699999976,118.84619099999964,117.94873000000007,138.7177729999994,68.58984400000008,101.2822270000006,165.51269500000035,333.3334960000002
19,-122.17944299999999,69.35888699999941,84.87158199999976,327.17968800000017,117.82031300000017,87.30761700000039,113.20507799999996,112.56396500000028,113.3334960000002,130.2563479999999,66.53857400000015,102.69238299999961,160.12841800000024,328.46142599999985
20,-120.76928699999962,69.87158199999976,86.79492200000004,331.0258789999998,122.43603499999972,92.30761700000039,115.12841800000024,111.6665039999998,113.3334960000002,126.41015599999992,64.74365200000011,103.46142599999985,157.3076170000004,315.76904300000024
21,-119.61547900000005,76.2822270000006,91.6665039999998,332.94873000000007,128.46142599999985,96.53857400000015,118.46142599999985,115.25634799999989,116.2822270000006,130.6411130000006,64.23095699999976,102.69238299999961,155.76904300000024,294.87158199999976
22,-117.05127000000039,84.87158199999976,96.9228520000006,331.79492200000004,131.6665039999998,97.69238299999961,121.15380900000036,119.23095699999976,118.84619099999964,138.46142599999985,65.38476599999922,101.2822270000006,154.23095699999976,271.79492200000004
23,-111.53857400000015,90.0,100.0,328.0771479999994,129.61523400000078,95.0,121.15380900000036,120.38476599999922,118.9741210000002,142.43603499999972,68.3334960000002,101.2822270000006,151.6665039999998,254.23095699999976
24,-102.30761700000039,89.10253900000043,99.74365200000011,324.23095699999976,124.23095699999976,90.0,119.35888699999941,118.84619099999964,116.79492200000004,139.48730499999965,73.20507799999996,104.10253900000043,148.84619099999964,242.82031300000017
25,-90.89746100000002,85.25634799999989,97.69238299999961,323.46142599999985,120.25634799999989,85.76904300000024,117.56396500000028,116.6665039999998,113.7177729999994,132.82031300000017,79.61523400000078,108.7177729999994,146.53857400000015,228.3334960000002
26,-79.23071300000038,83.3334960000002,97.05126999999993,326.9228520000006,121.41015599999992,84.61523400000078,116.6665039999998,115.51269500000035,111.41015599999992,128.84619099999964,86.9228520000006,112.17968800000017,144.87158199999976,196.0258789999998
27,-67.94872999999961,85.64111300000059,99.74365200000011,331.9228520000006,127.43603499999972,86.2822270000006,116.6665039999998,115.76904300000024,111.0258789999998,130.0,93.9741210000002,112.30761700000039,141.79492200000004,135.89746099999957
28,-54.48706099999981,89.48730499999965,104.23095699999976,332.05126999999993,133.7177729999994,88.7177729999994,117.05126999999993,116.9228520000006,112.69238299999961,133.46142599999985,100.0,110.0,133.84619099999964,50.51269500000035
29,-34.8718259999996,90.0,106.0258789999998,321.53857400000015,133.3334960000002,89.87158199999976,117.05126999999993,117.30761700000039,115.51269500000035,133.46142599999985,104.87158199999976,108.3334960000002,118.46142599999985,-45.0
30,-4.743652000000111,85.64111300000059,102.17968800000017,300.12841800000024,122.69238299999961,89.35888699999941,116.79492200000004,116.41015599999992,117.30761700000039,126.79492200000004,109.10253900000043,110.0,97.05126999999993,-129.35888699999987
31,38.974121000000196,79.87158199999976,94.35888699999941,274.87158199999976,107.05126999999993,88.9741210000002,116.41015599999992,114.74365200000011,117.05126999999993,116.6665039999998,113.9741210000002,115.64111300000059,75.38476599999922,-185.0
32,94.48730499999965,77.56396500000028,88.46142599999985,256.4101559999999,95.76904300000024,90.25634799999989,116.15380900000036,113.3334960000002,115.0,110.25634799999989,120.76904300000024,123.3334960000002,60.38476599999922,-207.6923829999996
33,154.7436520000001,80.0,88.58984400000008,251.2822270000006,95.38476599999922,93.7177729999994,116.0258789999998,111.6665039999998,111.9228520000006,111.79492200000004,129.10253900000043,129.3588869999994,54.102539000000434,-208.71801800000003
34,209.10253900000043,83.9741210000002,93.84619099999964,257.17968800000017,102.94873000000007,97.69238299999961,115.76904300000024,108.20507799999996,108.0771479999994,118.84619099999964,136.41015599999992,130.89746099999957,52.43603499999972,-206.02563499999997
35,250.2563479999999,86.2822270000006,99.48730499999965,265.76904300000024,111.9228520000006,100.25634799999989,115.0,103.0771479999994,104.48730499999965,123.58984400000008,139.3588869999994,128.0771479999994,48.846190999999635,-210.76928699999962
36,277.82031300000017,86.9228520000006,101.2822270000006,269.10253900000043,117.82031300000017,100.89746099999957,114.48730499999965,98.84619099999964,102.30761700000039,120.38476599999922,137.94873000000007,123.9741210000002,39.87158199999976,-221.79492200000004
37,296.0258789999998,88.20507799999996,98.46142599999985,264.7436520000001,121.0258789999998,100.38476599999922,114.48730499999965,98.7177729999994,102.94873000000007,110.64111300000059,134.87158199999976,122.30761700000039,27.17968800000017,-230.76928699999962
38,310.12841800000024,91.15380900000036,93.84619099999964,256.9228520000006,123.3334960000002,100.0,114.61523400000078,103.20507799999996,105.89746099999957,100.38476599999922,133.20507799999996,124.61523400000078,15.128418000000238,-231.923096
39,322.94873000000007,94.23095699999976,91.15380900000036,251.6665039999998,125.51269500000035,100.0,114.48730499999965,109.48730499999965,108.7177729999994,94.87158199999976,134.61523400000078,129.23095699999976,7.820313000000169,-226.41015600000037
40,335.2563479999999,95.12841800000024,92.30761700000039,252.56396500000028,126.15380900000036,100.38476599999922,113.84619099999964,113.84619099999964,109.61523400000078,93.7177729999994,138.84619099999964,133.58984400000008,5.512695000000349,-218.84619099999964
41,346.2822270000006,93.58984400000008,96.6665039999998,258.20507799999996,123.84619099999964,100.89746099999957,113.3334960000002,114.35888699999941,108.0771479999994,93.0771479999994,144.23095699999976,136.0258789999998,5.0,-211.923096
42,355.2563479999999,91.53857400000015,101.6665039999998,264.23095699999976,118.58984400000008,101.53857400000015,113.84619099999964,111.6665039999998,105.76904300000024,90.25634799999989,149.7436520000001,136.2822270000006,2.8203130000001693,-203.58984399999963
43,361.53857400000015,92.05126999999993,104.74365200000011,267.17968800000017,112.82031300000017,101.6665039999998,115.25634799999989,107.43603499999972,103.9741210000002,86.53857400000015,154.3588869999994,135.12841800000024,-1.9228520000006029,-191.41015600000037
44,364.48730499999965,96.2822270000006,104.74365200000011,266.79492200000004,108.7177729999994,101.15380900000036,116.0258789999998,103.7177729999994,102.69238299999961,84.23095699999976,156.9228520000006,133.46142599999985,-7.564209000000574,-176.41015600000037
45,363.20507799999996,101.79492200000004,102.56396500000028,265.6411130000006,106.6665039999998,100.38476599999922,114.10253900000043,100.76904300000024,101.53857400000015,84.23095699999976,156.6665039999998,132.3076170000004,-11.28198199999997,-163.58984399999963
46,357.5639650000003,104.35888699999941,100.38476599999922,265.6411130000006,104.74365200000011,100.0,108.84619099999964,98.20507799999996,99.48730499999965,84.87158199999976,153.46142599999985,131.6665039999998,-12.051270000000386,-157.820557
47,348.9741210000002,101.53857400000015,99.48730499999965,267.05126999999993,101.9228520000006,99.74365200000011,102.17968800000017,95.51269500000035,96.41015599999992,84.61523400000078,148.7177729999994,131.0258789999998,-10.512939000000188,-159.35888699999987
48,341.2822270000006,96.15380900000036,100.76904300000024,269.3588869999994,98.9741210000002,99.61523400000078,98.0771479999994,93.46142599999985,92.94873000000007,83.20507799999996,145.6411130000006,130.12841800000024,-7.435790999999426,-163.71801800000003
49,338.9741210000002,94.48730499999965,104.61523400000078,273.0771479999994,98.9741210000002,99.87158199999976,99.10253900000043,94.10253900000043,91.53857400000015,82.56396500000028,147.3076170000004,130.0,-1.9228520000006029,-164.35888699999987
50,344.10253900000043,100.89746099999957,111.15380900000036,278.7177729999994,103.9741210000002,100.76904300000024,105.0,98.7177729999994,95.0,84.61523400000078,154.3588869999994,131.53857400000015,7.307617000000391,-157.9487299999996
51,353.20507799999996,113.46142599999985,118.84619099999964,285.12841800000024,112.17968800000017,101.9228520000006,112.94873000000007,105.89746099999957,103.84619099999964,90.25634799999989,163.9741210000002,134.10253900000043,19.102539000000434,-146.66674799999964
52,359.3588869999994,124.10253900000043,124.10253900000043,289.7436520000001,118.58984400000008,102.30761700000039,118.84619099999964,111.15380900000036,113.58984400000008,97.30761700000039,171.0258789999998,135.89746099999957,28.461425999999847,-136.41015600000037
53,357.4360349999997,125.51269500000035,123.84619099999964,291.53857400000015,119.23095699999976,101.6665039999998,120.25634799999989,110.38476599999922,118.20507799999996,101.6665039999998,171.53857400000015,135.89746099999957,30.0,-132.3076170000004
54,348.46142599999985,118.58984400000008,118.58984400000008,292.82031300000017,114.87158199999976,100.64111300000059,117.56396500000028,104.10253900000043,114.61523400000078,101.6665039999998,166.15380900000036,135.12841800000024,23.974121000000196,-133.20507799999996
55,339.23095699999976,111.41015599999992,113.58984400000008,296.9228520000006,110.76904300000024,100.12841800000024,113.58984400000008,98.0771479999994,106.41015599999992,98.9741210000002,159.87158199999976,136.15380900000036,16.153809000000365,-132.9487299999996
56,335.89746099999957,112.82031300000017,113.7177729999994,305.0,111.2822270000006,100.25634799999989,111.41015599999992,98.20507799999996,100.51269500000035,97.69238299999961,157.6923829999996,141.0258789999998,14.487304999999651,-125.89746100000002
57,339.10253900000043,123.7177729999994,119.10253900000043,313.3334960000002,116.2822270000006,100.25634799999989,111.9228520000006,105.25634799999989,102.17968800000017,100.25634799999989,160.12841800000024,148.7177729999994,21.538574000000153,-112.56420900000057
58,343.20507799999996,136.41015599999992,125.25634799999989,316.0258789999998,121.2822270000006,100.0,114.10253900000043,114.48730499999965,110.76904300000024,105.51269500000035,162.43603499999972,155.89746099999957,33.333496000000196,-99.48706099999981
59,342.05126999999993,141.6665039999998,127.05126999999993,309.7436520000001,122.30761700000039,100.12841800000024,115.76904300000024,120.12841800000024,120.25634799999989,110.51269500000035,160.0,158.84619099999964,41.79492200000004,-93.46142599999985
60,333.46142599999985,136.15380900000036,122.56396500000028,296.79492200000004,119.48730499999965,101.2822270000006,115.64111300000059,119.48730499999965,124.23095699999976,112.17968800000017,152.17968800000017,157.05126999999993,41.79492200000004,-96.66674799999964
61,320.89746099999957,124.23095699999976,114.74365200000011,283.5898440000001,115.89746099999957,102.69238299999961,113.9741210000002,114.61523400000078,120.64111300000059,109.61523400000078,142.82031300000017,153.0771479999994,33.7177729999994,-105.51293900000019
62,310.2563479999999,113.9741210000002,108.46142599999985,276.53857400000015,115.0,102.94873000000007,111.79492200000004,109.74365200000011,113.46142599999985,103.58984400000008,136.53857400000015,150.51269500000035,23.589844000000085,-113.33325200000036
63,306.4101559999999,111.6665039999998,107.17968800000017,277.5639650000003,117.94873000000007,101.79492200000004,111.15380900000036,108.9741210000002,110.12841800000024,97.17968800000017,136.53857400000015,151.41015599999992,18.205077999999958,-113.97436500000003
64,309.7436520000001,117.56396500000028,111.41015599999992,282.94873000000007,123.84619099999964,100.89746099999957,113.46142599999985,113.46142599999985,114.87158199999976,95.0,142.6923829999996,154.87158199999976,20.769043000000238,-105.51293900000019
65,315.3847659999992,126.0258789999998,118.7177729999994,287.17968800000017,130.12841800000024,102.05126999999993,117.94873000000007,120.25634799999989,125.76904300000024,100.25634799999989,151.2822270000006,157.94873000000007,29.48730499999965,-91.02563499999997
66,316.4101559999999,130.0,124.74365200000011,285.76904300000024,133.7177729999994,105.38476599999922,121.6665039999998,124.61523400000078,135.51269500000035,111.53857400000015,157.17968800000017,158.20507799999996,38.333496000000196,-77.82055700000001
67,309.23095699999976,125.76904300000024,125.38476599999922,278.46142599999985,131.53857400000015,108.9741210000002,121.6665039999998,123.46142599999985,136.79492200000004,122.30761700000039,156.6665039999998,155.12841800000024,40.51269500000035,-71.79492200000004
68,295.76904300000024,115.51269500000035,119.74365200000011,267.6923829999996,122.56396500000028,111.0258789999998,117.30761700000039,117.82031300000017,128.46142599999985,126.0258789999998,149.48730499999965,150.76904300000024,33.589844000000085,-75.25634799999989
69,281.79492200000004,105.38476599999922,111.15380900000036,257.5639650000003,109.74365200000011,110.38476599999922,110.89746099999957,111.41015599999992,116.41015599999992,120.64111300000059,139.48730499999965,147.6923829999996,21.410155999999915,-84.8718259999996
70,272.5639650000003,100.25634799999989,104.10253900000043,250.76904300000024,99.10253900000043,107.17968800000017,106.0258789999998,107.82031300000017,108.7177729999994,110.89746099999957,132.17968800000017,147.17968800000017,11.025878999999804,-94.48706099999981
71,269.6152340000008,100.64111300000059,101.6665039999998,247.43603499999972,96.15380900000036,103.20507799999996,105.51269500000035,107.69238299999961,108.9741210000002,102.82031300000017,130.38476599999922,148.7177729999994,7.307617000000391,-99.23071300000038
72,270.3847659999992,102.94873000000007,104.10253900000043,246.53857400000015,102.43603499999972,100.64111300000059,108.84619099999964,108.58984400000008,114.48730499999965,99.35888699999941,132.6923829999996,150.76904300000024,9.102539000000434,-98.33325200000036
73,271.9228520000006,104.10253900000043,109.35888699999941,246.9228520000006,114.87158199999976,101.2822270000006,113.20507799999996,107.94873000000007,118.9741210000002,99.10253900000043,134.87158199999976,151.6665039999998,12.17968800000017,-94.74365200000011
74,272.05126999999993,103.84619099999964,115.38476599999922,247.56396500000028,127.56396500000028,104.48730499999965,115.25634799999989,105.12841800000024,118.58984400000008,99.48730499999965,133.3334960000002,151.41015599999992,13.589844000000085,-92.43579099999943
75,269.7436520000001,104.48730499999965,119.61523400000078,247.3076170000004,135.2563479999999,107.94873000000007,113.9741210000002,102.43603499999972,113.46142599999985,99.48730499999965,127.43603499999972,150.76904300000024,12.948730000000069,-93.07690400000001
76,265.2563479999999,107.17968800000017,119.87158199999976,245.6411130000006,136.6665039999998,109.23095699999976,111.53857400000015,102.30761700000039,107.17968800000017,99.48730499999965,120.76904300000024,150.2563479999999,11.922852000000603,-95.89746100000002
77,259.23095699999976,110.25634799999989,116.15380900000036,243.20507799999996,133.3334960000002,108.0771479999994,110.25634799999989,105.25634799999989,103.7177729999994,99.87158199999976,117.30761700000039,149.61523400000078,11.410155999999915,-99.10253899999998
78,252.43603499999972,111.53857400000015,110.51269500000035,241.0258789999998,128.3334960000002,105.38476599999922,111.15380900000036,110.12841800000024,104.61523400000078,100.38476599999922,119.35888699999941,148.58984400000008,11.538574000000153,-100.89746100000002
79,245.12841800000024,110.0,106.2822270000006,238.84619099999964,123.46142599999985,102.56396500000028,112.30761700000039,114.35888699999941,109.10253900000043,100.51269500000035,124.87158199999976,147.43603499999972,11.666503999999804,-101.02563499999997
80,237.6923829999996,106.6665039999998,105.0,235.2563479999999,118.20507799999996,100.64111300000059,111.79492200000004,116.15380900000036,114.23095699999976,100.38476599999922,128.7177729999994,147.05126999999993,11.153809000000365,-101.15380900000036
81,229.61523400000078,103.20507799999996,105.0,229.10253900000043,111.2822270000006,100.0,108.9741210000002,115.25634799999989,117.56396500000028,101.15380900000036,127.17968800000017,147.94873000000007,9.358886999999413,-102.94872999999961
82,221.0258789999998,100.25634799999989,103.3334960000002,221.0258789999998,103.20507799999996,101.0258789999998,105.38476599999922,112.94873000000007,118.46142599999985,104.23095699999976,120.89746099999957,148.20507799999996,6.794922000000042,-107.05127000000039
83,212.43603499999972,98.3334960000002,99.10253900000043,213.46142599999985,98.0771479999994,103.58984400000008,103.84619099999964,111.41015599999992,117.82031300000017,109.74365200000011,114.23095699999976,146.53857400000015,4.487304999999651,-111.79492200000004
84,205.38476599999922,97.43603499999972,93.7177729999994,208.9741210000002,100.89746099999957,107.56396500000028,106.41015599999992,111.79492200000004,116.6665039999998,115.51269500000035,112.17968800000017,142.94873000000007,4.102539000000434,-114.74365200000011
85,200.76904300000024,97.56396500000028,90.38476599999922,208.7177729999994,111.15380900000036,112.30761700000039,111.6665039999998,114.10253900000043,116.15380900000036,117.43603499999972,115.12841800000024,139.3588869999994,6.025878999999804,-113.97436500000003
86,198.84619099999964,98.7177729999994,90.89746099999957,210.6411130000006,122.56396500000028,116.0258789999998,116.2822270000006,117.30761700000039,116.9228520000006,113.20507799999996,119.74365200000011,137.56396500000028,9.102539000000434,-110.0
87,198.58984400000008,100.51269500000035,94.74365200000011,210.76904300000024,127.05126999999993,117.69238299999961,117.30761700000039,119.87158199999976,118.46142599999985,104.35888699999941,121.6665039999998,138.3334960000002,11.666503999999804,-105.0
88,198.46142599999985,102.30761700000039,99.35888699999941,206.41015599999992,123.3334960000002,116.53857400000015,114.74365200000011,120.51269500000035,119.74365200000011,96.0258789999998,119.87158199999976,140.51269500000035,13.717772999999397,-101.02563499999997
89,197.05126999999993,103.46142599999985,102.30761700000039,198.9741210000002,117.43603499999972,113.46142599999985,111.53857400000015,119.48730499999965,120.38476599999922,93.9741210000002,117.30761700000039,143.0771479999994,16.282227000000603,-99.23071300000038
90,194.48730499999965,103.46142599999985,102.43603499999972,193.46142599999985,117.17968800000017,110.12841800000024,110.89746099999957,118.0771479999994,121.0258789999998,100.38476599999922,117.43603499999972,145.0,20.0,-99.10253899999998
91,192.05126999999993,103.58984400000008,101.2822270000006,193.3334960000002,124.23095699999976,108.0771479999994,113.20507799999996,118.58984400000008,122.69238299999961,112.05126999999993,121.6665039999998,146.2822270000006,23.589844000000085,-99.23071300000038
92,190.0,104.48730499999965,100.51269500000035,197.56396500000028,132.17968800000017,107.94873000000007,116.15380900000036,120.25634799999989,124.10253900000043,121.6665039999998,127.30761700000039,147.43603499999972,24.615234000000783,-98.97436500000003
93,186.2822270000006,105.51269500000035,100.64111300000059,200.2563479999999,132.05126999999993,108.3334960000002,116.2822270000006,120.38476599999922,122.56396500000028,122.82031300000017,129.3588869999994,148.0771479999994,21.282227000000603,-99.74365200000011
94,179.7436520000001,104.87158199999976,100.51269500000035,196.2822270000006,121.0258789999998,107.43603499999972,112.69238299999961,116.15380900000036,116.9228520000006,114.10253900000043,125.38476599999922,147.6923829999996,14.230956999999762,-102.17944299999999
95,171.53857400000015,101.79492200000004,99.48730499999965,186.2822270000006,105.38476599999922,104.87158199999976,108.0771479999994,108.9741210000002,109.10253900000043,100.64111300000059,118.0771479999994,146.15380900000036,7.051269999999931,-104.8718259999996
96,166.2822270000006,97.94873000000007,98.84619099999964,176.2822270000006,95.89746099999957,102.17968800000017,106.79492200000004,103.3334960000002,103.20507799999996,91.15380900000036,112.69238299999961,144.61523400000078,3.5898440000000846,-104.35888699999987
97,166.6665039999998,95.89746099999957,100.51269500000035,172.3076170000004,98.7177729999994,101.15380900000036,110.25634799999989,102.82031300000017,102.05126999999993,91.2822270000006,112.56396500000028,145.0,5.3847659999992175,-99.10253899999998
98,171.41015599999992,96.79492200000004,103.9741210000002,174.3588869999994,109.48730499999965,102.17968800000017,115.89746099999957,107.17968800000017,105.12841800000024,99.10253900000043,116.15380900000036,146.9228520000006,9.871581999999762,-91.41015600000037
99,174.87158199999976,98.84619099999964,106.15380900000036,176.15380900000036,118.7177729999994,104.10253900000043,119.23095699999976,112.30761700000039,108.46142599999985,106.6665039999998,118.20507799999996,148.7177729999994,12.56396500000028,-86.41015600000037
100,171.53857400000015,98.3334960000002,104.23095699999976,171.53857400000015,120.0,105.12841800000024,116.9228520000006,113.46142599999985,108.0771479999994,106.53857400000015,114.48730499999965,147.94873000000007,9.487304999999651,-88.46142599999985
101,160.6411130000006,93.3334960000002,98.7177729999994,159.23095699999976,114.48730499999965,104.74365200000011,109.61523400000078,108.9741210000002,103.3334960000002,97.82031300000017,105.76904300000024,143.9741210000002,1.0258789999998044,-97.30761700000039
102,147.43603499999972,86.0258789999998,93.20507799999996,143.9741210000002,108.58984400000008,102.82031300000017,101.41015599999992,101.53857400000015,96.9228520000006,86.41015599999992,96.15380900000036,137.94873000000007,-8.205077999999958,-107.30761700000039
103,139.7436520000001,80.51269500000035,91.53857400000015,131.9228520000006,107.69238299999961,100.38476599999922,97.05126999999993,96.0258789999998,93.46142599999985,80.12841800000024,91.15380900000036,132.82031300000017,-13.205077999999958,-111.66674799999964
104,140.89746099999957,80.0,94.35888699999941,126.0258789999998,110.64111300000059,98.84619099999964,97.82031300000017,95.76904300000024,95.38476599999922,81.6665039999998,92.43603499999972,131.0258789999998,-11.923095999999987,-107.17944299999999
105,146.9228520000006,83.84619099999964,98.46142599999985,125.0,111.41015599999992,98.84619099999964,101.9228520000006,100.89746099999957,101.2822270000006,88.20507799999996,97.69238299999961,132.6923829999996,-7.307617000000391,-97.69238299999961
106,150.0,87.94873000000007,100.0,125.25634799999989,106.2822270000006,100.12841800000024,105.89746099999957,107.56396500000028,107.43603499999972,93.84619099999964,102.30761700000039,135.76904300000024,-3.846190999999635,-90.1281740000004
107,145.38476599999922,87.82031300000017,97.30761700000039,122.94873000000007,96.6665039999998,100.64111300000059,107.30761700000039,111.2822270000006,110.12841800000024,94.35888699999941,102.43603499999972,137.6923829999996,-4.358886999999868,-89.8718259999996
108,135.76904300000024,83.0771479999994,92.69238299999961,117.82031300000017,89.61523400000078,99.87158199999976,106.0258789999998,110.51269500000035,108.84619099999964,90.25634799999989,98.7177729999994,137.3076170000004,-8.333252000000357,-95.25634799999989
109,129.10253900000043,78.0771479999994,90.76904300000024,112.43603499999972,91.53857400000015,98.7177729999994,104.87158199999976,108.58984400000008,107.69238299999961,86.53857400000015,95.12841800000024,136.41015599999992,-11.923095999999987,-99.23071300000038
110,131.41015599999992,78.58984400000008,94.61523400000078,110.89746099999957,103.58984400000008,99.35888699999941,106.6665039999998,110.76904300000024,111.15380900000036,88.9741210000002,96.53857400000015,138.0771479999994,-10.0,-94.61547900000005
111,141.79492200000004,86.15380900000036,103.20507799999996,114.23095699999976,120.51269500000035,102.30761700000039,111.6665039999998,118.46142599999985,120.38476599999922,99.35888699999941,104.48730499999965,142.94873000000007,-0.8974609999995664,-80.25634799999989
112,152.17968800000017,96.6665039999998,111.53857400000015,119.35888699999941,134.10253900000043,106.79492200000004,117.17968800000017,128.20507799999996,131.0258789999998,113.9741210000002,115.25634799999989,148.58984400000008,11.794922000000042,-62.69238299999961
113,154.23095699999976,103.58984400000008,114.48730499999965,121.41015599999992,138.84619099999964,110.89746099999957,118.9741210000002,134.3588869999994,136.41015599999992,126.0258789999998,122.17968800000017,151.2822270000006,21.666503999999804,-51.28198199999997
114,146.0258789999998,103.7177729999994,111.0258789999998,117.69238299999961,134.87158199999976,112.94873000000007,115.0,133.7177729999994,133.46142599999985,130.2563479999999,120.76904300000024,149.61523400000078,23.974121000000196,-50.51293900000019
115,133.46142599999985,99.10253900000043,103.9741210000002,109.10253900000043,126.41015599999992,112.69238299999961,107.69238299999961,127.69238299999961,124.87158199999976,126.0258789999998,112.05126999999993,144.87158199999976,19.102539000000434,-57.435790999999426
116,124.48730499999965,95.0,97.82031300000017,98.3334960000002,118.20507799999996,111.15380900000036,101.9228520000006,120.51269500000035,116.9228520000006,117.05126999999993,101.9228520000006,140.6411130000006,12.051269999999931,-63.974365000000034
117,123.46142599999985,94.87158199999976,95.12841800000024,88.9741210000002,113.46142599999985,110.25634799999989,101.79492200000004,115.51269500000035,114.87158199999976,109.48730499999965,97.05126999999993,138.84619099999964,8.077147999999397,-63.846190999999635
118,128.20507799999996,98.20507799999996,95.51269500000035,83.7177729999994,113.84619099999964,111.41015599999992,106.79492200000004,114.35888699999941,119.74365200000011,107.69238299999961,100.0,139.61523400000078,10.128418000000238,-56.28198199999997
119,133.20507799999996,102.17968800000017,97.30761700000039,82.94873000000007,118.84619099999964,114.35888699999941,112.69238299999961,115.89746099999957,126.79492200000004,111.79492200000004,107.82031300000017,141.79492200000004,16.922852000000603,-45.51293900000019
120,133.46142599999985,104.35888699999941,98.7177729999994,84.74365200000011,126.0258789999998,117.30761700000039,115.38476599999922,117.82031300000017,130.2563479999999,117.56396500000028,114.74365200000011,144.3588869999994,24.102539000000434,-37.30761700000039
121,128.7177729999994,104.74365200000011,99.48730499999965,85.64111300000059,131.41015599999992,118.20507799999996,113.7177729999994,118.20507799999996,127.82031300000017,120.0,117.17968800000017,146.41015599999992,27.30761700000039,-35.0
122,122.56396500000028,105.12841800000024,100.12841800000024,83.7177729999994,132.17968800000017,117.05126999999993,110.38476599999922,117.43603499999972,122.43603499999972,117.05126999999993,116.2822270000006,147.43603499999972,26.153809000000365,-37.17944299999999
123,118.20507799999996,105.89746099999957,100.89746099999957,79.61523400000078,127.94873000000007,115.38476599999922,108.9741210000002,117.05126999999993,119.23095699999976,111.0258789999998,114.74365200000011,147.17968800000017,22.94873000000007,-39.8718259999996
124,115.51269500000035,104.87158199999976,101.15380900000036,75.64111300000059,120.51269500000035,114.61523400000078,110.51269500000035,117.30761700000039,120.64111300000059,106.79492200000004,114.10253900000043,145.12841800000024,20.769043000000238,-40.76928699999962
125,112.43603499999972,100.0,99.74365200000011,73.84619099999964,113.7177729999994,115.12841800000024,113.46142599999985,117.43603499999972,123.9741210000002,107.94873000000007,112.94873000000007,140.76904300000024,20.384765999999217,-40.51293900000019
126,108.0771479999994,92.43603499999972,96.41015599999992,74.87158199999976,111.41015599999992,116.15380900000036,115.25634799999989,116.2822270000006,125.12841800000024,113.20507799999996,110.0,135.2563479999999,20.641113000000587,-40.64111300000013
127,104.35888699999941,87.17968800000017,92.56396500000028,78.0771479999994,115.0,116.53857400000015,115.0,115.51269500000035,122.69238299999961,118.46142599999985,106.41015599999992,131.0258789999998,20.384765999999217,-41.41015600000037
128,103.46142599999985,89.61523400000078,91.0258789999998,83.46142599999985,122.56396500000028,116.41015599999992,113.9741210000002,117.56396500000028,120.12841800000024,120.51269500000035,105.12841800000024,129.7436520000001,20.384765999999217,-41.025634999999966
129,106.79492200000004,100.25634799999989,93.3334960000002,93.46142599999985,129.87158199999976,116.6665039999998,114.48730499999965,123.9741210000002,122.30761700000039,119.61523400000078,107.94873000000007,131.0258789999998,23.077147999999397,-38.07690400000001
130,111.6665039999998,113.46142599999985,98.58984400000008,110.0,132.43603499999972,117.69238299999961,117.30761700000039,131.41015599999992,129.7436520000001,117.82031300000017,112.56396500000028,131.9228520000006,28.205077999999958,-32.82055700000001
131,113.84619099999964,120.12841800000024,103.0771479999994,131.79492200000004,128.3334960000002,118.46142599999985,120.38476599999922,134.48730499999965,136.79492200000004,115.89746099999957,113.84619099999964,129.7436520000001,32.17968800000017,-28.333252000000357
132,109.48730499999965,115.76904300000024,103.7177729999994,155.0,119.48730499999965,117.94873000000007,120.51269500000035,129.7436520000001,136.79492200000004,112.05126999999993,108.7177729999994,124.61523400000078,30.384765999999217,-27.948729999999614
133,100.25634799999989,104.23095699999976,100.38476599999922,176.53857400000015,112.17968800000017,116.2822270000006,117.17968800000017,119.74365200000011,128.0771479999994,105.64111300000059,99.61523400000078,119.87158199999976,22.69238299999961,-31.923095999999987
134,92.30761700000039,95.51269500000035,96.41015599999992,195.89746099999957,112.69238299999961,114.35888699999941,113.0771479999994,110.76904300000024,116.6665039999998,99.35888699999941,93.58984400000008,119.35888699999941,15.512695000000349,-35.89746100000002
135,92.69238299999961,97.43603499999972,96.0258789999998,214.23095699999976,122.43603499999972,113.84619099999964,111.6665039999998,108.20507799999996,111.0258789999998,97.56396500000028,96.79492200000004,124.10253900000043,16.538574000000153,-34.74365200000011
136,101.79492200000004,108.0771479999994,100.38476599999922,231.15380900000036,136.2822270000006,115.0,113.7177729999994,112.94873000000007,114.87158199999976,102.43603499999972,108.7177729999994,131.2822270000006,27.30761700000039,-27.051270000000386
137,111.79492200000004,116.79492200000004,106.2822270000006,243.7177729999994,143.9741210000002,116.6665039999998,116.6665039999998,120.25634799999989,123.84619099999964,110.89746099999957,120.76904300000024,136.15380900000036,40.0,-17.69238299999961
138,112.69238299999961,113.3334960000002,108.9741210000002,248.9741210000002,137.3076170000004,117.05126999999993,117.43603499999972,124.23095699999976,129.7436520000001,116.2822270000006,123.46142599999985,136.0258789999998,43.7177729999994,-13.461425999999847
139,101.6665039999998,96.79492200000004,105.89746099999957,246.79492200000004,116.79492200000004,115.25634799999989,115.51269500000035,121.6665039999998,127.82031300000017,113.3334960000002,113.46142599999985,131.9228520000006,33.7177729999994,-17.948729999999614
140,87.17968800000017,78.3334960000002,100.12841800000024,242.3076170000004,93.20507799999996,112.17968800000017,112.82031300000017,115.38476599999922,120.12841800000024,103.84619099999964,98.0771479999994,127.82031300000017,16.538574000000153,-27.179442999999992
141,81.15380900000036,71.2822270000006,97.56396500000028,241.6665039999998,81.41015599999992,109.87158199999976,111.2822270000006,111.2822270000006,113.84619099999964,96.15380900000036,89.10253900000043,126.79492200000004,6.153809000000365,-33.33325200000036
142,89.48730499999965,80.12841800000024,101.0258789999998,246.2822270000006,88.84619099999964,110.0,111.9228520000006,113.20507799999996,114.87158199999976,98.20507799999996,93.46142599999985,129.23095699999976,11.794922000000042,-29.74365200000011
143,106.0258789999998,96.2822270000006,107.69238299999961,251.6665039999998,109.61523400000078,111.9228520000006,113.20507799999996,118.9741210000002,122.69238299999961,109.61523400000078,107.30761700000039,132.94873000000007,30.769043000000238,-17.948729999999614
144,118.58984400000008,106.41015599999992,111.79492200000004,251.2822270000006,130.12841800000024,113.9741210000002,113.7177729999994,123.3334960000002,131.6665039999998,123.0771479999994,120.38476599999922,135.12841800000024,50.38476599999922,-5.897461000000021
145,119.87158199999976,104.74365200000011,110.38476599999922,243.46142599999985,139.3588869999994,114.74365200000011,113.0771479999994,123.9741210000002,136.6665039999998,130.76904300000024,125.25634799999989,134.3588869999994,59.35888699999941,-2.0512699999999313
146,111.2822270000006,96.6665039999998,105.25634799999989,233.46142599999985,135.51269500000035,114.61523400000078,112.82031300000017,122.82031300000017,136.79492200000004,130.38476599999922,122.17968800000017,131.53857400000015,55.76904300000024,-7.692382999999609
147,100.64111300000059,92.43603499999972,101.53857400000015,228.3334960000002,123.9741210000002,114.61523400000078,113.84619099999964,122.56396500000028,134.61523400000078,125.51269500000035,116.6665039999998,128.84619099999964,46.2822270000006,-17.179442999999992
148,95.12841800000024,97.05126999999993,102.82031300000017,230.76904300000024,113.58984400000008,115.25634799999989,115.51269500000035,123.9741210000002,132.94873000000007,122.05126999999993,114.23095699999976,127.94873000000007,39.35888699999941,-20.769286999999622
149,96.79492200000004,107.30761700000039,108.46142599999985,237.05126999999993,111.53857400000015,115.64111300000059,116.9228520000006,126.15380900000036,133.0771479999994,122.69238299999961,116.41015599999992,129.23095699999976,38.20507799999996,-11.153809000000365
150,101.15380900000036,114.74365200000011,113.84619099999964,239.87158199999976,118.20507799999996,114.48730499999965,117.30761700000039,128.3334960000002,134.48730499999965,126.0258789999998,120.25634799999989,131.2822270000006,40.25634799999989,11.922852000000603
151,101.15380900000036,112.43603499999972,112.94873000000007,234.48730499999965,126.9228520000006,111.2822270000006,117.05126999999993,129.23095699999976,135.89746099999957,128.20507799999996,120.64111300000059,132.05126999999993,40.12841800000024,40.0
152,92.94873000000007,101.0258789999998,103.84619099999964,221.53857400000015,128.84619099999964,106.79492200000004,116.0258789999998,128.0771479999994,135.89746099999957,126.0258789999998,114.87158199999976,130.2563479999999,35.25634799999989,61.79492200000004
153,79.74365200000011,87.43603499999972,90.76904300000024,207.56396500000028,121.0258789999998,103.0771479999994,114.23095699999976,125.64111300000059,133.9741210000002,120.12841800000024,104.74365200000011,126.41015599999992,28.589844000000085,71.41015599999992
154,69.48730499999965,79.74365200000011,81.9228520000006,199.61523400000078,108.46142599999985,101.2822270000006,111.6665039999998,123.46142599999985,130.6411130000006,114.23095699999976,96.0258789999998,122.05126999999993,25.897460999999566,72.05126999999993
155,68.3334960000002,81.53857400000015,82.43603499999972,200.2563479999999,100.0,101.15380900000036,108.9741210000002,122.43603499999972,127.43603499999972,111.41015599999992,93.7177729999994,118.9741210000002,30.25634799999989,72.43603499999972
156,75.64111300000059,88.58984400000008,91.0258789999998,205.0,100.38476599999922,101.9228520000006,106.9228520000006,121.41015599999992,125.0,112.43603499999972,98.0771479999994,118.46142599999985,38.46142599999985,77.56396500000028
157,83.84619099999964,93.20507799999996,100.0,206.53857400000015,107.43603499999972,102.69238299999961,105.12841800000024,118.58984400000008,122.30761700000039,115.12841800000024,103.7177729999994,120.25634799999989,43.7177729999994,85.12841800000024
158,85.76904300000024,91.15380900000036,102.17968800000017,200.76904300000024,114.35888699999941,102.82031300000017,102.82031300000017,112.94873000000007,118.46142599999985,116.41015599999992,104.74365200000011,122.17968800000017,41.153809000000365,88.7177729999994
159,79.61523400000078,84.74365200000011,96.41015599999992,190.38476599999922,117.05126999999993,102.30761700000039,100.12841800000024,106.15380900000036,114.10253900000043,115.0,99.61523400000078,122.43603499999972,32.82031300000017,84.87158199999976
160,69.87158199999976,80.64111300000059,88.84619099999964,181.9228520000006,117.17968800000017,102.56396500000028,98.84619099999964,102.69238299999961,111.53857400000015,112.56396500000028,92.82031300000017,121.2822270000006,25.0,76.53857400000015
161,63.589844000000085,82.30761700000039,87.05126999999993,180.6411130000006,118.58984400000008,104.23095699999976,101.2822270000006,106.15380900000036,113.7177729999994,111.9228520000006,90.25634799999989,121.2822270000006,23.717772999999397,70.64111300000059
162,64.74365200000011,88.0771479999994,93.7177729999994,185.6411130000006,121.53857400000015,106.53857400000015,107.17968800000017,114.61523400000078,120.0,114.35888699999941,94.10253900000043,123.20507799999996,29.48730499999965,71.6665039999998
163,71.9228520000006,92.56396500000028,104.48730499999965,191.0258789999998,122.05126999999993,107.69238299999961,113.46142599999985,122.43603499999972,126.9228520000006,117.82031300000017,100.89746099999957,126.0258789999998,37.43603499999972,78.20507799999996
164,79.35888699999941,93.0771479999994,111.9228520000006,191.0258789999998,117.43603499999972,107.05126999999993,116.0258789999998,124.35888699999941,129.87158199999976,119.87158199999976,105.38476599999922,127.43603499999972,41.666503999999804,84.61523400000078
165,81.2822270000006,90.25634799999989,111.79492200000004,183.7177729999994,108.7177729999994,105.89746099999957,113.46142599999985,119.61523400000078,127.17968800000017,119.10253900000043,104.61523400000078,126.9228520000006,40.0,85.89746099999957
166,74.74365200000011,86.53857400000015,104.48730499999965,171.79492200000004,100.38476599999922,106.0258789999998,107.30761700000039,111.9228520000006,120.76904300000024,116.2822270000006,99.87158199999976,125.12841800000024,33.7177729999994,80.64111300000059
167,62.56396500000028,83.3334960000002,94.74365200000011,159.87158199999976,96.53857400000015,107.30761700000039,101.6665039999998,106.15380900000036,114.23095699999976,111.9228520000006,94.23095699999976,123.58984400000008,26.282227000000603,71.79492200000004
168,51.153809000000365,80.51269500000035,87.43603499999972,151.0258789999998,99.35888699999941,107.82031300000017,100.12841800000024,105.38476599999922,110.51269500000035,106.53857400000015,90.51269500000035,123.20507799999996,20.51269500000035,63.46142599999985
169,46.2822270000006,78.20507799999996,84.61523400000078,145.51269500000035,106.9228520000006,106.79492200000004,103.84619099999964,108.9741210000002,110.76904300000024,100.76904300000024,89.48730499999965,123.3334960000002,18.461425999999847,58.7177729999994
170,48.333496000000196,76.6665039999998,85.25634799999989,141.53857400000015,114.23095699999976,104.74365200000011,110.38476599999922,113.46142599999985,113.84619099999964,96.2822270000006,89.48730499999965,122.94873000000007,20.0,57.17968800000017
171,53.0771479999994,76.2822270000006,87.30761700000039,137.43603499999972,116.15380900000036,103.58984400000008,115.76904300000024,115.89746099999957,117.69238299999961,94.74365200000011,88.7177729999994,121.6665039999998,23.333496000000196,57.56396500000028
172,56.2822270000006,77.30761700000039,90.12841800000024,133.0771479999994,112.82031300000017,104.87158199999976,117.30761700000039,116.53857400000015,121.15380900000036,97.56396500000028,86.9228520000006,120.51269500000035,27.05126999999993,59.23095699999976
173,57.17968800000017,80.12841800000024,94.10253900000043,130.51269500000035,109.35888699999941,108.84619099999964,116.2822270000006,118.7177729999994,124.61523400000078,105.25634799999989,85.64111300000059,120.38476599999922,30.897460999999566,62.69238299999961
174,57.30761700000039,84.48730499999965,98.7177729999994,130.89746099999957,110.64111300000059,113.20507799999996,115.38476599999922,123.84619099999964,129.10253900000043,116.15380900000036,86.41015599999992,120.76904300000024,34.87158199999976,67.43603499999972
175,57.17968800000017,88.3334960000002,101.0258789999998,132.56396500000028,115.25634799999989,114.48730499999965,115.51269500000035,129.10253900000043,133.20507799999996,125.76904300000024,88.46142599999985,120.12841800000024,37.30761700000039,70.51269500000035
176,55.76904300000024,88.9741210000002,98.84619099999964,132.17968800000017,118.0771479999994,110.89746099999957,115.51269500000035,129.87158199999976,134.7436520000001,128.7177729999994,89.10253900000043,118.3334960000002,35.38476599999922,68.84619099999964
177,52.94873000000007,85.64111300000059,93.9741210000002,127.43603499999972,116.15380900000036,105.12841800000024,114.10253900000043,125.0,132.3076170000004,122.56396500000028,87.30761700000039,116.2822270000006,28.717772999999397,62.56396500000028
178,50.76904300000024,81.41015599999992,90.51269500000035,120.12841800000024,113.0771479999994,101.6665039999998,112.05126999999993,118.46142599999985,128.0771479999994,111.2822270000006,84.87158199999976,115.76904300000024,20.897460999999566,56.153809000000365
179,52.43603499999972,80.25634799999989,92.05126999999993,113.58984400000008,114.48730499999965,103.3334960000002,111.0258789999998,115.89746099999957,125.89746099999957,102.17968800000017,85.12841800000024,117.17968800000017,17.56396500000028,54.74365200000011
180,58.46142599999985,83.20507799999996,97.69238299999961,109.48730499999965,120.51269500000035,108.58984400000008,111.53857400000015,119.61523400000078,127.30761700000039,101.15380900000036,89.61523400000078,119.61523400000078,21.410155999999915,59.23095699999976
181,65.64111300000059,86.53857400000015,102.17968800000017,106.2822270000006,124.74365200000011,112.43603499999972,111.53857400000015,126.15380900000036,130.0,108.0771479999994,95.25634799999989,120.76904300000024,29.74365200000011,65.76904300000024
182,68.9741210000002,86.79492200000004,101.2822270000006,101.6665039999998,120.38476599999922,112.05126999999993,110.0,129.7436520000001,131.15380900000036,116.6665039999998,98.46142599999985,119.61523400000078,37.30761700000039,69.48730499999965
183,68.0771479999994,84.61523400000078,95.51269500000035,94.61523400000078,109.48730499999965,108.7177729999994,108.0771479999994,128.58984400000008,130.2563479999999,121.15380900000036,98.20507799999996,117.56396500000028,41.025878999999804,69.87158199999976
184,66.53857400000015,83.9741210000002,90.76904300000024,86.6665039999998,100.76904300000024,106.6665039999998,108.46142599999985,125.76904300000024,129.7436520000001,120.51269500000035,97.82031300000017,118.3334960000002,42.43603499999972,70.0
185,67.82031300000017,87.17968800000017,91.6665039999998,80.25634799999989,101.41015599999992,108.3334960000002,111.15380900000036,125.25634799999989,130.76904300000024,117.43603499999972,100.25634799999989,123.0771479999994,43.333496000000196,72.17968800000017
186,70.89746099999957,91.53857400000015,97.05126999999993,75.76904300000024,109.10253900000043,111.6665039999998,113.58984400000008,127.05126999999993,131.2822270000006,113.46142599999985,103.58984400000008,128.7177729999994,43.589844000000085,74.35888699999941
187,71.53857400000015,92.43603499999972,101.2822270000006,72.05126999999993,115.89746099999957,111.9228520000006,112.69238299999961,127.56396500000028,128.3334960000002,108.0771479999994,103.20507799999996,129.7436520000001,41.410155999999915,72.69238299999961
188,67.05126999999993,88.3334960000002,100.25634799999989,68.3334960000002,115.89746099999957,107.56396500000028,108.46142599999985,124.23095699999976,122.05126999999993,101.15380900000036,96.9228520000006,123.9741210000002,37.56396500000028,66.41015599999992
189,60.51269500000035,83.20507799999996,94.87158199999976,65.38476599999922,109.87158199999976,101.79492200000004,104.48730499999965,119.23095699999976,117.05126999999993,96.15380900000036,88.7177729999994,115.38476599999922,35.897460999999566,60.12841800000024
190,57.94873000000007,82.69238299999961,90.0,64.48730499999965,104.10253900000043,100.38476599999922,104.23095699999976,117.69238299999961,118.3334960000002,97.05126999999993,86.0258789999998,110.76904300000024,40.38476599999922,60.0
191,62.69238299999961,89.10253900000043,90.38476599999922,66.41015599999992,104.23095699999976,105.64111300000059,108.84619099999964,122.69238299999961,126.41015599999992,105.0,93.0771479999994,114.61523400000078,50.12841800000024,68.0771479999994
192,73.20507799999996,98.9741210000002,96.41015599999992,70.51269500000035,111.6665039999998,114.23095699999976,116.0258789999998,131.6665039999998,136.41015599999992,116.79492200000004,106.6665039999998,124.61523400000078,60.25634799999989,80.64111300000059
193,83.7177729999994,106.79492200000004,103.9741210000002,74.23095699999976,122.17968800000017,119.87158199999976,121.79492200000004,138.46142599999985,142.17968800000017,126.6665039999998,118.7177729999994,134.23095699999976,65.25634799999989,90.64111300000059
194,88.84619099999964,108.20507799999996,108.7177729999994,74.87158199999976,129.10253900000043,118.58984400000008,123.46142599999985,138.58984400000008,140.38476599999922,130.2563479999999,122.30761700000039,137.43603499999972,62.43603499999972,92.69238299999961
195,86.41015599999992,102.82031300000017,108.0771479999994,70.89746099999957,127.43603499999972,111.41015599999992,120.51269500000035,132.17968800000017,132.6923829999996,126.2822270000006,115.76904300000024,132.82031300000017,54.23095699999976,86.15380900000036
196,77.69238299999961,93.46142599999985,102.17968800000017,61.53857400000015,117.43603499999972,103.84619099999964,114.61523400000078,122.82031300000017,123.20507799999996,117.30761700000039,102.82031300000017,124.23095699999976,44.87158199999976,74.87158199999976
197,65.89746099999957,84.35888699999941,92.56396500000028,48.333496000000196,105.0,100.76904300000024,107.94873000000007,115.0,115.25634799999989,107.43603499999972,89.48730499999965,116.79492200000004,38.20507799999996,64.10253900000043
198,54.74365200000011,77.69238299999961,82.17968800000017,34.23095699999976,96.6665039999998,103.20507799999996,102.69238299999961,110.25634799999989,109.74365200000011,99.61523400000078,80.12841800000024,113.7177729999994,35.0,57.17968800000017
199,46.153809000000365,73.84619099999964,73.7177729999994,23.205077999999958,94.87158199999976,107.82031300000017,99.87158199999976,107.82031300000017,106.15380900000036,94.74365200000011,76.6665039999998,113.9741210000002,33.7177729999994,53.974121000000196
200,41.410155999999915,72.05126999999993,69.74365200000011,18.461425999999847,96.6665039999998,110.0,99.61523400000078,105.76904300000024,103.9741210000002,91.2822270000006,77.43603499999972,114.87158199999976,32.56396500000028,52.56396500000028
201,40.64111300000059,71.9228520000006,71.2822270000006,20.384765999999217,98.0771479999994,107.82031300000017,101.41015599999992,104.10253900000043,103.7177729999994,87.94873000000007,79.23095699999976,114.61523400000078,31.410155999999915,51.79492200000004
202,44.35888699999941,74.23095699999976,76.9228520000006,26.025878999999804,98.20507799999996,103.0771479999994,103.84619099999964,104.35888699999941,106.15380900000036,85.25634799999989,80.64111300000059,113.7177729999994,32.05126999999993,52.30761700000039
203,51.025878999999804,78.84619099999964,83.84619099999964,30.384765999999217,99.48730499999965,99.35888699999941,106.15380900000036,107.56396500000028,110.64111300000059,84.48730499999965,82.30761700000039,113.3334960000002,35.51269500000035,55.25634799999989
204,56.79492200000004,84.10253900000043,88.58984400000008,30.128418000000238,103.7177729999994,99.48730499999965,107.05126999999993,112.43603499999972,115.25634799999989,86.15380900000036,85.38476599999922,114.23095699999976,40.0,59.74365200000011
205,57.82031300000017,86.41015599999992,88.84619099999964,24.74365200000011,109.48730499999965,103.20507799999996,106.53857400000015,116.2822270000006,117.30761700000039,88.9741210000002,89.10253900000043,115.38476599999922,42.17968800000017,63.20507799999996
206,53.589844000000085,84.10253900000043,86.0258789999998,17.43603499999972,113.58984400000008,108.46142599999985,105.76904300000024,117.17968800000017,116.41015599999992,91.2822270000006,91.9228520000006,115.51269500000035,40.76904300000024,63.974121000000196
207,49.102539000000434,79.87158199999976,83.84619099999964,12.307617000000391,115.25634799999989,112.69238299999961,106.0258789999998,116.15380900000036,114.61523400000078,93.58984400000008,93.3334960000002,114.61523400000078,38.7177729999994,63.7177729999994
208,50.64111300000059,78.84619099999964,85.64111300000059,10.512695000000349,116.9228520000006,114.23095699999976,107.69238299999961,115.76904300000024,114.48730499999965,98.0771479999994,94.74365200000011,114.35888699999941,40.38476599999922,65.76904300000024
209,59.102539000000434,82.82031300000017,90.25634799999989,9.102539000000434,118.46142599999985,112.56396500000028,109.48730499999965,116.79492200000004,115.76904300000024,104.74365200000011,96.2822270000006,115.76904300000024,45.76904300000024,70.64111300000059
210,68.46142599999985,88.0771479999994,93.3334960000002,2.6923829999996087,116.41015599999992,108.20507799999996,109.35888699999941,117.17968800000017,115.12841800000024,109.87158199999976,95.51269500000035,117.82031300000017,49.35888699999941,74.10253900000043
211,70.38476599999922,89.23095699999976,90.76904300000024,-11.923095999999987,106.0258789999998,102.69238299999961,106.2822270000006,114.10253900000043,109.10253900000043,108.20507799999996,89.87158199999976,118.46142599999985,45.64111300000059,71.41015599999992
212,62.82031300000017,84.35888699999941,83.20507799999996,-33.07690400000001,89.10253900000043,99.23095699999976,101.2822270000006,107.30761700000039,99.23095699999976,98.9741210000002,80.12841800000024,116.0258789999998,35.12841800000024,62.56396500000028
213,51.666503999999804,77.43603499999972,75.51269500000035,-54.74365200000011,74.10253900000043,99.61523400000078,97.17968800000017,100.0,92.05126999999993,87.17968800000017,71.9228520000006,111.6665039999998,24.74365200000011,52.82031300000017
214,45.897460999999566,73.84619099999964,72.94873000000007,-71.28198199999997,71.2822270000006,104.10253900000043,97.05126999999993,97.05126999999993,93.0771479999994,80.0,71.6665039999998,108.58984400000008,22.69238299999961,48.46142599999985
215,49.74365200000011,75.25634799999989,76.6665039999998,-80.38452099999995,83.9741210000002,109.87158199999976,101.79492200000004,100.64111300000059,102.17968800000017,81.0258789999998,80.64111300000059,108.7177729999994,32.05126999999993,52.17968800000017
216,60.51269500000035,79.23095699999976,83.84619099999964,-83.46142599999985,106.2822270000006,114.10253900000043,109.87158199999976,109.23095699999976,113.58984400000008,88.7177729999994,94.10253900000043,112.05126999999993,48.589844000000085,62.17968800000017
217,70.76904300000024,82.17968800000017,89.74365200000011,-83.33325200000036,126.6665039999998,115.0,116.9228520000006,118.3334960000002,120.64111300000059,98.9741210000002,105.25634799999989,116.2822270000006,63.589844000000085,72.94873000000007
218,74.10253900000043,81.79492200000004,91.15380900000036,-82.82055700000001,135.2563479999999,113.3334960000002,119.23095699999976,123.46142599999985,120.64111300000059,106.53857400000015,108.3334960000002,118.58984400000008,69.48730499999965,78.46142599999985
219,68.58984400000008,77.56396500000028,87.82031300000017,-83.84619099999964,129.23095699999976,110.64111300000059,115.12841800000024,122.56396500000028,115.64111300000059,107.43603499999972,102.43603499999972,117.82031300000017,64.10253900000043,75.64111300000059
220,58.0771479999994,71.53857400000015,82.43603499999972,-86.79492200000004,113.3334960000002,108.46142599999985,106.6665039999998,116.9228520000006,110.25634799999989,100.89746099999957,91.2822270000006,114.87158199999976,51.9228520000006,66.41015599999992
221,49.23095699999976,67.82031300000017,79.10253900000043,-90.64111300000013,96.15380900000036,106.9228520000006,98.7177729999994,110.89746099999957,108.3334960000002,90.89746099999957,81.79492200000004,112.05126999999993,40.64111300000059,56.666503999999804
222,46.9228520000006,68.7177729999994,79.87158199999976,-93.84619099999964,83.84619099999964,105.38476599999922,95.89746099999957,108.3334960000002,111.0258789999998,84.23095699999976,79.48730499999965,111.41015599999992,36.79492200000004,52.43603499999972
223,50.64111300000059,72.94873000000007,83.20507799999996,-95.38452099999995,77.69238299999961,103.3334960000002,98.58984400000008,110.38476599999922,115.25634799999989,85.38476599999922,84.48730499999965,112.56396500000028,40.897460999999566,55.0
224,56.025878999999804,76.53857400000015,85.38476599999922,-94.23071300000038,76.2822270000006,101.2822270000006,103.46142599999985,114.74365200000011,117.05126999999993,93.46142599999985,91.9228520000006,114.48730499999965,48.589844000000085,60.897460999999566
225,59.102539000000434,78.0771479999994,84.74365200000011,-90.0,79.61523400000078,100.76904300000024,106.2822270000006,118.3334960000002,115.76904300000024,103.9741210000002,97.30761700000039,115.76904300000024,54.74365200000011,65.64111300000059
226,60.38476599999922,80.25634799999989,83.46142599999985,-82.30761700000039,90.12841800000024,102.56396500000028,106.9228520000006,120.0,114.48730499999965,112.82031300000017,100.89746099999957,116.6665039999998,57.69238299999961,68.3334960000002
227,62.69238299999961,85.89746099999957,85.12841800000024,-72.56420900000057,107.69238299999961,106.53857400000015,107.69238299999961,120.51269500000035,117.82031300000017,118.46142599999985,105.12841800000024,117.56396500000028,58.46142599999985,70.0
228,67.17968800000017,93.46142599999985,90.76904300000024,-63.71801800000003,126.0258789999998,110.12841800000024,110.51269500000035,120.25634799999989,125.38476599999922,120.51269500000035,109.87158199999976,118.58984400000008,58.20507799999996,71.0258789999998
229,71.9228520000006,97.94873000000007,96.9228520000006,-58.33325200000036,136.0258789999998,110.12841800000024,114.23095699999976,119.35888699999941,132.43603499999972,119.87158199999976,111.15380900000036,118.84619099999964,56.79492200000004,70.25634799999989
230,74.23095699999976,96.53857400000015,99.87158199999976,-55.1281740000004,134.3588869999994,106.2822270000006,115.89746099999957,118.20507799999996,133.20507799999996,117.30761700000039,106.6665039999998,118.3334960000002,54.61523400000078,67.05126999999993
231,72.69238299999961,91.2822270000006,98.46142599999985,-50.76928699999962,126.15380900000036,101.6665039999998,113.58984400000008,117.69238299999961,127.05126999999993,114.23095699999976,98.58984400000008,117.30761700000039,53.0771479999994,63.0771479999994
232,68.20507799999996,86.79492200000004,94.48730499999965,-42.435790999999426,118.20507799999996,99.35888699999941,108.7177729999994,117.56396500000028,118.7177729999994,110.76904300000024,91.79492200000004,116.2822270000006,53.589844000000085,60.51269500000035
233,62.43603499999972,84.61523400000078,90.38476599999922,-30.512939000000188,111.79492200000004,99.61523400000078,103.84619099999964,116.6665039999998,113.20507799999996,106.15380900000036,88.9741210000002,114.87158199999976,54.87158199999976,59.102539000000434
234,56.53857400000015,82.82031300000017,87.17968800000017,-18.076904000000013,103.0771479999994,100.64111300000059,100.64111300000059,113.3334960000002,112.30761700000039,100.64111300000059,88.84619099999964,112.43603499999972,54.74365200000011,57.56396500000028
235,51.9228520000006,79.87158199999976,84.87158199999976,-8.333252000000357,91.0258789999998,100.89746099999957,98.84619099999964,107.94873000000007,113.84619099999964,96.2822270000006,88.84619099999964,107.94873000000007,52.17968800000017,55.25634799999989
236,49.61523400000078,76.53857400000015,83.7177729999994,-2.1796869999998307,81.6665039999998,100.25634799999989,97.69238299999961,103.46142599999985,114.87158199999976,95.64111300000059,87.56396500000028,102.56396500000028,48.974121000000196,53.7177729999994
237,50.0,75.12841800000024,84.10253900000043,1.5385740000001533,83.0771479999994,99.48730499999965,97.94873000000007,102.94873000000007,114.61523400000078,98.9741210000002,86.79492200000004,99.35888699999941,47.43603499999972,54.35888699999941
238,52.43603499999972,77.43603499999972,86.6665039999998,5.641113000000587,97.82031300000017,99.48730499999965,100.51269500000035,107.05126999999993,114.48730499999965,103.46142599999985,89.35888699999941,100.76904300000024,48.46142599999985,57.56396500000028
239,55.25634799999989,82.43603499999972,91.2822270000006,11.025878999999804,118.3334960000002,100.51269500000035,105.12841800000024,113.9741210000002,116.2822270000006,106.0258789999998,95.76904300000024,106.2822270000006,51.9228520000006,62.05126999999993
240,56.53857400000015,87.69238299999961,95.64111300000059,15.897460999999566,132.43603499999972,101.9228520000006,109.61523400000078,119.74365200000011,120.51269500000035,106.6665039999998,103.58984400000008,112.69238299999961,56.153809000000365,66.2822270000006
241,55.64111300000059,90.25634799999989,97.17968800000017,17.05126999999993,132.3076170000004,102.69238299999961,111.2822270000006,120.89746099999957,125.25634799999989,108.3334960000002,107.82031300000017,116.2822270000006,58.974121000000196,68.84619099999964
242,53.589844000000085,88.7177729999994,94.35888699999941,12.43603499999972,120.38476599999922,102.56396500000028,110.0,116.9228520000006,127.56396500000028,112.69238299999961,106.2822270000006,115.51269500000035,60.25634799999989,69.35888699999941
243,52.43603499999972,84.74365200000011,89.35888699999941,3.9741210000001956,106.6665039999998,101.9228520000006,107.94873000000007,111.9228520000006,125.89746099999957,118.20507799999996,100.89746099999957,112.05126999999993,61.53857400000015,68.3334960000002
244,53.846190999999635,82.43603499999972,86.2822270000006,-3.5898440000000846,99.48730499999965,101.53857400000015,108.20507799999996,110.38476599999922,122.30761700000039,121.0258789999998,97.30761700000039,109.61523400000078,64.74365200000011,67.82031300000017
245,56.79492200000004,84.48730499999965,87.56396500000028,-7.564209000000574,98.9741210000002,101.41015599999992,111.0258789999998,114.10253900000043,119.35888699999941,118.7177729999994,98.84619099999964,110.0,69.48730499999965,68.84619099999964
246,58.333496000000196,88.58984400000008,91.15380900000036,-9.61547900000005,100.12841800000024,101.41015599999992,113.58984400000008,119.23095699999976,118.0771479999994,111.0258789999998,103.58984400000008,111.79492200000004,72.30761700000039,70.51269500000035
247,55.897460999999566,89.23095699999976,92.69238299999961,-14.61547900000005,98.84619099999964,101.6665039999998,112.17968800000017,120.25634799999989,116.9228520000006,101.0258789999998,106.0258789999998,111.53857400000015,69.74365200000011,70.12841800000024
248,50.12841800000024,83.9741210000002,89.23095699999976,-24.8718259999996,97.17968800000017,102.82031300000017,106.41015599999992,115.64111300000059,114.10253900000043,93.0771479999994,102.69238299999961,107.56396500000028,62.82031300000017,66.79492200000004
249,44.48730499999965,77.43603499999972,83.7177729999994,-38.33325200000036,100.64111300000059,105.38476599999922,100.51269500000035,109.35888699999941,110.89746099999957,90.38476599999922,96.53857400000015,102.17968800000017,56.666503999999804,63.333496000000196
250,43.589844000000085,77.17968800000017,81.15380900000036,-49.35888699999987,112.56396500000028,108.9741210000002,99.74365200000011,107.43603499999972,110.76904300000024,94.10253900000043,93.84619099999964,100.12841800000024,56.79492200000004,63.846190999999635
251,49.48730499999965,86.41015599999992,85.0,-53.846190999999635,128.20507799999996,111.2822270000006,105.76904300000024,112.56396500000028,115.89746099999957,102.17968800000017,98.3334960000002,103.58984400000008,64.23095699999976,70.0
252,59.61523400000078,100.0,93.20507799999996,-52.435790999999426,137.94873000000007,109.87158199999976,114.23095699999976,121.2822270000006,124.10253900000043,110.51269500000035,108.0771479999994,110.51269500000035,75.0,79.10253900000043
253,68.7177729999994,108.7177729999994,100.64111300000059,-48.71801800000003,134.3588869999994,104.87158199999976,118.7177729999994,127.56396500000028,130.51269500000035,115.64111300000059,117.30761700000039,116.53857400000015,82.94873000000007,86.41015599999992
254,72.17968800000017,106.9228520000006,103.0771479999994,-45.89746100000002,120.25634799999989,99.87158199999976,116.41015599999992,127.56396500000028,131.41015599999992,116.6665039999998,121.53857400000015,118.58984400000008,84.87158199999976,89.48730499999965
255,69.35888699999941,97.56396500000028,100.76904300000024,-44.61547900000005,105.51269500000035,99.10253900000043,110.38476599999922,122.30761700000039,127.43603499999972,114.61523400000078,120.12841800000024,116.9228520000006,82.69238299999961,88.58984400000008
256,63.974121000000196,88.3334960000002,96.9228520000006,-43.58984399999963,98.20507799999996,103.7177729999994,106.15380900000036,116.41015599999992,122.30761700000039,111.9228520000006,116.41015599999992,114.23095699999976,80.76904300000024,86.2822270000006
257,60.38476599999922,85.76904300000024,95.38476599999922,-41.53857400000015,99.10253900000043,110.12841800000024,107.43603499999972,113.84619099999964,119.61523400000078,110.25634799999989,114.23095699999976,113.0771479999994,81.53857400000015,84.61523400000078
258,61.53857400000015,90.38476599999922,97.43603499999972,-38.846190999999635,102.82031300000017,113.7177729999994,111.9228520000006,115.51269500000035,120.12841800000024,110.38476599999922,115.25634799999989,113.3334960000002,84.23095699999976,84.35888699999941
259,65.76904300000024,97.30761700000039,100.89746099999957,-37.30761700000039,103.84619099999964,112.30761700000039,113.7177729999994,118.3334960000002,121.0258789999998,111.9228520000006,117.69238299999961,113.46142599999985,85.38476599999922,84.87158199999976
260,69.23095699999976,100.64111300000059,102.69238299999961,-37.17944299999999,101.2822270000006,107.43603499999972,109.48730499999965,118.7177729999994,119.87158199999976,114.10253900000043,118.46142599999985,111.41015599999992,83.20507799999996,84.87158199999976
261,69.48730499999965,98.3334960000002,101.6665039999998,-36.41015600000037,98.7177729999994,103.84619099999964,101.9228520000006,116.15380900000036,117.05126999999993,116.41015599999992,116.53857400000015,107.56396500000028,78.9741210000002,84.23095699999976
262,68.0771479999994,93.7177729999994,100.0,-31.41015600000037,101.0258789999998,105.25634799999989,97.43603499999972,113.58984400000008,115.76904300000024,118.58984400000008,113.46142599999985,104.74365200000011,76.6665039999998,83.46142599999985
263,67.69238299999961,92.05126999999993,100.25634799999989,-22.435790999999426,108.3334960000002,111.41015599999992,99.87158199999976,114.35888699999941,118.84619099999964,119.23095699999976,112.17968800000017,105.38476599999922,78.46142599999985,83.58984400000008
264,69.48730499999965,95.51269500000035,102.69238299999961,-14.102538999999979,116.6665039999998,118.20507799999996,107.17968800000017,118.7177729999994,125.0,117.05126999999993,113.3334960000002,108.7177729999994,82.69238299999961,84.74365200000011
265,71.2822270000006,101.53857400000015,105.51269500000035,-12.051270000000386,121.6665039999998,121.6665039999998,114.10253900000043,122.82031300000017,130.38476599999922,112.43603499999972,115.76904300000024,112.05126999999993,85.89746099999957,85.89746099999957
266,71.0258789999998,105.38476599999922,106.15380900000036,-17.051270000000386,122.30761700000039,120.51269500000035,116.0258789999998,122.94873000000007,130.89746099999957,108.3334960000002,117.30761700000039,112.56396500000028,86.41015599999992,86.15380900000036
267,67.56396500000028,104.23095699999976,103.84619099999964,-25.1281740000004,120.25634799999989,116.79492200000004,112.43603499999972,118.9741210000002,126.41015599999992,107.82031300000017,117.05126999999993,110.51269500000035,85.12841800000024,85.12841800000024
268,62.30761700000039,100.38476599999922,99.48730499999965,-30.1281740000004,117.30761700000039,113.3334960000002,106.41015599999992,114.10253900000043,119.74365200000011,111.15380900000036,115.51269500000035,107.82031300000017,84.10253900000043,83.9741210000002
269,57.82031300000017,97.56396500000028,95.76904300000024,-28.846190999999635,114.74365200000011,112.30761700000039,101.6665039999998,111.6665039999998,114.74365200000011,114.48730499999965,113.58984400000008,106.6665039999998,83.9741210000002,83.9741210000002
270,55.897460999999566,97.82031300000017,94.61523400000078,-22.820557000000008,113.46142599999985,113.84619099999964,100.64111300000059,112.43603499999972,113.20507799999996,113.9741210000002,112.17968800000017,107.05126999999993,83.84619099999964,85.0
271,56.9228520000006,100.12841800000024,96.6665039999998,-16.794922000000042,113.20507799999996,116.9228520000006,102.82031300000017,114.23095699999976,114.23095699999976,109.35888699999941,111.6665039999998,107.43603499999972,82.56396500000028,86.15380900000036
272,58.46142599999985,101.0258789999998,100.12841800000024,-15.0,111.0258789999998,119.10253900000043,105.51269500000035,114.48730499999965,115.64111300000059,103.84619099999964,111.6665039999998,106.2822270000006,80.0,85.76904300000024
273,57.17968800000017,97.82031300000017,101.2822270000006,-18.58984399999963,104.35888699999941,118.58984400000008,106.15380900000036,111.53857400000015,114.87158199999976,100.51269500000035,111.15380900000036,103.58984400000008,76.41015599999992,82.69238299999961
274,51.153809000000365,90.64111300000059,97.17968800000017,-25.512939000000188,94.10253900000043,115.12841800000024,103.84619099999964,105.51269500000035,110.25634799999989,100.25634799999989,108.46142599999985,100.76904300000024,72.30761700000039,76.6665039999998
275,42.17968800000017,82.69238299999961,88.58984400000008,-31.41015600000037,84.74365200000011,110.12841800000024,100.12841800000024,98.84619099999964,102.30761700000039,101.53857400000015,103.20507799999996,99.35888699999941,68.20507799999996,69.35888699999941
276,34.48730499999965,77.43603499999972,80.0,-33.07690400000001,81.53857400000015,105.51269500000035,97.43603499999972,94.48730499999965,94.10253900000043,101.6665039999998,96.6665039999998,99.10253900000043,65.0,63.974121000000196
277,32.05126999999993,77.17968800000017,76.41015599999992,-30.512939000000188,86.2822270000006,103.58984400000008,96.6665039999998,94.48730499999965,89.61523400000078,98.9741210000002,91.79492200000004,98.84619099999964,63.974121000000196,62.43603499999972
278,36.153809000000365,82.05126999999993,79.23095699999976,-26.666747999999643,97.56396500000028,105.38476599999922,97.30761700000039,97.94873000000007,91.2822270000006,93.9741210000002,91.0258789999998,98.0771479999994,65.89746099999957,65.38476599999922
279,44.74365200000011,90.51269500000035,86.41015599999992,-24.358886999999868,110.89746099999957,110.25634799999989,98.3334960000002,103.0771479999994,97.69238299999961,89.87158199999976,94.35888699999941,97.05126999999993,70.64111300000059,71.53857400000015
280,54.61523400000078,100.12841800000024,94.23095699999976,-22.30761700000039,121.9228520000006,115.51269500000035,100.12841800000024,108.3334960000002,106.41015599999992,91.15380900000036,100.64111300000059,97.43603499999972,77.43603499999972,79.74365200000011
281,63.974121000000196,108.20507799999996,100.64111300000059,-17.179442999999992,127.69238299999961,118.3334960000002,103.58984400000008,114.61523400000078,115.12841800000024,99.87158199999976,108.0771479999994,100.89746099999957,84.87158199999976,88.9741210000002
282,71.2822270000006,112.94873000000007,105.12841800000024,-7.179442999999992,127.30761700000039,118.0771479999994,108.7177729999994,122.05126999999993,122.43603499999972,113.3334960000002,115.0,107.05126999999993,90.76904300000024,97.82031300000017
283,75.51269500000035,113.9741210000002,107.69238299999961,4.102539000000434,121.53857400000015,115.38476599999922,113.84619099999964,128.58984400000008,126.79492200000004,125.51269500000035,120.0,113.20507799999996,93.20507799999996,103.46142599999985
284,76.0258789999998,111.9228520000006,108.20507799999996,10.256347999999889,112.43603499999972,112.05126999999993,116.41015599999992,130.38476599999922,127.17968800000017,129.7436520000001,121.53857400000015,115.0,91.9228520000006,103.46142599999985
285,73.0771479999994,108.46142599999985,106.9228520000006,6.538574000000153,103.7177729999994,109.10253900000043,114.87158199999976,125.64111300000059,123.58984400000008,124.48730499999965,119.10253900000043,111.15380900000036,88.9741210000002,98.20507799999996
286,68.20507799999996,105.0,104.74365200000011,-5.0,99.61523400000078,106.79492200000004,110.12841800000024,116.41015599999992,117.56396500000028,113.7177729999994,114.10253900000043,104.35888699999941,86.79492200000004,90.76904300000024
287,63.333496000000196,102.56396500000028,102.30761700000039,-17.435790999999426,101.53857400000015,105.0,104.87158199999976,107.82031300000017,111.79492200000004,104.74365200000011,108.9741210000002,99.35888699999941,86.2822270000006,85.76904300000024
288,59.102539000000434,100.76904300000024,100.38476599999922,-23.974365000000034,107.82031300000017,103.46142599999985,100.89746099999957,104.48730499999965,108.9741210000002,102.17968800000017,105.51269500000035,98.46142599999985,86.0258789999998,84.87158199999976
289,55.897460999999566,98.46142599999985,98.84619099999964,-22.179442999999992,113.84619099999964,102.17968800000017,98.9741210000002,107.43603499999972,109.61523400000078,106.2822270000006,103.58984400000008,100.64111300000059,84.48730499999965,86.15380900000036
290,53.7177729999994,94.74365200000011,97.30761700000039,-15.0,115.51269500000035,101.41015599999992,99.10253900000043,113.46142599999985,112.56396500000028,112.94873000000007,102.17968800000017,102.94873000000007,81.79492200000004,86.0258789999998
291,53.0771479999994,90.76904300000024,95.76904300000024,-8.461425999999847,111.53857400000015,101.2822270000006,100.51269500000035,118.20507799999996,115.64111300000059,117.17968800000017,101.41015599999992,103.3334960000002,79.61523400000078,83.0771479999994
292,53.589844000000085,87.94873000000007,94.87158199999976,-7.307617000000391,105.38476599999922,101.53857400000015,102.56396500000028,119.35888699999941,117.82031300000017,116.2822270000006,102.05126999999993,101.6665039999998,79.61523400000078,79.23095699999976
293,54.35888699999941,86.53857400000015,95.12841800000024,-11.41015600000037,102.43603499999972,102.30761700000039,105.12841800000024,117.56396500000028,118.46142599999985,111.2822270000006,104.23095699999976,99.48730499999965,81.6665039999998,76.9228520000006
294,54.102539000000434,86.0258789999998,96.15380900000036,-16.794922000000042,106.53857400000015,103.9741210000002,107.17968800000017,115.38476599999922,117.82031300000017,105.51269500000035,107.30761700000039,97.82031300000017,83.9741210000002,77.05126999999993
295,51.9228520000006,85.89746099999957,97.30761700000039,-19.10253899999998,115.89746099999957,105.89746099999957,108.3334960000002,115.12841800000024,116.53857400000015,102.69238299999961,109.10253900000043,97.82031300000017,84.74365200000011,77.56396500000028
296,47.94873000000007,85.89746099999957,97.30761700000039,-17.564209000000574,123.58984400000008,107.56396500000028,107.69238299999961,116.53857400000015,114.74365200000011,103.0771479999994,107.94873000000007,99.35888699999941,83.3334960000002,75.89746099999957
297,42.94873000000007,85.38476599999922,95.12841800000024,-15.769286999999622,122.17968800000017,107.82031300000017,105.25634799999989,117.17968800000017,112.17968800000017,104.35888699999941,102.94873000000007,100.89746099999957,79.74365200000011,70.0
298,37.82031300000017,83.7177729999994,90.76904300000024,-18.205077999999958,110.12841800000024,106.0258789999998,101.79492200000004,113.7177729999994,108.20507799999996,103.0771479999994,94.87158199999976,100.51269500000035,74.35888699999941,60.897460999999566
299,34.23095699999976,80.76904300000024,85.38476599999922,-26.025634999999966,93.20507799999996,102.82031300000017,98.46142599999985,106.6665039999998,102.82031300000017,98.9741210000002,86.53857400000015,98.0771479999994,68.84619099999964,52.43603499999972
300,33.20507799999996,77.17968800000017,81.2822270000006,-35.25634799999989,80.38476599999922,100.12841800000024,96.53857400000015,99.61523400000078,98.3334960000002,94.10253900000043,81.0258789999998,94.87158199999976,65.25634799999989,48.589844000000085
301,34.23095699999976,74.10253900000043,79.87158199999976,-41.025634999999966,77.43603499999972,99.61523400000078,96.6665039999998,97.17968800000017,96.53857400000015,90.89746099999957,80.25634799999989,92.56396500000028,63.846190999999635,50.25634799999989
302,35.897460999999566,72.56396500000028,81.79492200000004,-40.51293900000019,83.9741210000002,100.76904300000024,98.7177729999994,100.12841800000024,97.69238299999961,88.7177729999994,82.69238299999961,92.17968800000017,63.0771479999994,54.74365200000011
303,36.666503999999804,73.7177729999994,86.2822270000006,-34.23071300000038,95.51269500000035,102.69238299999961,102.56396500000028,106.2822270000006,100.51269500000035,85.76904300000024,84.87158199999976,93.7177729999994,62.05126999999993,58.974121000000196
304,37.30761700000039,78.84619099999964,92.17968800000017,-24.487060999999812,107.82031300000017,104.74365200000011,107.30761700000039,112.94873000000007,103.9741210000002,82.17968800000017,85.64111300000059,96.6665039999998,62.17968800000017,62.69238299999961
305,39.23095699999976,86.9228520000006,98.0771479999994,-14.230713000000378,118.0771479999994,107.30761700000039,111.9228520000006,118.84619099999964,108.20507799999996,81.15380900000036,85.76904300000024,100.0,65.25634799999989,67.30761700000039
306,42.30761700000039,94.10253900000043,101.41015599999992,-7.692382999999609,123.7177729999994,109.61523400000078,114.10253900000043,122.69238299999961,111.6665039999998,85.76904300000024,87.17968800000017,101.79492200000004,70.12841800000024,72.56396500000028
307,43.846190999999635,95.38476599999922,99.10253900000043,-9.358886999999868,122.94873000000007,110.64111300000059,112.30761700000039,122.05126999999993,111.79492200000004,93.84619099999964,88.58984400000008,101.0258789999998,72.17968800000017,75.0
308,41.025878999999804,88.3334960000002,91.0258789999998,-20.0,116.41015599999992,109.74365200000011,106.41015599999992,115.76904300000024,106.79492200000004,99.74365200000011,87.43603499999972,98.3334960000002,67.56396500000028,70.51269500000035
309,34.48730499999965,76.6665039999998,81.0258789999998,-33.33325200000036,108.0771479999994,107.69238299999961,99.61523400000078,105.76904300000024,98.58984400000008,98.84619099999964,82.43603499999972,96.0258789999998,57.56396500000028,60.51269500000035
310,29.615234000000783,68.20507799999996,75.89746099999957,-40.38452099999995,102.30761700000039,106.53857400000015,96.41015599999992,97.30761700000039,92.30761700000039,92.56396500000028,77.17968800000017,96.15380900000036,48.974121000000196,51.53857400000015
311,32.05126999999993,69.10253900000043,80.25634799999989,-35.38452099999995,100.25634799999989,108.0771479999994,99.35888699999941,96.2822270000006,92.82031300000017,86.6665039999998,76.9228520000006,98.7177729999994,48.7177729999994,51.53857400000015
312,42.94873000000007,79.61523400000078,92.56396500000028,-22.30761700000039,100.64111300000059,112.43603499999972,106.6665039999998,103.58984400000008,100.51269500000035,86.9228520000006,85.0,102.05126999999993,58.7177729999994,63.0771479999994
313,57.17968800000017,93.3334960000002,105.89746099999957,-12.820557000000008,101.6665039999998,117.82031300000017,113.9741210000002,114.61523400000078,111.0258789999998,95.0,98.84619099999964,104.35888699999941,74.10253900000043,81.15380900000036
314,67.94873000000007,102.94873000000007,112.82031300000017,-19.358886999999868,103.20507799999996,121.53857400000015,117.17968800000017,122.30761700000039,119.10253900000043,106.9228520000006,111.9228520000006,105.0,86.9228520000006,97.05126999999993
315,71.6665039999998,105.38476599999922,111.41015599999992,-46.53857400000015,106.79492200000004,122.30761700000039,115.64111300000059,123.0771479999994,122.43603499999972,116.41015599999992,118.9741210000002,105.0,92.17968800000017,104.23095699999976
316,70.38476599999922,103.46142599999985,106.15380900000036,-87.17944299999999,113.9741210000002,120.51269500000035,112.43603499999972,119.10253900000043,122.82031300000017,119.23095699999976,119.48730499999965,106.53857400000015,90.89746099999957,102.56396500000028
317,69.87158199999976,103.0771479999994,103.46142599999985,-125.76928699999962,124.23095699999976,118.20507799999996,111.6665039999998,116.2822270000006,123.9741210000002,117.17968800000017,116.9228520000006,110.12841800000024,89.23095699999976,98.3334960000002
318,74.74365200000011,108.20507799999996,106.6665039999998,-147.820557,134.61523400000078,116.9228520000006,114.61523400000078,119.10253900000043,127.94873000000007,115.76904300000024,115.51269500000035,114.48730499999965,92.56396500000028,98.0771479999994
319,84.35888699999941,117.82031300000017,113.84619099999964,-149.8718259999996,141.15380900000036,117.05126999999993,119.10253900000043,127.05126999999993,133.20507799999996,118.46142599999985,116.41015599999992,117.43603499999972,100.89746099999957,103.20507799999996
320,91.6665039999998,125.38476599999922,119.10253900000043,-142.179443,140.12841800000024,117.94873000000007,120.76904300000024,134.10253900000043,135.51269500000035,122.56396500000028,117.56396500000028,116.6665039999998,107.82031300000017,108.46142599999985
321,89.74365200000011,123.84619099999964,117.94873000000007,-139.4870609999998,130.51269500000035,118.0771479999994,117.05126999999993,133.7177729999994,131.15380900000036,120.76904300000024,115.76904300000024,111.79492200000004,105.51269500000035,107.05126999999993
322,77.05126999999993,111.53857400000015,109.74365200000011,-150.2563479999999,115.25634799999989,116.53857400000015,108.7177729999994,123.7177729999994,120.25634799999989,108.58984400000008,109.61523400000078,104.74365200000011,91.53857400000015,96.41015599999992
323,60.0,94.61523400000078,98.9741210000002,-170.2563479999999,100.38476599999922,114.23095699999976,99.61523400000078,108.58984400000008,107.30761700000039,90.89746099999957,100.76904300000024,98.7177729999994,72.69238299999961,81.2822270000006
324,49.102539000000434,82.30761700000039,91.53857400000015,-188.33325200000036,91.53857400000015,113.0771479999994,94.23095699999976,96.41015599999992,98.84619099999964,79.61523400000078,93.84619099999964,96.53857400000015,60.64111300000059,70.89746099999957
325,50.25634799999989,80.64111300000059,91.41015599999992,-196.15380900000036,91.2822270000006,113.84619099999964,94.74365200000011,93.20507799999996,98.84619099999964,83.20507799999996,92.69238299999961,98.3334960000002,62.82031300000017,71.15380900000036
326,60.25634799999989,88.46142599999985,97.05126999999993,-194.61547900000005,97.05126999999993,115.25634799999989,99.35888699999941,98.84619099999964,105.64111300000059,99.35888699999941,97.17968800000017,102.05126999999993,77.17968800000017,80.51269500000035
327,70.25634799999989,99.74365200000011,104.35888699999941,-191.53857400000015,104.48730499999965,115.64111300000059,103.9741210000002,107.82031300000017,113.58984400000008,115.25634799999989,103.84619099999964,104.87158199999976,93.46142599999985,92.05126999999993
328,73.0771479999994,108.0771479999994,109.48730499999965,-194.10253899999998,110.76904300000024,115.12841800000024,105.51269500000035,114.10253900000043,117.56396500000028,119.23095699999976,108.7177729999994,105.64111300000059,101.6665039999998,99.10253900000043
329,69.87158199999976,111.79492200000004,112.30761700000039,-202.6923829999996,115.51269500000035,115.25634799999989,104.23095699999976,115.38476599999922,117.30761700000039,111.0258789999998,110.76904300000024,105.0,100.0,100.64111300000059
330,66.9228520000006,113.3334960000002,114.35888699999941,-212.179443,119.35888699999941,117.30761700000039,102.69238299999961,113.3334960000002,115.38476599999922,100.64111300000059,111.53857400000015,104.48730499999965,93.3334960000002,100.12841800000024
331,68.3334960000002,115.64111300000059,115.89746099999957,-217.56420900000057,122.05126999999993,119.87158199999976,102.69238299999961,110.0,114.35888699999941,98.0771479999994,111.53857400000015,104.48730499999965,88.0771479999994,100.38476599999922
332,71.6665039999998,118.58984400000008,115.0,-219.7436520000001,122.17968800000017,120.64111300000059,103.20507799999996,106.15380900000036,112.94873000000007,103.58984400000008,108.3334960000002,104.10253900000043,85.76904300000024,100.64111300000059
333,71.53857400000015,119.87158199999976,110.12841800000024,-223.71801800000003,120.0,118.46142599999985,102.30761700000039,100.89746099999957,108.58984400000008,108.0771479999994,99.87158199999976,102.43603499999972,83.9741210000002,98.3334960000002
334,65.38476599999922,118.7177729999994,103.20507799999996,-234.10253899999998,116.6665039999998,115.12841800000024,100.12841800000024,96.0258789999998,100.89746099999957,103.9741210000002,88.7177729999994,99.23095699999976,80.51269500000035,92.56396500000028
335,57.17968800000017,116.9228520000006,97.82031300000017,-250.64111300000013,114.48730499999965,114.35888699999941,99.10253900000043,94.74365200000011,93.9741210000002,93.0771479999994,81.0258789999998,96.0258789999998,76.79492200000004,86.53857400000015
336,53.46142599999985,117.05126999999993,96.6665039999998,-268.46142599999985,115.25634799999989,117.56396500000028,101.2822270000006,98.9741210000002,93.20507799999996,85.38476599999922,81.79492200000004,95.12841800000024,76.0258789999998,85.51269500000035
337,57.69238299999961,120.12841800000024,99.35888699999941,-281.923096,119.23095699999976,123.20507799999996,106.2822270000006,106.9228520000006,100.64111300000059,87.94873000000007,89.48730499999965,96.6665039999998,80.12841800000024,91.53857400000015
338,67.17968800000017,124.35888699999941,103.0771479999994,-288.71801800000003,124.87158199999976,127.94873000000007,110.89746099999957,114.23095699999976,111.6665039999998,97.94873000000007,97.43603499999972,99.87158199999976,86.79492200000004,100.76904300000024
339,75.12841800000024,127.05126999999993,105.0,-291.79492200000004,128.7177729999994,129.10253900000043,112.43603499999972,116.79492200000004,118.9741210000002,105.64111300000059,99.87158199999976,102.94873000000007,91.53857400000015,106.41015599999992
340,75.51269500000035,125.64111300000059,103.84619099999964,-297.179443,126.79492200000004,126.0258789999998,109.87158199999976,113.7177729999994,117.43603499999972,104.23095699999976,95.76904300000024,104.23095699999976,90.76904300000024,104.23095699999976
341,67.94873000000007,120.25634799999989,100.0,-309.2307130000004,117.43603499999972,120.89746099999957,105.12841800000024,107.17968800000017,108.46142599999985,95.64111300000059,88.58984400000008,102.82031300000017,84.61523400000078,95.76904300000024
342,58.0771479999994,113.20507799999996,94.74365200000011,-327.9487299999996,103.9741210000002,117.17968800000017,100.76904300000024,101.15380900000036,98.7177729999994,88.3334960000002,83.46142599999985,99.74365200000011,77.17968800000017,86.6665039999998
343,53.20507799999996,107.56396500000028,90.12841800000024,-348.71801800000003,92.94873000000007,117.82031300000017,98.84619099999964,98.84619099999964,95.0,89.23095699999976,83.0771479999994,96.9228520000006,72.94873000000007,82.05126999999993
344,55.51269500000035,104.74365200000011,87.56396500000028,-366.28198199999997,89.10253900000043,121.79492200000004,99.61523400000078,100.38476599999922,98.20507799999996,97.56396500000028,85.89746099999957,95.89746099999957,73.7177729999994,82.69238299999961
345,61.153809000000365,103.7177729999994,87.05126999999993,-377.820557,92.56396500000028,125.76904300000024,101.41015599999992,103.20507799999996,103.0771479999994,105.38476599999922,87.82031300000017,96.15380900000036,76.15380900000036,85.25634799999989
346,63.974121000000196,102.82031300000017,87.69238299999961,-383.97436500000003,98.58984400000008,126.53857400000015,102.17968800000017,103.46142599999985,103.20507799999996,104.61523400000078,85.0,96.15380900000036,76.0258789999998,85.12841800000024
347,61.025878999999804,100.64111300000059,87.82031300000017,-388.33325200000036,102.05126999999993,123.9741210000002,100.51269500000035,99.74365200000011,95.89746099999957,94.23095699999976,77.43603499999972,94.87158199999976,71.53857400000015,80.64111300000059
348,55.64111300000059,98.46142599999985,87.05126999999993,-394.4870609999998,101.9228520000006,120.64111300000059,97.30761700000039,94.48730499999965,85.38476599999922,81.2822270000006,69.87158199999976,92.56396500000028,65.76904300000024,74.87158199999976
349,53.589844000000085,99.10253900000043,86.53857400000015,-404.2307130000004,101.41015599999992,119.48730499999965,94.87158199999976,92.17968800000017,79.35888699999941,75.25634799999989,68.3334960000002,90.76904300000024,63.974121000000196,73.20507799999996
350,58.20507799999996,105.12841800000024,87.69238299999961,-417.0512700000004,104.10253900000043,122.17968800000017,95.51269500000035,95.12841800000024,83.0771479999994,79.61523400000078,74.61523400000078,91.6665039999998,68.20507799999996,78.46142599999985
351,67.56396500000028,116.15380900000036,91.0258789999998,-431.15380900000036,110.89746099999957,127.69238299999961,98.9741210000002,102.05126999999993,94.10253900000043,89.61523400000078,85.64111300000059,96.0258789999998,76.9228520000006,88.46142599999985
352,76.2822270000006,128.20507799999996,95.64111300000059,-443.97436500000003,118.58984400000008,133.3334960000002,103.3334960000002,108.7177729999994,105.38476599999922,97.69238299999961,95.76904300000024,101.9228520000006,85.89746099999957,97.82031300000017
353,79.87158199999976,135.89746099999957,100.0,-453.97436500000003,123.20507799999996,135.76904300000024,106.2822270000006,111.6665039999998,110.38476599999922,100.64111300000059,101.2822270000006,106.15380900000036,91.79492200000004,102.05126999999993
354,76.9228520000006,135.0,101.41015599999992,-462.4357909999994,121.41015599999992,133.0771479999994,106.6665039999998,109.87158199999976,107.30761700000039,100.25634799999989,101.79492200000004,105.38476599999922,92.82031300000017,99.61523400000078
355,69.35888699999941,125.12841800000024,97.94873000000007,-473.33325200000036,113.0771479999994,126.2822270000006,105.0,104.35888699999941,98.7177729999994,98.84619099999964,97.56396500000028,99.23095699999976,88.7177729999994,91.79492200000004
356,60.25634799999989,109.87158199999976,89.87158199999976,-491.923096,102.17968800000017,118.7177729999994,101.79492200000004,96.53857400000015,88.84619099999964,95.38476599999922,89.48730499999965,90.76904300000024,80.51269500000035,81.9228520000006
357,52.30761700000039,96.0258789999998,79.74365200000011,-519.7436520000001,94.35888699999941,114.61523400000078,98.46142599999985,88.84619099999964,81.53857400000015,88.3334960000002,79.87158199999976,84.35888699999941,70.89746099999957,73.3334960000002
358,47.30761700000039,89.48730499999965,72.05126999999993,-553.718018,93.7177729999994,116.15380900000036,95.89746099999957,84.23095699999976,79.10253900000043,80.25634799999989,72.82031300000017,83.20507799999996,64.10253900000043,68.58984400000008
359,46.153809000000365,92.94873000000007,70.25634799999989,-586.1538090000004,100.25634799999989,122.56396500000028,95.64111300000059,85.12841800000024,82.82031300000017,77.43603499999972,72.69238299999961,87.69238299999961,63.7177729999994,69.10253900000043
360,49.23095699999976,103.84619099999964,74.35888699999941,-609.7436520000001,110.64111300000059,130.51269500000035,98.9741210000002,92.43603499999972,92.17968800000017,84.10253900000043,80.38476599999922,95.12841800000024,70.51269500000035,74.23095699999976
361,55.76904300000024,116.53857400000015,82.05126999999993,-621.4101560000004,120.64111300000059,135.51269500000035,105.38476599999922,104.48730499999965,104.61523400000078,98.0771479999994,92.69238299999961,101.53857400000015,81.9228520000006,81.9228520000006
362,63.20507799999996,124.87158199999976,89.10253900000043,-624.2307130000004,124.87158199999976,135.38476599999922,112.56396500000028,116.53857400000015,116.15380900000036,111.41015599999992,103.20507799999996,103.58984400000008,92.69238299999961,88.7177729999994
363,68.3334960000002,125.25634799999989,92.05126999999993,-625.5129390000002,119.87158199999976,130.89746099999957,116.9228520000006,122.94873000000007,122.30761700000039,116.79492200000004,106.15380900000036,101.53857400000015,98.46142599999985,91.9228520000006
364,69.23095699999976,118.7177729999994,90.76904300000024,-630.6411130000001,106.79492200000004,125.12841800000024,116.2822270000006,120.89746099999957,121.0258789999998,112.56396500000028,101.2822270000006,98.0771479999994,97.43603499999972,90.76904300000024
365,66.9228520000006,110.12841800000024,87.43603499999972,-639.102539,93.58984400000008,121.6665039999998,111.2822270000006,112.43603499999972,113.7177729999994,103.58984400000008,93.46142599999985,95.76904300000024,92.17968800000017,87.82031300000017
366,63.974121000000196,105.64111300000059,85.12841800000024,-646.025635,89.10253900000043,121.9228520000006,105.38476599999922,103.7177729999994,105.0,96.79492200000004,88.58984400000008,96.0258789999998,86.9228520000006,85.89746099999957
367,62.94873000000007,107.82031300000017,84.61523400000078,-647.179443,96.9228520000006,124.87158199999976,102.69238299999961,100.38476599999922,99.10253900000043,96.41015599999992,88.84619099999964,97.82031300000017,85.0,85.76904300000024
368,63.7177729999994,113.84619099999964,85.25634799999989,-642.3076170000004,111.79492200000004,128.58984400000008,104.61523400000078,103.7177729999994,98.0771479999994,101.15380900000036,91.79492200000004,98.9741210000002,86.53857400000015,86.15380900000036
369,64.48730499999965,118.58984400000008,85.76904300000024,-633.8461909999996,123.46142599999985,131.0258789999998,109.61523400000078,110.12841800000024,100.38476599999922,105.76904300000024,93.58984400000008,98.0771479999994,88.58984400000008,85.38476599999922
370,63.333496000000196,117.82031300000017,86.2822270000006,-624.7436520000001,123.9741210000002,130.89746099999957,113.84619099999964,114.74365200000011,103.46142599999985,105.89746099999957,92.56396500000028,95.38476599999922,88.84619099999964,82.94873000000007
371,60.0,111.2822270000006,88.0771479999994,-616.6667479999996,112.56396500000028,128.3334960000002,115.0,115.51269500000035,104.61523400000078,101.53857400000015,89.87158199999976,92.94873000000007,86.9228520000006,80.25634799999989
372,55.76904300000024,102.56396500000028,91.53857400000015,-610.6411130000001,97.17968800000017,124.87158199999976,113.7177729999994,113.7177729999994,103.58984400000008,97.30761700000039,87.94873000000007,92.82031300000017,84.23095699999976,78.58984400000008
373,53.0771479999994,96.6665039999998,95.76904300000024,-606.794922,88.7177729999994,122.69238299999961,112.43603499999972,111.6665039999998,101.9228520000006,97.43603499999972,88.84619099999964,96.2822270000006,82.30761700000039,78.58984400000008
374,53.589844000000085,96.53857400000015,99.35888699999941,-605.0,93.20507799999996,122.82031300000017,113.58984400000008,111.2822270000006,101.79492200000004,101.53857400000015,92.82031300000017,102.05126999999993,82.05126999999993,79.87158199999976
375,56.666503999999804,101.41015599999992,100.51269500000035,-605.2563479999999,107.17968800000017,124.74365200000011,116.53857400000015,112.43603499999972,103.7177729999994,105.0,97.17968800000017,106.53857400000015,83.46142599999985,81.2822270000006
376,58.7177729999994,106.2822270000006,98.3334960000002,-607.6923829999996,119.10253900000043,126.6665039999998,117.82031300000017,112.56396500000028,105.38476599999922,102.69238299999961,98.20507799999996,106.41015599999992,84.35888699999941,80.64111300000059
377,56.410155999999915,105.89746099999957,92.82031300000017,-613.205078,118.3334960000002,126.15380900000036,113.84619099999964,108.58984400000008,103.7177729999994,93.84619099999964,92.56396500000028,100.51269500000035,81.41015599999992,75.89746099999957
378,49.87158199999976,99.10253900000043,85.76904300000024,-621.4101560000004,103.7177729999994,123.0771479999994,104.87158199999976,100.51269500000035,98.20507799999996,83.20507799999996,81.41015599999992,92.05126999999993,72.69238299999961,67.43603499999972
379,43.974121000000196,91.6665039999998,81.0258789999998,-629.102539,85.76904300000024,119.23095699999976,96.2822270000006,92.69238299999961,92.30761700000039,77.43603499999972,70.25634799999989,86.15380900000036,60.76904300000024,60.0
380,44.87158199999976,90.76904300000024,81.9228520000006,-631.6667479999996,77.82031300000017,116.9228520000006,93.9741210000002,91.15380900000036,91.6665039999998,81.79492200000004,66.41015599999992,86.79492200000004,51.9228520000006,59.87158199999976
381,53.974121000000196,98.9741210000002,88.84619099999964,-627.3076170000004,84.74365200000011,116.79492200000004,99.87158199999976,97.94873000000007,98.7177729999994,95.51269500000035,73.3334960000002,92.82031300000017,51.410155999999915,69.48730499999965
382,66.53857400000015,111.41015599999992,98.20507799999996,-618.8461909999996,98.3334960000002,117.94873000000007,109.48730499999965,109.23095699999976,110.38476599999922,112.56396500000028,87.82031300000017,100.25634799999989,59.23095699999976,84.48730499999965
383,75.89746099999957,120.12841800000024,105.89746099999957,-612.9487299999996,105.89746099999957,119.35888699999941,116.53857400000015,118.0771479999994,120.38476599999922,124.61523400000078,102.43603499999972,104.87158199999976,70.0,96.41015599999992
