,EEG.AF3,EEG.F7,EEG.F3,EEG.FC5,EEG.T7,EEG.P7,EEG.O1,EEG.O2,EEG.P8,EEG.T8,EEG.FC6,EEG.F4,EEG.F8,EEG.AF4
0,107.82031300000017,145.12841800000024,100.64111300000059,105.76904300000024,76.0258789999998,111.2822270000006,85.89746099999957,62.82031300000017,55.64111300000059,68.3334960000002,42.94873000000007,95.64111300000059,-26.28198199999997,91.9228520000006
1,99.74365200000011,143.3334960000002,93.84619099999964,112.17968800000017,84.87158199999976,109.61523400000078,81.15380900000036,58.333496000000196,44.87158199999976,57.17968800000017,31.538574000000153,91.15380900000036,-29.358886999999868,85.76904300000024
2,104.48730499999965,151.9228520000006,95.38476599999922,127.82031300000017,113.9741210000002,112.05126999999993,83.7177729999994,65.76904300000024,54.61523400000078,60.897460999999566,32.30761700000039,90.89746099999957,-17.69238299999961,90.51269500000035
3,115.38476599999922,161.15380900000036,102.17968800000017,141.41015599999992,139.23095699999976,116.79492200000004,90.0,78.46142599999985,75.25634799999989,74.61523400000078,40.897460999999566,93.7177729999994,-1.4101559999999154,99.61523400000078
4,121.79492200000004,162.17968800000017,106.9228520000006,142.3076170000004,136.9228520000006,119.10253900000043,93.46142599999985,85.76904300000024,89.74365200000011,86.15380900000036,47.94873000000007,96.15380900000036,6.025878999999804,103.7177729999994
5,116.15380900000036,153.0771479999994,103.84619099999964,127.43603499999972,103.58984400000008,115.64111300000059,90.64111300000059,80.51269500000035,85.64111300000059,84.10253900000043,45.51269500000035,94.61523400000078,-1.5385740000001533,97.56396500000028
6,100.25634799999989,139.61523400000078,93.46142599999985,104.48730499999965,60.897460999999566,107.05126999999993,83.58984400000008,65.0,64.87158199999976,66.53857400000015,33.846190999999635,88.9741210000002,-19.230713000000378,83.20507799999996
7,85.12841800000024,131.6665039999998,83.84619099999964,87.05126999999993,42.17968800000017,98.3334960000002,79.10253900000043,50.38476599999922,43.20507799999996,45.76904300000024,21.410155999999915,83.3334960000002,-33.71801800000003,70.25634799999989
8,82.82031300000017,136.79492200000004,84.35888699999941,85.51269500000035,66.2822270000006,95.12841800000024,82.43603499999972,48.333496000000196,39.102539000000434,39.74365200000011,19.871581999999762,82.30761700000039,-33.46142599999985,69.48730499999965
9,97.69238299999961,153.84619099999964,97.43603499999972,98.9741210000002,123.7177729999994,100.0,92.43603499999972,62.43603499999972,58.974121000000196,57.30761700000039,34.102539000000434,87.69238299999961,-16.41015600000037,84.23095699999976
10,123.58984400000008,174.7436520000001,116.6665039999998,117.69238299999961,184.7436520000001,111.0258789999998,103.7177729999994,86.41015599999992,92.17968800000017,90.51269500000035,59.48730499999965,97.05126999999993,8.846190999999635,108.3334960000002
11,147.43603499999972,189.23095699999976,131.15380900000036,132.05126999999993,221.2822270000006,122.69238299999961,110.38476599999922,107.94873000000007,119.87158199999976,121.53857400000015,83.20507799999996,105.38476599999922,29.615234000000783,129.87158199999976
12,156.15380900000036,190.12841800000024,132.43603499999972,137.3076170000004,220.0,128.3334960000002,109.48730499999965,115.51269500000035,126.9228520000006,137.56396500000028,91.41015599999992,108.3334960000002,35.12841800000024,136.9228520000006
13,142.6923829999996,176.15380900000036,118.7177729999994,133.3334960000002,184.23095699999976,123.20507799999996,101.15380900000036,102.69238299999961,109.74365200000011,135.0,76.2822270000006,103.7177729999994,21.666503999999804,122.82031300000017
14,110.12841800000024,153.20507799999996,96.2822270000006,122.05126999999993,129.10253900000043,107.94873000000007,88.20507799999996,73.20507799999996,75.0,116.6665039999998,42.30761700000039,93.46142599999985,-4.871825999999601,90.64111300000059
15,73.84619099999964,133.0771479999994,76.9228520000006,108.20507799999996,78.0771479999994,89.74365200000011,75.89746099999957,40.51269500000035,36.025878999999804,88.9741210000002,6.538574000000153,82.69238299999961,-30.38452099999995,54.61523400000078
16,53.7177729999994,127.05126999999993,71.15380900000036,99.10253900000043,56.2822270000006,78.46142599999985,70.25634799999989,21.922852000000603,9.487304999999651,62.43603499999972,-11.025634999999966,77.05126999999993,-40.64111300000013,34.23095699999976
17,60.25634799999989,137.05126999999993,80.76904300000024,99.87158199999976,76.6665039999998,80.12841800000024,74.74365200000011,27.17968800000017,7.051269999999931,49.35888699999941,-0.6411130000005869,79.61523400000078,-31.666747999999643,40.76904300000024
18,86.6665039999998,153.7177729999994,97.69238299999961,108.46142599999985,128.46142599999985,93.20507799999996,86.9228520000006,50.64111300000059,28.333496000000196,57.30761700000039,29.358886999999413,87.94873000000007,-11.41015600000037,68.20507799999996
19,113.7177729999994,165.38476599999922,110.25634799999989,118.46142599999985,183.46142599999985,110.38476599999922,99.87158199999976,76.41015599999992,59.74365200000011,82.30761700000039,58.333496000000196,96.2822270000006,7.307617000000391,97.17968800000017
20,125.64111300000059,169.87158199999976,112.05126999999993,124.48730499999965,213.9741210000002,123.84619099999964,107.17968800000017,91.0258789999998,83.9741210000002,113.3334960000002,70.64111300000059,100.25634799999989,18.077147999999397,110.25634799999989
21,121.41015599999992,174.61523400000078,106.2822270000006,127.17968800000017,209.3588869999994,129.3588869999994,107.94873000000007,92.56396500000028,92.17968800000017,140.38476599999922,67.05126999999993,99.61523400000078,25.25634799999989,105.38476599999922
22,112.43603499999972,185.76904300000024,101.0258789999998,128.9741210000002,177.43603499999972,126.41015599999992,105.89746099999957,88.58984400000008,88.9741210000002,160.12841800000024,60.51269500000035,97.69238299999961,36.79492200000004,94.87158199999976
23,110.0,197.94873000000007,100.25634799999989,129.87158199999976,137.43603499999972,117.56396500000028,104.10253900000043,86.15380900000036,84.35888699999941,171.41015599999992,61.79492200000004,97.56396500000028,52.69238299999961,91.79492200000004
24,115.38476599999922,198.58984400000008,102.05126999999993,128.0771479999994,111.53857400000015,107.05126999999993,102.56396500000028,85.25634799999989,83.46142599999985,170.6411130000006,68.9741210000002,99.10253900000043,60.897460999999566,98.20507799999996
25,120.25634799999989,182.3076170000004,101.41015599999992,122.17968800000017,114.10253900000043,98.9741210000002,99.35888699999941,81.6665039999998,83.0771479999994,154.3588869999994,70.25634799999989,99.61523400000078,47.17968800000017,104.87158199999976
26,114.23095699999976,158.20507799999996,95.51269500000035,112.05126999999993,138.9741210000002,95.38476599999922,93.0771479999994,72.17968800000017,77.17968800000017,126.6665039999998,55.897460999999566,96.6665039999998,8.333496000000196,99.61523400000078
27,95.51269500000035,140.38476599999922,86.6665039999998,97.69238299999961,162.17968800000017,96.2822270000006,85.38476599999922,58.974121000000196,64.10253900000043,102.30761700000039,28.333496000000196,90.25634799999989,-38.846190999999635,79.87158199999976
28,75.12841800000024,137.17968800000017,81.79492200000004,81.9228520000006,162.05126999999993,100.89746099999957,81.2822270000006,50.12841800000024,50.25634799999989,97.05126999999993,5.0,84.48730499999965,-65.64111300000013,57.69238299999961
29,70.0,149.87158199999976,87.82031300000017,71.6665039999998,140.89746099999957,108.58984400000008,86.0258789999998,54.87158199999976,46.9228520000006,114.23095699999976,6.666503999999804,84.48730499999965,-51.025634999999966,51.666503999999804
30,89.48730499999965,176.2822270000006,105.0,73.58984400000008,123.58984400000008,116.79492200000004,100.76904300000024,74.74365200000011,60.64111300000059,140.6411130000006,38.974121000000196,91.6665039999998,-1.0258789999998044,72.43603499999972
31,124.23095699999976,210.51269500000035,123.9741210000002,87.30761700000039,134.23095699999976,121.41015599999992,117.94873000000007,99.87158199999976,86.53857400000015,155.76904300000024,83.46142599999985,102.05126999999993,51.9228520000006,110.38476599999922
32,150.6411130000006,242.6923829999996,132.3076170000004,102.82031300000017,174.61523400000078,119.48730499999965,126.53857400000015,115.0,109.87158199999976,147.82031300000017,109.23095699999976,108.20507799999996,71.41015599999992,140.6411130000006
33,149.87158199999976,266.0258789999998,125.51269500000035,109.10253900000043,224.3588869999994,112.94873000000007,121.15380900000036,111.79492200000004,116.9228520000006,124.74365200000011,98.46142599999985,106.53857400000015,48.20507799999996,141.79492200000004
34,123.0771479999994,284.48730499999965,110.76904300000024,103.46142599999985,257.5639650000003,107.43603499999972,108.20507799999996,97.17968800000017,106.2822270000006,110.51269500000035,63.333496000000196,99.48730499999965,8.333496000000196,113.0771479999994
35,90.0,308.3334960000002,100.25634799999989,92.17968800000017,257.94873000000007,106.6665039999998,99.10253900000043,84.61523400000078,88.46142599999985,125.38476599999922,34.35888699999941,93.46142599999985,-8.076904000000013,75.25634799999989
36,70.89746099999957,340.76904300000024,100.12841800000024,82.94873000000007,222.17968800000017,108.84619099999964,99.23095699999976,82.05126999999993,75.38476599999922,163.0771479999994,32.69238299999961,92.30761700000039,17.30761700000039,52.69238299999961
37,73.58984400000008,375.89746099999957,108.58984400000008,79.10253900000043,162.82031300000017,109.48730499999965,105.76904300000024,87.30761700000039,72.82031300000017,192.6923829999996,54.87158199999976,95.12841800000024,68.84619099999964,56.9228520000006
38,93.58984400000008,410.76904300000024,121.6665039999998,80.76904300000024,108.20507799999996,107.69238299999961,113.84619099999964,96.6665039999998,82.05126999999993,188.9741210000002,82.43603499999972,99.23095699999976,114.87158199999976,82.69238299999961
39,120.12841800000024,455.2563479999999,137.43603499999972,87.17968800000017,93.3334960000002,107.17968800000017,122.17968800000017,110.25634799999989,101.79492200000004,158.84619099999964,101.2822270000006,103.46142599999985,134.7436520000001,115.76904300000024
40,142.3076170000004,521.2822270000006,153.0771479999994,92.94873000000007,134.3588869999994,112.05126999999993,130.51269500000035,127.69238299999961,128.20507799999996,134.3588869999994,108.58984400000008,108.20507799999996,130.38476599999922,141.79492200000004
41,150.0,606.2822270000006,162.43603499999972,87.69238299999961,211.0258789999998,121.0258789999998,136.0258789999998,141.53857400000015,150.51269500000035,138.7177729999994,106.6665039999998,112.30761700000039,117.94873000000007,151.0258789999998
42,137.3076170000004,691.4101559999999,158.7177729999994,63.0771479999994,278.20507799999996,128.0771479999994,133.7177729999994,139.61523400000078,155.2563479999999,162.82031300000017,93.9741210000002,112.17968800000017,112.43603499999972,140.2563479999999
43,106.2822270000006,759.4873049999997,141.15380900000036,23.077147999999397,298.20507799999996,127.05126999999993,120.64111300000059,115.51269500000035,134.61523400000078,176.79492200000004,68.20507799999996,104.48730499999965,120.12841800000024,113.46142599999985
44,68.7177729999994,811.4101559999999,118.46142599999985,-15.512939000000188,264.7436520000001,116.6665039999998,100.51269500000035,77.05126999999993,94.35888699999941,159.61523400000078,34.35888699999941,91.0258789999998,138.7177729999994,82.43603499999972
45,42.05126999999993,862.0512699999999,104.61523400000078,-34.10253899999998,202.17968800000017,101.9228520000006,81.9228520000006,44.23095699999976,52.94873000000007,119.48730499999965,6.666503999999804,78.9741210000002,163.46142599999985,65.12841800000024
46,39.61523400000078,923.205078,110.12841800000024,-26.153809000000365,148.46142599999985,91.0258789999998,74.23095699999976,36.2822270000006,31.410155999999915,86.9228520000006,0.769043000000238,75.89746099999957,192.3076170000004,78.84619099999964
47,61.53857400000015,992.5639650000003,134.61523400000078,0.256347999999889,135.0,89.48730499999965,81.2822270000006,58.46142599999985,40.51269500000035,87.05126999999993,21.538574000000153,83.84619099999964,226.9228520000006,129.61523400000078
48,94.48730499999965,1059.2309569999998,166.53857400000015,31.666503999999804,169.87158199999976,96.53857400000015,98.84619099999964,97.56396500000028,73.46142599999985,119.35888699999941,59.61523400000078,97.82031300000017,269.6152340000008,206.79492200000004
49,118.7177729999994,1113.9741210000002,190.51269500000035,58.20507799999996,231.15380900000036,105.12841800000024,116.9228520000006,130.38476599999922,110.0,159.23095699999976,95.25634799999989,109.61523400000078,317.4360349999997,285.6411130000006
50,120.25634799999989,1151.5385740000002,195.51269500000035,77.69238299999961,279.7436520000001,107.69238299999961,124.61523400000078,137.94873000000007,129.7436520000001,178.0771479999994,108.7177729999994,112.82031300000017,359.87158199999976,340.3847659999992
51,99.23095699999976,1172.3076170000004,181.53857400000015,93.7177729999994,287.17968800000017,102.05126999999993,117.05126999999993,117.56396500000028,123.9741210000002,164.3588869999994,92.17968800000017,106.6665039999998,385.0,358.3334960000002
52,69.87158199999976,1186.2822270000006,160.38476599999922,112.05126999999993,254.23095699999976,93.9741210000002,99.10253900000043,85.12841800000024,100.89746099999957,129.7436520000001,56.666503999999804,97.17968800000017,390.51269500000035,347.17968800000017
53,49.74365200000011,1210.0,146.15380900000036,136.0258789999998,206.41015599999992,91.2822270000006,82.82031300000017,62.82031300000017,77.30761700000039,98.3334960000002,23.846190999999635,91.9228520000006,385.3847659999992,327.94873000000007
54,47.17968800000017,1251.0258789999998,145.6411130000006,164.23095699999976,173.7177729999994,96.9228520000006,78.3334960000002,61.666503999999804,65.76904300000024,88.20507799999996,9.102539000000434,94.10253900000043,382.6923829999996,319.7436520000001
55,58.0771479999994,1297.4360349999997,155.2563479999999,190.76904300000024,172.17968800000017,107.43603499999972,86.6665039999998,76.2822270000006,68.3334960000002,101.53857400000015,12.307617000000391,100.38476599999922,390.89746099999957,328.0771479999994
56,72.05126999999993,1327.94873,166.6665039999998,211.0258789999998,200.6411130000006,117.05126999999993,100.89746099999957,92.82031300000017,79.23095699999976,126.15380900000036,22.43603499999972,105.38476599999922,410.76904300000024,345.0
57,82.30761700000039,1334.8715819999998,174.23095699999976,223.9741210000002,243.9741210000002,121.0258789999998,112.82031300000017,101.79492200000004,90.64111300000059,145.89746099999957,30.128418000000238,106.2822270000006,437.82031300000017,359.10253900000043
58,88.46142599999985,1332.05127,178.3334960000002,231.9228520000006,281.6665039999998,117.94873000000007,117.56396500000028,103.3334960000002,97.17968800000017,150.38476599999922,32.94873000000007,104.61523400000078,464.10253900000043,364.23095699999976
59,92.43603499999972,1338.205078,180.38476599999922,236.15380900000036,296.2822270000006,109.61523400000078,114.87158199999976,101.79492200000004,96.79492200000004,138.58984400000008,31.666503999999804,102.94873000000007,481.9228520000006,361.9228520000006
60,93.84619099999964,1356.794922,181.0258789999998,235.0,283.84619099999964,100.76904300000024,107.56396500000028,100.51269500000035,91.79492200000004,118.0771479999994,26.282227000000603,102.30761700000039,488.9741210000002,357.4360349999997
61,91.9228520000006,1376.1538090000004,180.38476599999922,229.10253900000043,259.48730499999965,97.56396500000028,100.89746099999957,100.89746099999957,88.84619099999964,103.3334960000002,17.94873000000007,102.30761700000039,492.17968800000017,354.7436520000001
62,88.9741210000002,1385.8974609999996,180.6411130000006,223.7177729999994,248.46142599999985,102.94873000000007,100.0,104.61523400000078,95.89746099999957,108.58984400000008,11.025878999999804,102.94873000000007,504.10253900000043,355.89746099999957
63,88.0771479999994,1386.5385740000002,182.56396500000028,224.61523400000078,262.4360349999997,113.46142599999985,105.0,110.89746099999957,112.30761700000039,134.10253900000043,9.230956999999762,104.87158199999976,529.2309569999998,359.3588869999994
64,87.82031300000017,1382.8203130000002,182.3076170000004,228.84619099999964,285.89746099999957,120.51269500000035,109.10253900000043,114.10253900000043,125.25634799999989,158.3334960000002,8.461425999999847,106.6665039999998,556.1538090000004,358.46142599999985
65,81.2822270000006,1376.1538090000004,174.3588869999994,226.0258789999998,289.87158199999976,117.30761700000039,104.48730499999965,105.76904300000024,118.0771479999994,153.0771479999994,-1.6665039999998044,105.64111300000059,565.5126950000003,345.89746099999957
66,65.12841800000024,1366.410156,158.7177729999994,210.2563479999999,262.05126999999993,105.25634799999989,90.64111300000059,84.87158199999976,87.17968800000017,111.15380900000036,-26.025634999999966,100.51269500000035,549.2309569999998,321.2822270000006
67,46.410155999999915,1359.2309569999998,143.84619099999964,189.10253900000043,219.7436520000001,93.7177729999994,77.17968800000017,62.05126999999993,49.48730499999965,58.974121000000196,-54.61547900000005,93.9741210000002,522.6923829999996,296.0258789999998
68,40.51269500000035,1363.205078,139.87158199999976,178.0771479999994,194.48730499999965,92.94873000000007,75.25634799999989,53.589844000000085,31.794922000000042,36.2822270000006,-67.82055700000001,91.6665039999998,514.1025390000004,286.6665039999998
69,56.79492200000004,1380.7690430000002,150.12841800000024,186.53857400000015,206.9228520000006,105.25634799999989,88.9741210000002,68.3334960000002,48.589844000000085,62.30761700000039,-53.46142599999985,96.6665039999998,540.5126950000003,302.5639650000003
70,89.48730499999965,1403.589844,168.0771479999994,209.87158199999976,255.12841800000024,123.9741210000002,110.64111300000059,100.12841800000024,90.25634799999989,121.6665039999998,-18.333252000000357,107.17968800000017,592.8203130000002,336.53857400000015
71,120.0,1420.5126950000003,182.17968800000017,232.43603499999972,318.0771479999994,138.20507799999996,127.56396500000028,131.6665039999998,130.2563479999999,178.7177729999994,16.666503999999804,117.43603499999972,644.2309569999998,368.84619099999964
72,130.2563479999999,1426.1538090000004,183.20507799999996,238.0771479999994,364.48730499999965,140.12841800000024,130.51269500000035,146.6665039999998,144.7436520000001,204.7436520000001,31.538574000000153,122.30761700000039,670.2563479999999,380.2563479999999
73,114.74365200000011,1420.3847659999992,170.76904300000024,219.87158199999976,367.5639650000003,128.84619099999964,119.48730499999965,139.10253900000043,128.0771479999994,192.94873000000007,18.717772999999397,119.23095699999976,663.205078,365.51269500000035
74,83.84619099999964,1404.4873049999997,152.05126999999993,183.84619099999964,323.0771479999994,111.79492200000004,101.9228520000006,114.35888699999941,94.35888699999941,154.10253900000043,-13.71801800000003,110.0,632.4360349999997,334.87158199999976
75,56.025878999999804,1381.1538090000004,137.3076170000004,146.53857400000015,255.89746099999957,99.74365200000011,87.56396500000028,85.64111300000059,65.51269500000035,106.41015599999992,-48.58984399999963,99.74365200000011,597.6923829999996,306.0258789999998
76,45.51269500000035,1357.8203130000002,133.20507799999996,125.64111300000059,206.2822270000006,99.74365200000011,83.46142599999985,65.76904300000024,55.897460999999566,68.7177729999994,-68.97436500000003,94.23095699999976,578.205078,292.17968800000017
77,52.17968800000017,1343.8461909999996,138.7177729999994,128.3334960000002,201.53857400000015,110.25634799999989,89.61523400000078,59.74365200000011,63.46142599999985,54.74365200000011,-69.23071300000038,95.89746099999957,582.0512699999999,294.10253900000043
78,65.0,1343.8461909999996,147.56396500000028,146.9228520000006,238.3334960000002,122.94873000000007,100.0,65.0,75.76904300000024,69.74365200000011,-56.79492200000004,102.43603499999972,602.5639650000003,303.20507799999996
79,73.20507799999996,1353.9741210000002,153.46142599999985,163.46142599999985,289.10253900000043,129.7436520000001,107.43603499999972,74.87158199999976,82.94873000000007,106.53857400000015,-43.58984399999963,108.84619099999964,626.0258789999998,309.87158199999976
80,75.0,1366.0258789999998,154.7436520000001,163.7177729999994,323.0771479999994,128.3334960000002,108.0771479999994,84.61523400000078,85.0,146.9228520000006,-36.28198199999997,112.17968800000017,643.9741210000002,311.79492200000004
81,75.89746099999957,1372.94873,154.48730499999965,147.94873000000007,325.0,121.79492200000004,103.9741210000002,92.30761700000039,88.0771479999994,169.10253900000043,-33.20507799999996,112.05126999999993,656.6665039999998,312.94873000000007
82,81.6665039999998,1372.3076170000004,156.41015599999992,128.84619099999964,301.4101559999999,115.64111300000059,99.48730499999965,97.43603499999972,94.48730499999965,161.9228520000006,-28.461425999999847,110.76904300000024,667.3076170000004,317.94873000000007
83,91.41015599999992,1366.2822270000006,161.2822270000006,120.25634799999989,275.51269500000035,113.20507799999996,98.7177729999994,99.35888699999941,100.12841800000024,133.58984400000008,-19.74365200000011,110.25634799999989,675.7690430000002,326.4101559999999
84,99.10253900000043,1360.6411130000006,166.15380900000036,126.0258789999998,270.12841800000024,113.9741210000002,102.69238299999961,98.0771479999994,98.84619099999964,105.76904300000024,-9.743652000000111,111.79492200000004,678.7177729999994,332.4360349999997
85,99.74365200000011,1359.6152340000008,168.20507799999996,138.3334960000002,291.2822270000006,115.64111300000059,109.74365200000011,95.76904300000024,90.0,97.69238299999961,-3.846190999999635,115.0,674.2309569999998,331.6665039999998
86,94.48730499999965,1363.205078,166.79492200000004,146.2822270000006,321.2822270000006,116.79492200000004,116.6665039999998,95.89746099999957,81.41015599999992,113.3334960000002,-4.358886999999868,118.0771479999994,665.1284180000002,325.6411130000006
87,88.84619099999964,1366.1538090000004,163.84619099999964,144.3588869999994,332.5639650000003,117.56396500000028,120.64111300000059,100.12841800000024,82.17968800000017,139.87158199999976,-8.846190999999635,119.10253900000043,657.9487300000001,319.3588869999994
88,86.15380900000036,1361.1538090000004,159.87158199999976,133.84619099999964,310.51269500000035,119.10253900000043,120.38476599999922,105.64111300000059,93.84619099999964,156.79492200000004,-13.974365000000034,117.05126999999993,657.6923829999996,315.76904300000024
89,85.38476599999922,1344.4873049999997,154.7436520000001,121.2822270000006,266.9228520000006,120.89746099999957,116.41015599999992,106.79492200000004,107.56396500000028,152.05126999999993,-17.69238299999961,112.69238299999961,664.4873049999997,312.94873000000007
90,83.58984400000008,1320.0,148.7177729999994,114.23095699999976,231.41015599999992,121.53857400000015,110.89746099999957,101.2822270000006,111.79492200000004,130.0,-19.358886999999868,108.58984400000008,673.3334960000002,308.46142599999985
91,80.0,1298.7177729999994,143.84619099999964,116.9228520000006,228.0771479999994,119.74365200000011,107.17968800000017,93.0771479999994,102.94873000000007,106.15380900000036,-19.358886999999868,107.05126999999993,677.0512699999999,302.05126999999993
92,76.0258789999998,1290.8974609999996,141.9228520000006,126.79492200000004,258.0771479999994,116.0258789999998,106.53857400000015,88.20507799999996,87.43603499999972,94.35888699999941,-19.8718259999996,108.84619099999964,670.7690430000002,295.89746099999957
93,73.58984400000008,1297.5639650000003,143.0771479999994,136.53857400000015,301.79492200000004,113.58984400000008,108.58984400000008,90.0,76.9228520000006,98.9741210000002,-22.69238299999961,111.9228520000006,656.9228520000006,291.6665039999998
94,74.35888699999941,1309.743652,145.76904300000024,140.6411130000006,336.0258789999998,116.41015599999992,111.41015599999992,97.05126999999993,79.35888699999941,116.9228520000006,-26.41015600000037,113.7177729999994,645.2563479999999,290.51269500000035
95,79.10253900000043,1315.3847659999992,148.46142599999985,138.9741210000002,347.17968800000017,125.64111300000059,113.9741210000002,105.0,93.20507799999996,140.38476599999922,-26.538574000000153,113.58984400000008,645.3847659999992,292.05126999999993
96,85.64111300000059,1309.2309569999998,149.3588869999994,134.61523400000078,332.94873000000007,136.0258789999998,114.87158199999976,108.9741210000002,106.79492200000004,157.94873000000007,-20.769286999999622,112.94873000000007,657.4360349999997,294.3588869999994
97,88.46142599999985,1293.3334960000002,147.56396500000028,129.23095699999976,298.5898440000001,139.10253900000043,112.43603499999972,105.51269500000035,107.17968800000017,157.43603499999972,-13.846190999999635,112.82031300000017,669.1025390000004,294.10253900000043
98,83.9741210000002,1274.6152340000008,143.7177729999994,123.58984400000008,257.17968800000017,131.53857400000015,106.2822270000006,95.38476599999922,91.15380900000036,135.0,-12.948729999999614,113.3334960000002,666.2822270000006,288.0771479999994
99,74.87158199999976,1260.0,140.6411130000006,120.76904300000024,227.82031300000017,118.3334960000002,100.0,84.87158199999976,70.38476599999922,101.2822270000006,-20.0,114.23095699999976,648.205078,278.3334960000002
100,69.87158199999976,1254.3588869999994,142.17968800000017,125.25634799999989,227.17968800000017,109.87158199999976,99.23095699999976,82.17968800000017,62.82031300000017,78.20507799999996,-28.333252000000357,115.25634799999989,630.0,271.4101559999999
101,75.89746099999957,1257.6923829999996,149.87158199999976,138.7177729999994,258.84619099999964,112.82031300000017,107.05126999999993,91.41015599999992,77.43603499999972,83.46142599999985,-28.846190999999635,116.6665039999998,629.2309569999998,273.3334960000002
102,92.17968800000017,1264.743652,160.76904300000024,156.41015599999992,308.84619099999964,125.0,120.0,107.94873000000007,106.41015599999992,116.0258789999998,-18.71801800000003,118.0771479999994,649.3588869999994,284.10253900000043
103,109.61523400000078,1268.3334960000002,168.46142599999985,170.38476599999922,352.05126999999993,137.3076170000004,130.12841800000024,121.41015599999992,130.89746099999957,154.48730499999965,-3.846190999999635,118.7177729999994,676.1538090000004,296.79492200000004
104,117.05126999999993,1263.4614259999998,167.56396500000028,174.48730499999965,365.12841800000024,140.51269500000035,130.76904300000024,122.94873000000007,135.51269500000035,173.0771479999994,5.897460999999566,118.0771479999994,689.2309569999998,301.9228520000006
105,109.87158199999976,1251.1538090000004,158.7177729999994,169.61523400000078,341.53857400000015,132.56396500000028,122.30761700000039,112.69238299999961,120.12841800000024,161.0258789999998,5.256347999999889,116.9228520000006,679.1025390000004,294.87158199999976
106,94.87158199999976,1238.4614259999998,148.20507799999996,162.94873000000007,298.9741210000002,120.12841800000024,112.17968800000017,100.51269500000035,100.51269500000035,131.79492200000004,-1.6665039999998044,116.15380900000036,655.0,280.51269500000035
107,84.35888699999941,1232.6923829999996,143.3334960000002,161.79492200000004,268.9741210000002,112.69238299999961,109.23095699999976,97.69238299999961,94.74365200000011,109.23095699999976,-5.769286999999622,116.6665039999998,636.6665039999998,269.10253900000043
108,85.12841800000024,1233.8461909999996,145.51269500000035,167.05126999999993,270.2563479999999,113.84619099999964,115.0,106.79492200000004,106.2822270000006,105.76904300000024,-2.4360349999997197,117.94873000000007,636.4101559999999,266.6665039999998
109,91.53857400000015,1232.05127,149.10253900000043,172.56396500000028,290.89746099999957,119.35888699999941,121.53857400000015,117.30761700000039,120.76904300000024,113.46142599999985,3.2050779999999577,117.56396500000028,648.205078,268.5898440000001
110,91.79492200000004,1216.1538090000004,146.9228520000006,171.41015599999992,299.7436520000001,121.6665039999998,119.35888699999941,116.15380900000036,119.61523400000078,115.38476599999922,2.3076170000003913,113.58984400000008,654.2309569999998,265.12841800000024
111,80.89746099999957,1186.0258789999998,137.6923829999996,163.84619099999964,278.3334960000002,117.69238299999961,107.56396500000028,100.0,98.3334960000002,104.23095699999976,-8.076904000000013,106.41015599999992,642.0512699999999,252.17968800000017
112,66.15380900000036,1153.7177729999994,128.0771479999994,158.58984400000008,239.61523400000078,111.41015599999992,95.51269500000035,79.87158199999976,72.69238299999961,89.23095699999976,-19.8718259999996,100.0,616.9228520000006,236.53857400000015
113,60.897460999999566,1132.3076170000004,126.53857400000015,166.6665039999998,215.38476599999922,109.35888699999941,94.48730499999965,71.15380900000036,64.35888699999941,86.6665039999998,-21.28198199999997,98.20507799999996,596.794922,229.87158199999976
114,70.89746099999957,1126.6665039999998,135.38476599999922,190.6411130000006,225.76904300000024,114.10253900000043,106.2822270000006,79.87158199999976,79.87158199999976,102.69238299999961,-7.307617000000391,101.6665039999998,593.5898440000001,236.0258789999998
115,89.23095699999976,1132.4360349999997,148.0771479999994,221.15380900000036,262.5639650000003,121.53857400000015,122.30761700000039,97.56396500000028,105.25634799999989,126.53857400000015,14.358886999999413,106.79492200000004,601.5385740000002,248.20507799999996
116,102.43603499999972,1142.6923829999996,155.0,243.46142599999985,298.84619099999964,125.64111300000059,130.6411130000006,109.61523400000078,119.10253900000043,140.12841800000024,29.358886999999413,108.3334960000002,603.3334960000002,254.87158199999976
117,103.7177729999994,1154.1025390000004,151.9228520000006,248.9741210000002,313.0771479999994,124.23095699999976,127.56396500000028,108.58984400000008,113.7177729999994,135.76904300000024,31.025878999999804,105.0,588.205078,251.41015599999992
118,97.82031300000017,1167.94873,142.3076170000004,241.53857400000015,304.10253900000043,119.87158199999976,118.58984400000008,100.12841800000024,99.74365200000011,121.2822270000006,25.0,100.89746099999957,560.1284180000002,242.82031300000017
119,95.0,1186.410156,134.87158199999976,234.10253900000043,286.2822270000006,116.9228520000006,112.82031300000017,95.0,93.3334960000002,108.58984400000008,23.461425999999847,100.64111300000059,531.794922,238.20507799999996
120,100.64111300000059,1206.410156,135.38476599999922,238.0771479999994,272.4360349999997,117.30761700000039,113.84619099999964,98.3334960000002,99.74365200000011,102.17968800000017,32.05126999999993,105.38476599999922,511.4101559999999,241.0258789999998
121,111.41015599999992,1219.3588869999994,143.46142599999985,255.2563479999999,263.9741210000002,119.23095699999976,118.0771479999994,105.25634799999989,110.89746099999957,97.94873000000007,46.153809000000365,111.41015599999992,496.2822270000006,246.15380900000036
122,120.0,1217.5639650000003,154.7436520000001,277.6923829999996,253.7177729999994,120.51269500000035,120.12841800000024,106.2822270000006,114.74365200000011,91.2822270000006,56.2822270000006,114.35888699999941,478.9741210000002,245.76904300000024
123,122.17968800000017,1202.1796880000002,163.9741210000002,294.3588869999994,237.05126999999993,119.74365200000011,117.30761700000039,97.94873000000007,105.89746099999957,82.56396500000028,58.7177729999994,112.30761700000039,455.76904300000024,237.17968800000017
124,120.12841800000024,1183.589844,169.23095699999976,298.9741210000002,217.43603499999972,117.82031300000017,111.9228520000006,85.38476599999922,88.46142599999985,75.76904300000024,57.56396500000028,107.30761700000039,429.87158199999976,225.89746099999957
125,118.84619099999964,1173.9741210000002,171.6665039999998,294.10253900000043,203.84619099999964,116.15380900000036,108.46142599999985,78.46142599999985,73.0771479999994,74.23095699999976,60.64111300000059,104.10253900000043,407.5639650000003,220.2563479999999
126,122.30761700000039,1177.8203130000002,173.84619099999964,289.10253900000043,202.43603499999972,115.89746099999957,109.74365200000011,82.56396500000028,68.84619099999964,77.82031300000017,72.56396500000028,106.15380900000036,391.2822270000006,223.9741210000002
127,129.87158199999976,1187.94873,177.17968800000017,291.4101559999999,210.0,116.9228520000006,115.25634799999989,94.74365200000011,77.56396500000028,83.46142599999985,90.51269500000035,112.69238299999961,376.6665039999998,231.0258789999998
128,137.3076170000004,1190.6411130000006,179.87158199999976,301.79492200000004,214.23095699999976,118.46142599999985,121.15380900000036,105.38476599999922,92.43603499999972,87.94873000000007,107.43603499999972,118.58984400000008,356.6665039999998,229.3588869999994
129,140.6411130000006,1176.1538090000004,178.20507799999996,314.6152340000008,204.61523400000078,119.10253900000043,123.3334960000002,106.2822270000006,103.0771479999994,89.35888699999941,116.6665039999998,118.9741210000002,328.20507799999996,210.0
130,139.23095699999976,1145.5126950000003,170.38476599999922,323.9741210000002,181.15380900000036,118.7177729999994,120.12841800000024,97.56396500000028,103.20507799999996,87.94873000000007,116.9228520000006,113.7177729999994,295.6411130000006,173.58984400000008
131,135.2563479999999,1108.4614259999998,157.6923829999996,327.3076170000004,154.23095699999976,117.94873000000007,113.20507799999996,85.51269500000035,93.46142599999985,83.20507799999996,112.05126999999993,106.9228520000006,267.94873000000007,129.87158199999976
132,130.89746099999957,1075.7690430000002,143.9741210000002,325.76904300000024,137.17968800000017,118.0771479999994,105.89746099999957,77.30761700000039,79.48730499999965,74.10253900000043,107.05126999999993,103.46142599999985,250.76904300000024,89.74365200000011
133,128.0771479999994,1053.9741210000002,134.48730499999965,323.9741210000002,137.3076170000004,119.10253900000043,101.41015599999992,77.05126999999993,68.58984400000008,61.53857400000015,105.76904300000024,104.48730499999965,244.7436520000001,60.25634799999989
134,128.84619099999964,1043.8461909999996,132.05126999999993,327.4360349999997,154.61523400000078,120.89746099999957,101.79492200000004,84.61523400000078,67.17968800000017,51.153809000000365,109.61523400000078,108.0771479999994,246.2822270000006,44.102539000000434
135,135.76904300000024,1041.410156,136.79492200000004,340.51269500000035,181.15380900000036,122.69238299999961,107.17968800000017,97.05126999999993,77.69238299999961,50.76904300000024,119.35888699999941,111.2822270000006,252.05126999999993,40.897460999999566
136,148.9741210000002,1040.3847659999992,145.38476599999922,362.82031300000017,205.6411130000006,123.46142599999985,115.25634799999989,109.87158199999976,97.56396500000028,63.7177729999994,133.9741210000002,112.43603499999972,261.0258789999998,48.846190999999635
137,164.23095699999976,1032.8203130000002,153.3334960000002,387.82031300000017,217.3076170000004,122.94873000000007,122.05126999999993,118.58984400000008,118.3334960000002,85.0,150.0,112.17968800000017,271.2822270000006,62.56396500000028
138,173.9741210000002,1013.3334960000002,156.6665039999998,406.53857400000015,212.17968800000017,121.53857400000015,124.48730499999965,119.61523400000078,129.48730499999965,103.0771479999994,162.3076170000004,111.6665039999998,277.6923829999996,73.3334960000002
139,173.0771479999994,981.4101559999999,154.23095699999976,413.9741210000002,193.84619099999964,120.25634799999989,121.9228520000006,112.43603499999972,124.74365200000011,107.30761700000039,166.53857400000015,111.79492200000004,274.3588869999994,72.43603499999972
140,163.0771479999994,943.5898440000001,148.84619099999964,413.46142599999985,170.12841800000024,119.23095699999976,116.79492200000004,100.64111300000059,107.05126999999993,94.48730499999965,162.82031300000017,111.6665039999998,260.2563479999999,57.17968800000017
141,152.05126999999993,909.2309569999998,144.3588869999994,414.7436520000001,146.6665039999998,117.94873000000007,112.94873000000007,90.0,87.17968800000017,70.12841800000024,155.76904300000024,110.12841800000024,241.41015599999992,32.30761700000039
142,147.56396500000028,884.2309569999998,143.20507799999996,426.4101559999999,125.51269500000035,115.64111300000059,111.9228520000006,83.9741210000002,75.38476599999922,43.7177729999994,150.6411130000006,106.79492200000004,226.79492200000004,7.692382999999609
143,152.3076170000004,866.4101559999999,144.7436520000001,449.7436520000001,107.30761700000039,112.43603499999972,112.94873000000007,81.9228520000006,74.61523400000078,23.461425999999847,150.2563479999999,103.0771479999994,222.17968800000017,-7.820557000000008
144,161.79492200000004,847.5639650000003,146.41015599999992,478.3334960000002,95.51269500000035,109.74365200000011,114.23095699999976,81.15380900000036,80.12841800000024,13.717772999999397,154.48730499999965,100.76904300000024,227.43603499999972,-11.538574000000153
145,170.0,819.2309569999998,146.53857400000015,501.9228520000006,94.23095699999976,109.61523400000078,115.38476599999922,79.61523400000078,85.38476599999922,15.256347999999889,160.51269500000035,101.6665039999998,237.43603499999972,-7.435790999999426
146,172.43603499999972,780.0,145.2563479999999,511.6665039999998,103.3334960000002,112.17968800000017,116.53857400000015,77.69238299999961,87.30761700000039,26.538574000000153,165.6411130000006,105.25634799999989,246.15380900000036,-2.6923829999996087
147,169.61523400000078,735.0,143.58984400000008,506.4101559999999,115.64111300000059,116.2822270000006,117.30761700000039,76.41015599999992,86.2822270000006,42.69238299999961,167.82031300000017,108.84619099999964,249.7436520000001,-3.2050779999999577
148,164.3588869999994,693.205078,142.3076170000004,492.3076170000004,121.9228520000006,118.84619099999964,116.2822270000006,76.79492200000004,84.23095699999976,56.153809000000365,166.41015599999992,109.23095699999976,247.17968800000017,-9.8718259999996
149,159.87158199999976,661.4101559999999,142.6923829999996,478.0771479999994,117.94873000000007,118.3334960000002,112.69238299999961,78.84619099999964,82.43603499999972,60.12841800000024,163.20507799999996,106.0258789999998,239.61523400000078,-19.487060999999812
150,158.20507799999996,640.7690430000002,145.76904300000024,468.46142599999985,108.7177729999994,115.51269500000035,108.0771479999994,82.05126999999993,81.79492200000004,53.0771479999994,161.41015599999992,101.6665039999998,229.10253900000043,-26.923095999999987
151,159.23095699999976,627.0512699999999,152.43603499999972,461.79492200000004,104.10253900000043,112.94873000000007,105.51269500000035,86.0258789999998,82.69238299999961,40.25634799999989,162.94873000000007,99.23095699999976,217.82031300000017,-29.10253899999998
152,161.9228520000006,613.0771479999994,161.15380900000036,455.51269500000035,110.12841800000024,112.69238299999961,107.30761700000039,89.61523400000078,84.87158199999976,31.153809000000365,167.94873000000007,100.12841800000024,207.82031300000017,-26.28198199999997
153,165.0,594.1025390000004,167.94873000000007,449.7436520000001,123.20507799999996,114.48730499999965,112.30761700000039,91.9228520000006,88.3334960000002,32.43603499999972,174.48730499999965,102.94873000000007,200.38476599999922,-20.641113000000132
154,167.56396500000028,570.0,169.10253900000043,446.9228520000006,133.20507799999996,116.6665039999998,117.30761700000039,92.94873000000007,92.82031300000017,43.333496000000196,179.7436520000001,105.51269500000035,195.6411130000006,-14.743652000000111
155,168.46142599999985,543.8461909999996,162.94873000000007,448.20507799999996,130.76904300000024,117.56396500000028,119.61523400000078,92.43603499999972,97.30761700000039,54.48730499999965,181.79492200000004,106.15380900000036,191.9228520000006,-10.641113000000132
156,167.6923829999996,517.9487300000001,150.38476599999922,450.3847659999992,114.74365200000011,116.6665039999998,119.23095699999976,90.25634799999989,100.0,55.897460999999566,180.51269500000035,104.61523400000078,187.17968800000017,-9.487060999999812
157,166.79492200000004,492.6923829999996,135.51269500000035,449.10253900000043,93.46142599999985,114.74365200000011,118.46142599999985,87.69238299999961,100.38476599999922,45.897460999999566,177.6923829999996,102.56396500000028,180.38476599999922,-10.256347999999889
158,168.0771479999994,467.3076170000004,123.3334960000002,442.17968800000017,78.9741210000002,113.3334960000002,119.74365200000011,87.05126999999993,99.23095699999976,32.82031300000017,176.15380900000036,102.17968800000017,172.3076170000004,-11.28198199999997
159,171.79492200000004,441.15380900000036,117.05126999999993,430.89746099999957,77.30761700000039,113.58984400000008,122.82031300000017,90.0,98.20507799999996,28.461425999999847,176.53857400000015,104.61523400000078,164.3588869999994,-11.025634999999966
160,176.15380900000036,414.3588869999994,116.79492200000004,418.7177729999994,85.0,115.38476599999922,125.51269500000035,95.25634799999989,98.46142599999985,37.30761700000039,177.3076170000004,108.58984400000008,157.94873000000007,-8.974365000000034
161,178.58984400000008,388.46142599999985,118.9741210000002,408.9741210000002,92.69238299999961,117.56396500000028,125.38476599999922,100.25634799999989,100.38476599999922,54.35888699999941,176.0258789999998,111.2822270000006,152.3076170000004,-6.666747999999643
162,177.43603499999972,364.48730499999965,119.23095699999976,401.6665039999998,92.56396500000028,118.9741210000002,121.9228520000006,102.43603499999972,103.58984400000008,69.61523400000078,172.6923829999996,110.51269500000035,146.15380900000036,-5.641113000000132
163,172.3076170000004,341.0258789999998,115.12841800000024,393.5898440000001,83.3334960000002,118.46142599999985,117.69238299999961,101.0258789999998,105.76904300000024,74.10253900000043,168.7177729999994,106.53857400000015,137.82031300000017,-7.435790999999426
164,164.3588869999994,314.87158199999976,107.94873000000007,380.12841800000024,69.61523400000078,116.2822270000006,115.51269500000035,96.41015599999992,103.58984400000008,64.61523400000078,165.12841800000024,101.41015599999992,127.30761700000039,-12.179442999999992
165,155.89746099999957,284.23095699999976,101.0258789999998,360.2563479999999,58.974121000000196,113.58984400000008,116.15380900000036,90.12841800000024,95.76904300000024,44.61523400000078,161.9228520000006,98.46142599999985,116.0258789999998,-17.820557000000008
166,149.87158199999976,251.41015599999992,97.56396500000028,339.10253900000043,56.153809000000365,112.43603499999972,117.94873000000007,84.35888699999941,85.0,23.077147999999397,158.9741210000002,99.61523400000078,105.89746099999957,-21.666747999999643
167,148.46142599999985,222.17968800000017,97.94873000000007,324.87158199999976,60.897460999999566,113.58984400000008,118.9741210000002,82.17968800000017,78.3334960000002,10.769043000000238,157.05126999999993,104.35888699999941,98.0771479999994,-21.666747999999643
168,151.15380900000036,201.6665039999998,100.76904300000024,321.79492200000004,69.35888699999941,116.6665039999998,118.46142599999985,85.25634799999989,80.89746099999957,14.230956999999762,156.9228520000006,109.35888699999941,92.94873000000007,-17.948729999999614
169,155.2563479999999,190.38476599999922,103.3334960000002,325.2563479999999,75.76904300000024,119.23095699999976,117.56396500000028,92.69238299999961,91.2822270000006,30.51269500000035,157.82031300000017,111.41015599999992,88.46142599999985,-12.948729999999614
170,156.9228520000006,183.3334960000002,103.84619099999964,325.51269500000035,75.64111300000059,119.35888699999941,117.43603499999972,99.74365200000011,101.79492200000004,47.69238299999961,157.82031300000017,108.7177729999994,82.05126999999993,-10.0
171,155.0,175.12841800000024,101.6665039999998,316.6665039999998,69.74365200000011,116.41015599999992,118.3334960000002,102.17968800000017,104.61523400000078,54.48730499999965,156.0258789999998,103.46142599999985,73.0771479999994,-10.0
172,151.79492200000004,165.89746099999957,99.23095699999976,303.3334960000002,64.61523400000078,112.82031300000017,119.23095699999976,100.51269500000035,98.3334960000002,49.35888699999941,154.48730499999965,100.0,65.38476599999922,-10.897461000000021
173,151.9228520000006,160.2563479999999,99.74365200000011,295.12841800000024,67.43603499999972,111.79492200000004,119.35888699999941,99.23095699999976,90.51269500000035,42.05126999999993,157.43603499999972,101.53857400000015,63.7177729999994,-8.333252000000357
174,157.94873000000007,161.2822270000006,103.84619099999964,297.94873000000007,78.7177729999994,114.10253900000043,119.35888699999941,102.69238299999961,90.51269500000035,43.589844000000085,166.15380900000036,107.69238299999961,69.48730499999965,-0.512695000000349
175,166.79492200000004,165.38476599999922,108.46142599999985,307.94873000000007,92.43603499999972,117.05126999999993,119.87158199999976,110.12841800000024,101.53857400000015,55.25634799999989,177.17968800000017,114.87158199999976,77.56396500000028,9.487304999999651
176,172.05126999999993,164.48730499999965,109.35888699999941,313.9741210000002,101.0258789999998,117.05126999999993,121.0258789999998,115.25634799999989,116.15380900000036,68.3334960000002,183.46142599999985,118.46142599999985,80.12841800000024,15.512695000000349
177,169.87158199999976,152.6923829999996,105.12841800000024,307.94873000000007,102.05126999999993,113.3334960000002,121.0258789999998,112.82031300000017,123.20507799999996,72.69238299999961,180.6411130000006,116.53857400000015,72.05126999999993,13.974121000000196
178,161.2822270000006,131.2822270000006,98.20507799999996,290.6411130000006,98.9741210000002,108.20507799999996,118.20507799999996,102.69238299999961,116.79492200000004,65.89746099999957,169.10253900000043,109.87158199999976,54.23095699999976,5.897460999999566
179,151.15380900000036,106.53857400000015,92.17968800000017,270.12841800000024,95.38476599999922,105.25634799999989,112.82031300000017,90.12841800000024,101.0258789999998,54.102539000000434,154.23095699999976,102.43603499999972,32.82031300000017,-4.230713000000378
180,143.46142599999985,83.58984400000008,88.84619099999964,255.0,91.53857400000015,105.25634799999989,106.2822270000006,81.53857400000015,85.89746099999957,46.666503999999804,142.6923829999996,97.82031300000017,15.0,-11.923095999999987
181,140.0,63.974121000000196,87.56396500000028,248.3334960000002,85.38476599999922,107.05126999999993,100.76904300000024,79.87158199999976,78.7177729999994,47.56396500000028,138.84619099999964,97.43603499999972,5.512695000000349,-15.256347999999889
182,139.3588869999994,47.17968800000017,87.56396500000028,247.43603499999972,77.05126999999993,107.94873000000007,98.0771479999994,83.3334960000002,79.74365200000011,52.69238299999961,142.3076170000004,99.48730499999965,4.230956999999762,-13.974365000000034
183,140.2563479999999,32.69238299999961,88.0771479999994,248.20507799999996,70.25634799999989,107.05126999999993,98.7177729999994,88.20507799999996,84.10253900000043,54.23095699999976,148.58984400000008,101.0258789999998,7.307617000000391,-9.487060999999812
184,141.6665039999998,21.666503999999804,88.3334960000002,248.20507799999996,69.35888699999941,105.0,102.05126999999993,91.41015599999992,87.69238299999961,48.0771479999994,153.0771479999994,101.15380900000036,9.615234000000783,-4.358886999999868
185,142.3076170000004,13.717772999999397,87.05126999999993,246.53857400000015,74.61523400000078,103.3334960000002,105.38476599999922,92.30761700000039,89.23095699999976,36.53857400000015,152.17968800000017,100.76904300000024,7.051269999999931,-1.7949220000000423
186,138.58984400000008,4.6152340000007825,81.9228520000006,242.05126999999993,78.9741210000002,102.69238299999961,105.89746099999957,90.51269500000035,88.3334960000002,25.0,144.23095699999976,100.38476599999922,-2.1796869999998307,-5.769286999999622
187,128.20507799999996,-11.538574000000153,72.30761700000039,232.82031300000017,74.61523400000078,102.56396500000028,102.30761700000039,85.89746099999957,84.74365200000011,16.922852000000603,130.51269500000035,99.35888699999941,-16.666747999999643,-16.794922000000042
188,114.48730499999965,-36.28198199999997,61.153809000000365,219.3588869999994,61.53857400000015,102.17968800000017,97.43603499999972,80.64111300000059,78.58984400000008,13.205077999999958,117.17968800000017,97.43603499999972,-30.38452099999995,-29.487060999999812
189,107.30761700000039,-62.948729999999614,54.48730499999965,207.05126999999993,49.102539000000434,101.79492200000004,95.89746099999957,78.3334960000002,73.46142599999985,14.743652000000111,113.7177729999994,96.15380900000036,-34.61547900000005,-33.58984399999963
190,114.87158199999976,-81.53857400000015,57.30761700000039,202.43603499999972,48.7177729999994,102.56396500000028,100.64111300000059,82.17968800000017,74.74365200000011,24.358886999999413,126.41015599999992,97.30761700000039,-22.820557000000008,-21.538574000000153
191,136.9228520000006,-86.92309599999999,69.10253900000043,207.6923829999996,62.05126999999993,106.41015599999992,109.35888699999941,90.89746099999957,85.38476599999922,43.46142599999985,152.56396500000028,101.2822270000006,4.358886999999413,4.743652000000111
192,163.20507799999996,-84.10253899999998,83.9741210000002,218.20507799999996,79.10253900000043,112.69238299999961,116.53857400000015,100.25634799999989,102.94873000000007,68.20507799999996,181.9228520000006,106.6665039999998,38.46142599999985,34.87158199999976
193,181.53857400000015,-84.61547900000005,93.84619099999964,224.61523400000078,85.0,119.10253900000043,118.20507799999996,105.38476599999922,119.35888699999941,88.3334960000002,203.0771479999994,111.9228520000006,68.58984400000008,57.05126999999993
194,185.76904300000024,-97.56420900000057,94.35888699999941,220.38476599999922,73.46142599999985,121.79492200000004,114.35888699999941,103.9741210000002,125.0,94.61523400000078,211.15380900000036,115.64111300000059,88.3334960000002,65.64111300000059
195,179.23095699999976,-123.46142599999985,87.56396500000028,205.76904300000024,52.17968800000017,119.10253900000043,107.43603499999972,97.17968800000017,115.0,86.15380900000036,209.7436520000001,117.05126999999993,99.35888699999941,64.74365200000011
196,171.15380900000036,-153.71801800000003,80.38476599999922,187.6923829999996,35.64111300000059,112.17968800000017,100.64111300000059,88.7177729999994,94.23095699999976,72.69238299999961,206.9228520000006,115.89746099999957,108.46142599999985,63.333496000000196
197,170.51269500000035,-178.076904,79.10253900000043,174.7436520000001,32.05126999999993,104.87158199999976,96.53857400000015,83.46142599999985,74.74365200000011,66.6665039999998,209.23095699999976,113.3334960000002,121.41015599999992,69.23095699999976
198,179.3588869999994,-191.15380900000036,85.64111300000059,171.41015599999992,37.30761700000039,100.12841800000024,96.53857400000015,84.61523400000078,69.74365200000011,73.9741210000002,218.7177729999994,111.79492200000004,140.38476599999922,84.10253900000043
199,193.20507799999996,-195.64111300000013,95.76904300000024,175.0,40.897460999999566,99.23095699999976,100.25634799999989,91.53857400000015,84.23095699999976,90.64111300000059,233.3334960000002,113.7177729999994,164.48730499999965,104.10253900000043
200,205.89746099999957,-197.9487299999996,103.9741210000002,180.0,38.333496000000196,102.05126999999993,105.89746099999957,100.64111300000059,111.79492200000004,106.79492200000004,250.12841800000024,118.9741210000002,190.2563479999999,123.58984400000008
201,214.10253900000043,-203.46142599999985,106.79492200000004,182.43603499999972,35.64111300000059,107.30761700000039,111.2822270000006,108.58984400000008,137.6923829999996,115.38476599999922,266.2822270000006,125.38476599999922,213.3334960000002,138.58984400000008
202,218.46142599999985,-213.076904,104.74365200000011,181.9228520000006,43.46142599999985,113.3334960000002,114.74365200000011,113.3334960000002,149.61523400000078,115.38476599999922,279.6152340000008,129.87158199999976,229.7436520000001,148.46142599999985
203,221.41015599999992,-225.0,101.0258789999998,180.0,65.51269500000035,118.20507799999996,115.89746099999957,115.38476599999922,145.2563479999999,111.41015599999992,289.23095699999976,130.76904300000024,237.94873000000007,154.23095699999976
204,225.0,-236.66674799999964,99.35888699999941,178.58984400000008,93.46142599999985,120.38476599999922,116.2822270000006,117.30761700000039,133.46142599999985,109.87158199999976,295.76904300000024,129.10253900000043,241.6665039999998,158.7177729999994
205,229.61523400000078,-246.41015600000037,102.43603499999972,178.84619099999964,112.56396500000028,120.38476599999922,117.94873000000007,121.53857400000015,127.43603499999972,114.61523400000078,301.9228520000006,127.56396500000028,247.05126999999993,164.61523400000078
206,234.61523400000078,-253.84619099999964,109.74365200000011,180.0,113.0771479999994,119.61523400000078,122.69238299999961,128.46142599999985,134.48730499999965,126.6665039999998,309.23095699999976,128.46142599999985,258.5898440000001,172.94873000000007
207,238.7177729999994,-260.1281740000004,118.20507799999996,180.2563479999999,96.79492200000004,119.23095699999976,129.23095699999976,136.15380900000036,151.79492200000004,143.46142599999985,317.3076170000004,131.79492200000004,274.23095699999976,182.43603499999972
208,240.38476599999922,-267.4357909999994,122.82031300000017,178.0771479999994,74.35888699999941,119.48730499999965,134.23095699999976,141.0258789999998,168.3334960000002,160.2563479999999,323.5898440000001,135.51269500000035,286.53857400000015,188.7177729999994
209,238.3334960000002,-277.5642090000006,120.76904300000024,174.3588869999994,56.410155999999915,119.23095699999976,134.10253900000043,140.38476599999922,173.84619099999964,170.0,324.87158199999976,136.15380900000036,287.6923829999996,187.43603499999972
210,232.94873000000007,-289.8718259999996,112.69238299999961,171.41015599999992,46.153809000000365,117.82031300000017,127.94873000000007,133.9741210000002,165.51269500000035,166.6665039999998,319.48730499999965,132.6923829999996,275.89746099999957,178.84619099999964
211,226.53857400000015,-300.5129390000002,102.94873000000007,170.51269500000035,40.76904300000024,115.12841800000024,118.7177729999994,125.76904300000024,149.23095699999976,150.2563479999999,309.23095699999976,127.17968800000017,256.79492200000004,167.56396500000028
212,222.05126999999993,-304.8718259999996,96.6665039999998,169.3588869999994,36.025878999999804,111.79492200000004,111.2822270000006,121.2822270000006,136.0258789999998,128.20507799999996,298.7177729999994,123.7177729999994,240.6411130000006,160.76904300000024
213,220.6411130000006,-302.6923829999996,96.0258789999998,164.87158199999976,31.922852000000603,109.74365200000011,109.10253900000043,124.23095699999976,133.46142599999985,113.3334960000002,293.0771479999994,124.61523400000078,234.87158199999976,162.05126999999993
214,220.6411130000006,-298.46142599999985,98.9741210000002,156.6665039999998,32.56396500000028,110.25634799999989,112.56396500000028,132.43603499999972,141.53857400000015,115.64111300000059,294.10253900000043,128.58984400000008,239.23095699999976,168.84619099999964
215,218.7177729999994,-298.97436500000003,101.79492200000004,148.58984400000008,40.76904300000024,112.69238299999961,117.82031300000017,139.7436520000001,153.58984400000008,134.61523400000078,298.46142599999985,131.2822270000006,245.12841800000024,173.46142599999985
216,212.56396500000028,-307.820557,100.51269500000035,145.89746099999957,53.20507799999996,114.48730499999965,120.51269500000035,140.51269500000035,161.41015599999992,158.46142599999985,300.12841800000024,129.61523400000078,242.94873000000007,169.48730499999965
217,202.6923829999996,-322.4357909999994,94.23095699999976,150.0,62.30761700000039,113.0771479999994,118.46142599999985,133.58984400000008,160.76904300000024,171.41015599999992,295.12841800000024,123.9741210000002,229.10253900000043,155.89746099999957
218,192.05126999999993,-336.02563499999997,85.89746099999957,157.3076170000004,62.69238299999961,108.58984400000008,113.0771479999994,123.46142599999985,152.94873000000007,163.9741210000002,283.3334960000002,118.20507799999996,207.82031300000017,138.84619099999964
219,184.10253900000043,-343.20507799999996,80.25634799999989,161.79492200000004,57.17968800000017,104.35888699999941,107.69238299999961,116.79492200000004,143.20507799999996,139.10253900000043,268.84619099999964,115.51269500000035,186.6665039999998,125.51269500000035
220,180.2563479999999,-343.20507799999996,80.12841800000024,159.3588869999994,53.0771479999994,103.20507799999996,105.64111300000059,117.56396500000028,136.41015599999992,110.0,256.4101559999999,116.53857400000015,170.76904300000024,119.23095699999976
221,179.10253900000043,-340.1281740000004,84.74365200000011,151.0258789999998,56.153809000000365,105.89746099999957,107.94873000000007,124.23095699999976,135.0,92.43603499999972,248.7177729999994,118.9741210000002,160.12841800000024,117.69238299999961
222,178.3334960000002,-338.71801800000003,90.89746099999957,142.82031300000017,66.0258789999998,110.64111300000059,112.82031300000017,131.0258789999998,137.6923829999996,95.64111300000059,246.53857400000015,120.38476599999922,152.94873000000007,116.15380900000036
223,176.53857400000015,-340.64111300000013,96.15380900000036,140.51269500000035,77.17968800000017,115.0,117.69238299999961,132.82031300000017,141.41015599999992,117.05126999999993,247.3076170000004,119.74365200000011,147.3076170000004,112.17968800000017
224,174.3588869999994,-343.20507799999996,100.0,145.38476599999922,83.84619099999964,117.94873000000007,120.12841800000024,129.61523400000078,143.20507799999996,143.20507799999996,247.82031300000017,118.46142599999985,141.9228520000006,107.30761700000039
225,172.6923829999996,-343.46142599999985,102.69238299999961,152.05126999999993,82.69238299999961,119.35888699999941,119.87158199999976,125.64111300000059,141.53857400000015,157.17968800000017,245.12841800000024,118.0771479999994,135.2563479999999,104.10253900000043
226,171.15380900000036,-342.3076170000004,103.3334960000002,153.46142599999985,74.48730499999965,119.35888699999941,117.69238299999961,125.0,136.6665039999998,149.23095699999976,238.0771479999994,118.7177729999994,126.15380900000036,102.30761700000039
227,166.9228520000006,-344.2307130000004,100.76904300000024,146.15380900000036,63.20507799999996,117.94873000000007,115.25634799999989,127.82031300000017,130.51269500000035,123.46142599999985,227.82031300000017,118.84619099999964,114.23095699999976,98.9741210000002
228,158.20507799999996,-353.33325200000036,94.87158199999976,133.46142599999985,54.48730499999965,115.25634799999989,113.7177729999994,129.7436520000001,126.0258789999998,96.15380900000036,217.43603499999972,116.79492200000004,101.41015599999992,91.6665039999998
229,146.2822270000006,-368.076904,88.20507799999996,121.2822270000006,52.05126999999993,112.56396500000028,113.9741210000002,127.56396500000028,125.38476599999922,83.58984400000008,210.2563479999999,112.82031300000017,90.51269500000035,81.0258789999998
230,135.76904300000024,-381.41015600000037,84.35888699999941,113.58984400000008,55.12841800000024,111.0258789999998,114.74365200000011,121.6665039999998,128.46142599999985,91.53857400000015,207.3076170000004,108.84619099999964,84.35888699999941,70.76904300000024
231,130.6411130000006,-386.66674799999964,85.25634799999989,110.38476599999922,58.7177729999994,111.0258789999998,114.35888699999941,115.89746099999957,131.79492200000004,112.17968800000017,207.3076170000004,107.56396500000028,83.20507799999996,64.74365200000011
232,132.05126999999993,-383.076904,89.61523400000078,109.87158199999976,59.23095699999976,112.69238299999961,112.30761700000039,114.23095699999976,132.82031300000017,130.76904300000024,207.82031300000017,109.48730499999965,84.87158199999976,64.10253900000043
233,137.43603499999972,-375.2563479999999,95.25634799999989,111.79492200000004,57.30761700000039,115.76904300000024,110.12841800000024,117.82031300000017,131.15380900000036,136.41015599999992,207.3076170000004,112.56396500000028,85.64111300000059,67.17968800000017
234,143.3334960000002,-368.58984399999963,99.87158199999976,116.79492200000004,56.153809000000365,118.84619099999964,110.51269500000035,124.35888699999941,129.87158199999976,128.7177729999994,206.53857400000015,114.48730499999965,84.23095699999976,71.79492200000004
235,147.94873000000007,-365.0,103.3334960000002,124.10253900000043,57.69238299999961,120.25634799999989,114.35888699999941,130.6411130000006,132.17968800000017,117.69238299999961,206.53857400000015,114.61523400000078,81.9228520000006,76.53857400000015
236,150.89746099999957,-363.076904,105.76904300000024,130.51269500000035,61.666503999999804,119.10253900000043,120.38476599999922,135.12841800000024,139.61523400000078,115.51269500000035,208.58984400000008,114.48730499999965,80.76904300000024,81.2822270000006
237,153.0771479999994,-360.897461,107.82031300000017,132.6923829999996,67.82031300000017,116.15380900000036,126.2822270000006,138.7177729999994,150.38476599999922,126.79492200000004,212.56396500000028,115.76904300000024,81.79492200000004,86.0258789999998
238,154.10253900000043,-359.2307130000004,108.58984400000008,129.48730499999965,76.2822270000006,112.94873000000007,129.23095699999976,142.05126999999993,158.84619099999964,144.10253900000043,216.15380900000036,117.82031300000017,82.30761700000039,89.23095699999976
239,150.89746099999957,-362.179443,106.41015599999992,122.30761700000039,84.10253900000043,109.48730499999965,127.17968800000017,142.43603499999972,158.46142599999985,152.6923829999996,214.23095699999976,117.82031300000017,77.05126999999993,87.05126999999993
240,140.38476599999922,-374.2307130000004,99.61523400000078,113.0771479999994,84.74365200000011,105.25634799999989,119.87158199999976,135.38476599999922,145.76904300000024,142.94873000000007,202.43603499999972,113.7177729999994,62.82031300000017,76.15380900000036
241,123.0771479999994,-393.71801800000003,89.23095699999976,103.58984400000008,72.94873000000007,100.64111300000059,110.12841800000024,120.0,124.10253900000043,118.20507799999996,182.05126999999993,106.15380900000036,43.0771479999994,58.46142599999985
242,106.53857400000015,-411.66674799999964,80.38476599999922,96.53857400000015,53.20507799999996,98.0771479999994,103.3334960000002,103.20507799999996,103.3334960000002,92.82031300000017,161.79492200000004,98.58984400000008,27.30761700000039,42.56396500000028
243,100.25634799999989,-416.923096,78.58984400000008,94.23095699999976,37.30761700000039,99.61523400000078,103.58984400000008,95.0,94.35888699999941,81.41015599999992,152.3076170000004,95.64111300000059,23.846190999999635,38.333496000000196
244,108.20507799999996,-405.897461,84.87158199999976,96.41015599999992,34.23095699999976,104.87158199999976,110.51269500000035,100.76904300000024,101.15380900000036,87.17968800000017,158.20507799999996,99.23095699999976,33.589844000000085,47.94873000000007
245,124.23095699999976,-386.923096,94.35888699999941,99.48730499999965,42.30761700000039,110.64111300000059,119.61523400000078,116.15380900000036,118.20507799999996,101.79492200000004,174.10253900000043,106.79492200000004,48.0771479999994,64.48730499999965
246,136.6665039999998,-373.71801800000003,99.74365200000011,100.51269500000035,52.82031300000017,113.20507799999996,125.12841800000024,130.51269500000035,134.23095699999976,113.84619099999964,188.20507799999996,112.30761700000039,56.2822270000006,76.41015599999992
247,137.05126999999993,-374.61547900000005,97.56396500000028,98.9741210000002,56.79492200000004,110.51269500000035,124.35888699999941,134.48730499999965,139.7436520000001,117.43603499999972,190.76904300000024,111.41015599999992,51.410155999999915,76.0258789999998
248,126.2822270000006,-387.3076170000004,89.61523400000078,96.0258789999998,51.53857400000015,104.23095699999976,118.46142599999985,126.41015599999992,132.82031300000017,113.84619099999964,180.12841800000024,104.35888699999941,35.897460999999566,64.48730499999965
249,112.43603499999972,-401.53857400000015,82.17968800000017,92.17968800000017,41.53857400000015,97.69238299999961,112.05126999999993,112.56396500000028,119.35888699999941,108.9741210000002,164.10253900000043,96.53857400000015,18.717772999999397,49.48730499999965
250,105.38476599999922,-407.179443,80.64111300000059,88.58984400000008,36.2822270000006,95.12841800000024,109.61523400000078,103.46142599999985,109.48730499999965,109.61523400000078,154.23095699999976,94.23095699999976,9.743652000000111,41.025878999999804
251,110.51269500000035,-400.7692869999996,86.79492200000004,86.79492200000004,44.61523400000078,98.3334960000002,113.3334960000002,107.17968800000017,111.0258789999998,118.7177729999994,158.58984400000008,99.87158199999976,13.974121000000196,45.38476599999922
252,125.25634799999989,-385.64111300000013,97.56396500000028,88.58984400000008,66.0258789999998,105.38476599999922,121.79492200000004,123.58984400000008,124.87158199999976,132.3076170000004,175.51269500000035,110.51269500000035,27.69238299999961,61.025878999999804
253,140.38476599999922,-370.5129390000002,106.9228520000006,93.46142599999985,87.17968800000017,112.17968800000017,130.6411130000006,143.46142599999985,143.46142599999985,140.89746099999957,194.3588869999994,119.10253900000043,41.2822270000006,79.10253900000043
254,145.6411130000006,-364.4870609999998,108.3334960000002,98.9741210000002,89.74365200000011,114.23095699999976,134.10253900000043,153.9741210000002,154.10253900000043,136.6665039999998,202.3076170000004,120.25634799999989,44.87158199999976,88.0771479999994
255,136.79492200000004,-372.0512700000004,99.74365200000011,101.41015599999992,66.6665039999998,110.64111300000059,129.10253900000043,147.3076170000004,148.3334960000002,119.23095699999976,193.7177729999994,113.46142599999985,34.87158199999976,81.9228520000006
256,118.58984400000008,-390.1281740000004,84.61523400000078,98.0771479999994,30.51269500000035,103.9741210000002,118.7177729999994,126.79492200000004,128.3334960000002,96.79492200000004,173.84619099999964,103.9741210000002,16.282227000000603,64.23095699999976
257,101.9228520000006,-408.71801800000003,71.15380900000036,88.58984400000008,4.230956999999762,98.58984400000008,109.10253900000043,104.35888699999941,105.89746099999957,79.74365200000011,155.38476599999922,97.82031300000017,-0.769043000000238,45.897460999999566
258,94.48730499999965,-418.71801800000003,65.76904300000024,75.12841800000024,2.3076170000003913,97.05126999999993,105.25634799999989,92.05126999999993,93.3334960000002,74.35888699999941,147.6923829999996,97.43603499999972,-8.58984399999963,36.666503999999804
259,96.0258789999998,-417.3076170000004,69.10253900000043,62.17968800000017,21.153809000000365,98.58984400000008,107.82031300000017,93.46142599999985,95.89746099999957,79.61523400000078,150.89746099999957,100.51269500000035,-6.923095999999987,38.7177729999994
260,100.76904300000024,-408.84619099999964,75.89746099999957,54.35888699999941,44.87158199999976,101.41015599999992,112.94873000000007,103.7177729999994,109.61523400000078,91.0258789999998,158.58984400000008,102.69238299999961,-0.8974609999995664,46.53857400000015
261,104.23095699999976,-399.102539,81.41015599999992,54.74365200000011,60.51269500000035,104.74365200000011,117.30761700000039,115.12841800000024,126.53857400000015,104.35888699999941,164.7436520000001,102.43603499999972,4.6152340000007825,54.23095699999976
262,107.43603499999972,-391.66674799999964,84.23095699999976,63.20507799999996,65.64111300000059,109.23095699999976,119.48730499999965,123.9741210000002,140.12841800000024,117.82031300000017,169.3588869999994,101.79492200000004,8.974121000000196,59.61523400000078
263,112.94873000000007,-386.923096,86.2822270000006,75.64111300000059,65.51269500000035,114.48730499999965,120.76904300000024,130.2563479999999,147.82031300000017,130.76904300000024,174.48730499999965,103.84619099999964,13.461425999999847,64.10253900000043
264,120.76904300000024,-384.4870609999998,89.35888699999941,85.51269500000035,66.79492200000004,118.0771479999994,123.0771479999994,135.6411130000006,149.3588869999994,141.53857400000015,180.76904300000024,109.23095699999976,18.333496000000196,68.84619099999964
265,127.43603499999972,-383.71801800000003,93.20507799999996,89.10253900000043,73.58984400000008,117.94873000000007,127.56396500000028,140.2563479999999,146.15380900000036,146.79492200000004,185.51269500000035,115.38476599999922,22.05126999999993,72.56396500000028
266,129.23095699999976,-382.5642090000006,96.41015599999992,87.94873000000007,84.74365200000011,113.7177729999994,132.6923829999996,143.3334960000002,141.53857400000015,144.61523400000078,186.2822270000006,118.58984400000008,22.30761700000039,74.35888699999941
267,126.79492200000004,-378.076904,97.94873000000007,86.6665039999998,93.84619099999964,107.82031300000017,136.0258789999998,143.84619099999964,138.9741210000002,137.94873000000007,183.7177729999994,117.17968800000017,19.48730499999965,74.35888699999941
268,123.20507799999996,-370.64111300000013,97.43603499999972,87.82031300000017,92.69238299999961,103.3334960000002,135.2563479999999,142.05126999999993,140.6411130000006,132.6923829999996,180.51269500000035,112.94873000000007,15.128418000000238,74.23095699999976
269,120.38476599999922,-363.97436500000003,94.74365200000011,89.74365200000011,79.10253900000043,102.30761700000039,131.0258789999998,138.7177729999994,144.48730499999965,132.05126999999993,178.7177729999994,109.10253900000043,10.769043000000238,74.48730499999965
270,117.56396500000028,-363.33325200000036,90.0,89.87158199999976,59.61523400000078,103.3334960000002,125.64111300000059,135.12841800000024,145.6411130000006,132.43603499999972,177.43603499999972,107.69238299999961,6.410155999999915,73.9741210000002
271,112.43603499999972,-370.38452099999995,83.58984400000008,87.05126999999993,44.74365200000011,103.9741210000002,121.15380900000036,131.0258789999998,140.2563479999999,126.0258789999998,173.7177729999994,107.56396500000028,1.0258789999998044,70.12841800000024
272,103.0771479999994,-382.820557,76.9228520000006,81.15380900000036,39.61523400000078,102.56396500000028,118.20507799999996,125.51269500000035,128.46142599999985,108.9741210000002,165.6411130000006,106.41015599999992,-6.281981999999971,61.666503999999804
273,91.2822270000006,-395.5129390000002,71.79492200000004,73.0771479999994,41.2822270000006,99.48730499999965,115.51269500000035,118.3334960000002,114.87158199999976,87.56396500000028,154.48730499999965,102.94873000000007,-14.61547900000005,50.12841800000024
274,81.79492200000004,-402.9487299999996,70.38476599999922,64.74365200000011,43.974121000000196,96.53857400000015,113.3334960000002,111.53857400000015,106.2822270000006,75.25634799999989,145.2563479999999,98.84619099999964,-20.512939000000188,40.897460999999566
275,80.64111300000059,-401.923096,73.58984400000008,59.61523400000078,46.025878999999804,95.51269500000035,113.20507799999996,109.48730499999965,107.05126999999993,81.79492200000004,143.46142599999985,96.9228520000006,-20.25634799999989,39.74365200000011
276,88.9741210000002,-393.20507799999996,80.12841800000024,61.025878999999804,50.25634799999989,96.79492200000004,116.2822270000006,113.9741210000002,116.0258789999998,103.84619099999964,150.38476599999922,98.0771479999994,-13.333252000000357,48.20507799999996
277,101.9228520000006,-381.15380900000036,86.9228520000006,68.7177729999994,58.0771479999994,98.9741210000002,122.30761700000039,122.56396500000028,127.05126999999993,128.0771479999994,161.15380900000036,101.41015599999992,-3.9741210000001956,61.2822270000006
278,111.6665039999998,-371.923096,90.51269500000035,78.58984400000008,66.41015599999992,100.38476599999922,128.46142599999985,130.2563479999999,134.10253900000043,142.17968800000017,169.23095699999976,104.61523400000078,1.6665039999998044,71.41015599999992
279,113.0771479999994,-368.71801800000003,89.74365200000011,84.74365200000011,70.0,100.12841800000024,131.15380900000036,133.7177729999994,135.51269500000035,143.58984400000008,170.89746099999957,106.0258789999998,1.153809000000365,73.84619099999964
280,107.69238299999961,-370.38452099999995,86.2822270000006,84.48730499999965,66.79492200000004,99.35888699999941,128.7177729999994,133.0771479999994,134.48730499999965,138.7177729999994,167.82031300000017,105.51269500000035,-3.077147999999397,70.12841800000024
281,100.89746099999957,-373.20507799999996,83.46142599999985,78.84619099999964,60.51269500000035,99.74365200000011,121.9228520000006,130.89746099999957,134.61523400000078,134.87158199999976,163.9741210000002,103.3334960000002,-6.794922000000042,65.38476599999922
282,97.69238299999961,-374.4870609999998,83.46142599999985,71.9228520000006,57.94873000000007,102.82031300000017,114.87158199999976,129.10253900000043,136.0258789999998,133.20507799999996,161.6665039999998,101.0258789999998,-8.076904000000013,63.7177729999994
283,98.7177729999994,-373.33325200000036,85.51269500000035,68.46142599999985,63.589844000000085,108.46142599999985,112.05126999999993,129.10253900000043,135.89746099999957,129.87158199999976,161.15380900000036,100.0,-7.564209000000574,65.38476599999922
284,102.05126999999993,-370.38452099999995,87.30761700000039,70.89746099999957,76.15380900000036,115.0,115.89746099999957,131.0258789999998,133.0771479999994,122.17968800000017,161.53857400000015,101.41015599999992,-6.281981999999971,68.9741210000002
285,105.51269500000035,-366.02563499999997,87.82031300000017,78.46142599999985,89.10253900000043,118.9741210000002,124.87158199999976,134.61523400000078,130.2563479999999,114.23095699999976,162.94873000000007,105.0,-4.230713000000378,72.30761700000039
286,107.43603499999972,-360.897461,87.17968800000017,87.43603499999972,94.35888699999941,117.82031300000017,133.20507799999996,137.94873000000007,130.6411130000006,112.94873000000007,165.38476599999922,108.84619099999964,-1.2822270000006029,74.61523400000078
287,107.30761700000039,-357.179443,86.41015599999992,92.82031300000017,88.84619099999964,112.56396500000028,135.12841800000024,137.94873000000007,134.3588869999994,121.15380900000036,167.94873000000007,110.38476599999922,0.769043000000238,74.74365200000011
288,105.12841800000024,-357.3076170000004,84.87158199999976,91.79492200000004,77.43603499999972,106.79492200000004,129.10253900000043,132.56396500000028,137.05126999999993,132.56396500000028,168.58984400000008,108.3334960000002,-0.769043000000238,71.6665039999998
289,101.0258789999998,-361.923096,82.30761700000039,84.74365200000011,68.84619099999964,103.9741210000002,119.23095699999976,123.20507799999996,134.10253900000043,136.41015599999992,166.0258789999998,103.7177729999994,-7.307617000000391,65.38476599999922
290,96.6665039999998,-367.9487299999996,79.35888699999941,75.38476599999922,68.20507799999996,104.48730499999965,112.05126999999993,114.48730499999965,124.87158199999976,127.94873000000007,161.0258789999998,99.74365200000011,-16.28198199999997,58.7177729999994
291,95.0,-370.2563479999999,78.84619099999964,69.10253900000043,73.46142599999985,106.6665039999998,112.05126999999993,111.41015599999992,114.87158199999976,114.35888699999941,157.43603499999972,98.84619099999964,-22.179442999999992,55.76904300000024
292,97.56396500000028,-365.64111300000013,82.17968800000017,69.61523400000078,78.46142599999985,108.20507799999996,118.20507799999996,116.41015599999992,112.30761700000039,109.35888699999941,158.9741210000002,101.53857400000015,-20.38452099999995,59.23095699999976
293,102.69238299999961,-356.15380900000036,87.69238299999961,76.41015599999992,76.6665039999998,107.82031300000017,125.25634799999989,126.41015599999992,121.0258789999998,120.25634799999989,165.12841800000024,105.64111300000059,-11.923095999999987,66.79492200000004
294,106.0258789999998,-348.20507799999996,90.64111300000059,84.74365200000011,65.0,106.0258789999998,127.30761700000039,134.23095699999976,136.15380900000036,140.2563479999999,170.12841800000024,107.43603499999972,-3.2050779999999577,72.56396500000028
295,104.48730499999965,-347.179443,88.0771479999994,89.48730499999965,47.69238299999961,105.12841800000024,122.94873000000007,133.46142599999985,147.56396500000028,153.9741210000002,168.20507799999996,105.38476599999922,-1.2822270000006029,71.79492200000004
296,98.3334960000002,-352.179443,81.15380900000036,89.35888699999941,34.48730499999965,106.9228520000006,115.38476599999922,125.0,148.46142599999985,150.6411130000006,159.23095699999976,101.53857400000015,-8.205077999999958,65.0
297,91.53857400000015,-358.076904,74.35888699999941,85.89746099999957,34.23095699999976,111.0258789999998,110.25634799999989,115.38476599999922,139.7436520000001,132.94873000000007,149.10253900000043,99.10253900000043,-19.358886999999868,57.05126999999993
298,88.3334960000002,-359.102539,72.05126999999993,81.79492200000004,47.17968800000017,114.61523400000078,110.25634799999989,111.9228520000006,128.0771479999994,113.3334960000002,144.61523400000078,99.48730499999965,-27.051270000000386,53.589844000000085
299,90.38476599999922,-353.84619099999964,75.25634799999989,78.46142599999985,64.35888699999941,115.89746099999957,113.84619099999964,116.53857400000015,120.89746099999957,103.84619099999964,148.0771479999994,102.17968800000017,-25.89746100000002,56.53857400000015
300,95.64111300000059,-345.1281740000004,81.41015599999992,76.9228520000006,74.48730499999965,115.38476599999922,117.56396500000028,124.87158199999976,121.0258789999998,108.0771479999994,155.6411130000006,104.74365200000011,-17.30761700000039,63.589844000000085
301,100.51269500000035,-337.820557,86.9228520000006,77.94873000000007,73.20507799999996,115.51269500000035,120.12841800000024,130.76904300000024,126.9228520000006,120.12841800000024,161.2822270000006,106.0258789999998,-7.564209000000574,70.38476599999922
302,103.20507799999996,-334.61547900000005,89.10253900000043,82.05126999999993,66.79492200000004,118.46142599999985,122.30761700000039,130.89746099999957,134.3588869999994,130.76904300000024,162.17968800000017,106.6665039999998,-2.6923829999996087,73.9741210000002
303,103.84619099999964,-335.0,88.0771479999994,88.3334960000002,67.43603499999972,124.48730499999965,125.25634799999989,127.17968800000017,140.12841800000024,134.3588869999994,160.2563479999999,107.56396500000028,-4.230713000000378,74.48730499999965
304,104.10253900000043,-335.897461,85.76904300000024,94.61523400000078,82.69238299999961,131.2822270000006,127.82031300000017,124.61523400000078,143.7177729999994,133.3334960000002,159.23095699999976,108.84619099999964,-8.58984399999963,74.23095699999976
305,104.10253900000043,-335.2563479999999,83.7177729999994,96.9228520000006,106.6665039999998,135.6411130000006,128.46142599999985,126.53857400000015,146.15380900000036,133.9741210000002,161.2822270000006,109.35888699999941,-11.538574000000153,73.9741210000002
306,102.56396500000028,-333.71801800000003,81.53857400000015,92.56396500000028,122.30761700000039,136.0258789999998,126.41015599999992,132.05126999999993,146.41015599999992,140.0,163.84619099999964,107.82031300000017,-11.41015600000037,73.20507799999996
307,98.58984400000008,-333.71801800000003,78.58984400000008,83.58984400000008,115.76904300000024,133.84619099999964,123.20507799999996,136.79492200000004,142.3076170000004,148.84619099999964,162.94873000000007,104.48730499999965,-9.8718259999996,71.15380900000036
308,93.46142599999985,-335.7692869999996,75.38476599999922,76.15380900000036,89.23095699999976,131.2822270000006,121.0258789999998,137.05126999999993,134.23095699999976,153.46142599999985,157.17968800000017,101.0258789999998,-9.743652000000111,68.84619099999964
309,89.48730499999965,-338.076904,73.20507799999996,75.76904300000024,59.23095699999976,129.7436520000001,121.15380900000036,132.6923829999996,127.05126999999993,148.20507799999996,148.9741210000002,99.35888699999941,-12.307617000000391,67.82031300000017
310,88.3334960000002,-338.33325200000036,72.94873000000007,81.6665039999998,43.20507799999996,129.23095699999976,122.05126999999993,125.89746099999957,126.79492200000004,133.20507799999996,143.20507799999996,99.87158199999976,-17.435790999999426,68.0771479999994
311,89.10253900000043,-336.66674799999964,73.46142599999985,86.6665039999998,46.410155999999915,129.48730499999965,121.41015599999992,120.12841800000024,134.61523400000078,114.74365200000011,142.17968800000017,101.53857400000015,-23.205077999999958,67.43603499999972
312,88.9741210000002,-334.8718259999996,72.69238299999961,83.9741210000002,59.23095699999976,130.2563479999999,118.58984400000008,117.05126999999993,144.61523400000078,101.53857400000015,144.10253900000043,102.56396500000028,-27.435790999999426,64.23095699999976
313,86.79492200000004,-334.35888699999987,69.74365200000011,73.7177729999994,67.17968800000017,131.53857400000015,115.12841800000024,116.53857400000015,148.0771479999994,99.35888699999941,144.7436520000001,102.30761700000039,-28.846190999999635,58.974121000000196
314,84.35888699999941,-333.97436500000003,66.6665039999998,63.7177729999994,62.82031300000017,132.94873000000007,113.46142599999985,117.43603499999972,141.41015599999992,108.0771479999994,142.17968800000017,101.15380900000036,-27.948729999999614,55.0
315,85.89746099999957,-331.41015600000037,67.56396500000028,63.333496000000196,50.25634799999989,134.3588869999994,115.12841800000024,118.0771479999994,129.10253900000043,121.9228520000006,139.10253900000043,100.38476599999922,-25.1281740000004,56.79492200000004
316,92.94873000000007,-327.179443,73.58984400000008,73.46142599999985,37.94873000000007,134.48730499999965,118.7177729999994,116.9228520000006,118.7177729999994,132.82031300000017,138.84619099999964,101.0258789999998,-22.30761700000039,64.74365200000011
317,101.0258789999998,-324.61547900000005,81.53857400000015,84.23095699999976,30.128418000000238,132.05126999999993,121.15380900000036,112.43603499999972,113.46142599999985,134.3588869999994,141.41015599999992,102.30761700000039,-22.435790999999426,73.0771479999994
318,103.58984400000008,-327.179443,85.89746099999957,83.46142599999985,28.077147999999397,127.69238299999961,120.12841800000024,105.38476599999922,110.76904300000024,125.64111300000059,142.6923829999996,102.69238299999961,-27.564209000000574,75.12841800000024
319,99.48730499999965,-332.179443,84.87158199999976,71.15380900000036,35.0,125.0,118.3334960000002,101.2822270000006,108.20507799999996,113.7177729999994,141.41015599999992,101.53857400000015,-35.0,69.74365200000011
320,95.25634799999989,-332.5642090000006,82.17968800000017,60.38476599999922,55.0,127.05126999999993,120.64111300000059,107.43603499999972,109.10253900000043,108.84619099999964,141.2822270000006,101.2822270000006,-37.948729999999614,63.589844000000085
321,98.46142599999985,-322.9487299999996,83.0771479999994,65.0,85.51269500000035,133.3334960000002,130.0,125.12841800000024,117.82031300000017,116.2822270000006,147.56396500000028,103.9741210000002,-30.89746100000002,65.38476599999922
322,109.48730499999965,-306.923096,88.84619099999964,84.48730499999965,113.20507799999996,138.84619099999964,142.17968800000017,145.89746099999957,133.20507799999996,131.15380900000036,159.48730499999965,109.23095699999976,-15.38452099999995,76.6665039999998
323,120.38476599999922,-294.4870609999998,94.74365200000011,103.9741210000002,122.43603499999972,138.0771479999994,149.3588869999994,156.2822270000006,147.05126999999993,142.43603499999972,169.23095699999976,114.35888699999941,0.256347999999889,90.12841800000024
324,121.41015599999992,-294.35888699999987,94.74365200000011,107.56396500000028,107.94873000000007,130.38476599999922,146.41015599999992,148.58984400000008,150.6411130000006,142.17968800000017,168.0771479999994,116.0258789999998,6.538574000000153,95.12841800000024
325,110.0,-307.0512700000004,86.79492200000004,90.51269500000035,79.23095699999976,120.0,135.2563479999999,127.56396500000028,142.3076170000004,130.89746099999957,154.48730499999965,112.94873000000007,0.12841800000023795,86.6665039999998
326,92.05126999999993,-324.8718259999996,74.61523400000078,62.30761700000039,52.43603499999972,112.43603499999972,122.69238299999961,106.0258789999998,127.94873000000007,116.53857400000015,135.12841800000024,106.53857400000015,-14.487060999999812,68.84619099999964
327,77.43603499999972,-337.5642090000006,65.0,39.35888699999941,39.23095699999976,110.12841800000024,115.38476599999922,95.64111300000059,116.79492200000004,107.82031300000017,120.38476599999922,100.12841800000024,-28.461425999999847,51.9228520000006
328,72.82031300000017,-339.102539,63.7177729999994,33.46142599999985,39.61523400000078,111.9228520000006,116.15380900000036,99.23095699999976,115.0,108.46142599999985,117.94873000000007,96.6665039999998,-34.35888699999987,44.48730499999965
329,77.69238299999961,-331.79492200000004,70.76904300000024,44.74365200000011,46.025878999999804,115.64111300000059,123.20507799999996,110.89746099999957,121.9228520000006,116.0258789999998,126.53857400000015,97.69238299999961,-31.41015600000037,48.20507799999996
330,85.76904300000024,-323.33325200000036,81.15380900000036,62.17968800000017,53.333496000000196,119.35888699999941,132.05126999999993,120.89746099999957,130.12841800000024,125.12841800000024,137.82031300000017,101.9228520000006,-24.8718259999996,56.9228520000006
331,90.64111300000059,-319.4870609999998,88.3334960000002,73.7177729999994,62.56396500000028,122.30761700000039,138.20507799999996,123.3334960000002,132.56396500000028,131.41015599999992,143.20507799999996,105.64111300000059,-20.512939000000188,63.333496000000196
332,89.35888699999941,-320.1281740000004,89.10253900000043,73.58984400000008,74.23095699999976,123.58984400000008,139.61523400000078,119.74365200000011,128.0771479999994,134.10253900000043,140.12841800000024,106.15380900000036,-20.641113000000132,63.974121000000196
333,84.61523400000078,-320.64111300000013,85.51269500000035,65.38476599999922,83.20507799999996,123.46142599999985,136.53857400000015,116.2822270000006,122.43603499999972,133.9741210000002,133.0771479999994,103.84619099999964,-22.69238299999961,61.025878999999804
334,81.53857400000015,-316.66674799999964,81.79492200000004,57.05126999999993,82.05126999999993,122.30761700000039,131.9228520000006,117.94873000000007,122.05126999999993,131.9228520000006,129.23095699999976,101.6665039999998,-22.820557000000008,60.12841800000024
335,84.23095699999976,-307.179443,81.0258789999998,55.897460999999566,70.25634799999989,121.2822270000006,129.48730499999965,124.48730499999965,128.84619099999964,128.3334960000002,132.6923829999996,102.30761700000039,-18.461425999999847,64.74365200000011
336,91.9228520000006,-296.41015600000037,83.3334960000002,62.69238299999961,57.43603499999972,121.53857400000015,131.41015599999992,131.53857400000015,137.56396500000028,123.9741210000002,141.6665039999998,105.38476599999922,-11.153809000000365,73.58984400000008
337,100.0,-290.0,86.15380900000036,72.30761700000039,54.48730499999965,123.58984400000008,136.6665039999998,134.48730499999965,141.41015599999992,119.87158199999976,149.61523400000078,108.84619099999964,-5.641113000000132,80.89746099999957
338,103.3334960000002,-291.41015600000037,87.56396500000028,77.94873000000007,64.23095699999976,126.0258789999998,141.79492200000004,131.9228520000006,137.56396500000028,117.69238299999961,151.15380900000036,110.76904300000024,-5.38452099999995,81.79492200000004
339,100.38476599999922,-298.46142599999985,87.30761700000039,76.15380900000036,77.82031300000017,126.41015599999992,143.20507799999996,125.64111300000059,129.61523400000078,119.35888699999941,146.2822270000006,110.76904300000024,-9.743652000000111,76.53857400000015
340,93.58984400000008,-305.2563479999999,86.41015599999992,69.10253900000043,83.58984400000008,123.20507799999996,140.51269500000035,118.84619099999964,122.94873000000007,125.25634799999989,139.3588869999994,109.35888699999941,-14.61547900000005,70.0
341,87.30761700000039,-307.0512700000004,85.25634799999989,61.153809000000365,78.58984400000008,117.82031300000017,135.89746099999957,114.10253900000043,120.12841800000024,132.94873000000007,134.87158199999976,107.43603499999972,-16.538574000000153,66.53857400000015
342,84.35888699999941,-303.46142599999985,83.46142599999985,56.153809000000365,70.38476599999922,113.58984400000008,132.6923829999996,112.30761700000039,119.74365200000011,137.82031300000017,133.58984400000008,106.0258789999998,-15.641113000000132,66.6665039999998
343,85.12841800000024,-297.9487299999996,80.76904300000024,56.2822270000006,68.3334960000002,113.7177729999994,132.3076170000004,113.0771479999994,119.35888699999941,136.0258789999998,133.20507799999996,105.12841800000024,-15.512939000000188,67.43603499999972
344,87.69238299999961,-295.0,78.20507799999996,61.025878999999804,74.35888699999941,117.05126999999993,133.84619099999964,114.61523400000078,118.58984400000008,127.05126999999993,131.6665039999998,104.74365200000011,-18.846190999999635,65.89746099999957
345,89.23095699999976,-296.28198199999997,77.30761700000039,67.56396500000028,82.30761700000039,119.74365200000011,134.87158199999976,115.25634799999989,118.0771479999994,116.0258789999998,129.3588869999994,105.0,-24.358886999999868,61.79492200000004
346,89.10253900000043,-299.2307130000004,79.35888699999941,72.17968800000017,85.38476599999922,119.10253900000043,134.23095699999976,113.7177729999994,117.69238299999961,110.0,128.7177729999994,106.0258789999998,-27.948729999999614,58.0771479999994
347,88.58984400000008,-298.71801800000003,84.10253900000043,73.20507799999996,82.43603499999972,115.64111300000059,133.0771479999994,111.79492200000004,118.20507799999996,113.3334960000002,132.6923829999996,108.3334960000002,-25.512939000000188,58.589844000000085
348,89.61523400000078,-291.66674799999964,89.35888699999941,70.89746099999957,76.0258789999998,112.43603499999972,133.84619099999964,112.17968800000017,120.0,124.10253900000043,140.12841800000024,110.89746099999957,-17.820557000000008,63.974121000000196
349,91.9228520000006,-281.53857400000015,92.43603499999972,65.89746099999957,67.82031300000017,111.79492200000004,137.43603499999972,116.0258789999998,122.82031300000017,133.9741210000002,145.89746099999957,112.30761700000039,-10.512939000000188,70.64111300000059
350,92.69238299999961,-276.02563499999997,91.79492200000004,59.23095699999976,57.30761700000039,113.20507799999996,141.0258789999998,120.64111300000059,124.48730499999965,135.0,144.48730499999965,111.53857400000015,-10.769286999999622,72.82031300000017
351,89.48730499999965,-280.38452099999995,87.82031300000017,52.82031300000017,46.153809000000365,114.23095699999976,141.41015599999992,122.05126999999993,123.3334960000002,125.51269500000035,134.87158199999976,108.58984400000008,-20.512939000000188,67.43603499999972
352,82.69238299999961,-292.3076170000004,83.20507799999996,48.7177729999994,39.87158199999976,113.84619099999964,137.3076170000004,118.9741210000002,120.25634799999989,111.53857400000015,121.53857400000015,104.23095699999976,-34.35888699999987,56.79492200000004
353,75.89746099999957,-302.4357909999994,80.64111300000059,49.23095699999976,47.05126999999993,113.20507799999996,131.41015599999992,113.9741210000002,118.0771479999994,102.94873000000007,112.05126999999993,100.38476599999922,-43.33325200000036,47.69238299999961
354,74.10253900000043,-302.0512700000004,81.53857400000015,55.0,70.51269500000035,114.10253900000043,128.9741210000002,111.9228520000006,119.23095699999976,106.6665039999998,112.56396500000028,99.10253900000043,-41.41015600000037,46.53857400000015
355,79.23095699999976,-289.7436520000001,85.25634799999989,63.974121000000196,102.05126999999993,117.17968800000017,133.58984400000008,116.15380900000036,123.7177729999994,121.0258789999998,123.20507799999996,100.51269500000035,-29.8718259999996,54.74365200000011
356,87.82031300000017,-273.076904,88.9741210000002,71.2822270000006,124.48730499999965,120.64111300000059,143.20507799999996,124.74365200000011,128.7177729999994,136.41015599999992,136.9228520000006,103.0771479999994,-17.051270000000386,67.05126999999993
357,93.7177729999994,-262.179443,90.0,72.56396500000028,125.64111300000059,122.30761700000039,151.6665039999998,131.79492200000004,130.76904300000024,142.17968800000017,144.3588869999994,105.76904300000024,-12.051270000000386,75.64111300000059
358,93.0771479999994,-262.0512700000004,88.20507799999996,68.3334960000002,109.61523400000078,121.2822270000006,153.58984400000008,132.17968800000017,128.46142599999985,135.76904300000024,140.6411130000006,107.69238299999961,-17.564209000000574,76.15380900000036
359,86.9228520000006,-269.7436520000001,85.64111300000059,64.10253900000043,90.64111300000059,118.84619099999964,148.3334960000002,125.38476599999922,123.20507799999996,123.9741210000002,129.23095699999976,108.20507799999996,-28.846190999999635,69.35888699999941
360,79.35888699999941,-279.2307130000004,83.84619099999964,63.846190999999635,78.0771479999994,116.41015599999992,139.61523400000078,114.74365200000011,116.79492200000004,115.64111300000059,116.9228520000006,106.53857400000015,-39.48706099999981,59.61523400000078
361,73.3334960000002,-286.41015600000037,82.82031300000017,66.2822270000006,68.3334960000002,113.84619099999964,132.05126999999993,105.12841800000024,110.12841800000024,113.3334960000002,108.7177729999994,102.94873000000007,-45.89746100000002,50.76904300000024
362,70.25634799999989,-289.7436520000001,81.53857400000015,67.30761700000039,54.48730499999965,111.15380900000036,128.7177729999994,100.38476599999922,104.87158199999976,113.0771479999994,105.76904300000024,98.84619099999964,-48.33325200000036,45.64111300000059
363,71.15380900000036,-287.4357909999994,80.64111300000059,65.64111300000059,40.25634799999989,109.35888699999941,131.0258789999998,102.82031300000017,104.10253900000043,111.15380900000036,107.94873000000007,96.79492200000004,-46.025634999999966,46.2822270000006
364,76.6665039999998,-278.71801800000003,81.79492200000004,64.61523400000078,39.87158199999976,111.15380900000036,138.3334960000002,112.17968800000017,110.64111300000059,108.3334960000002,115.0,98.3334960000002,-37.564209000000574,53.46142599999985
365,85.25634799999989,-266.02563499999997,85.64111300000059,66.53857400000015,62.56396500000028,117.30761700000039,147.05126999999993,125.0,123.0771479999994,107.82031300000017,125.25634799999989,102.94873000000007,-24.230713000000378,64.10253900000043
366,92.17968800000017,-255.76928699999962,89.87158199999976,69.61523400000078,96.2822270000006,125.12841800000024,152.17968800000017,135.0,134.87158199999976,109.48730499999965,133.7177729999994,108.3334960000002,-12.051270000000386,71.2822270000006
367,92.30761700000039,-253.97436500000003,90.38476599999922,68.7177729999994,113.46142599999985,129.61523400000078,149.48730499999965,136.41015599999992,138.7177729999994,110.51269500000035,134.3588869999994,111.0258789999998,-8.846190999999635,68.7177729999994
368,83.84619099999964,-261.41015600000037,85.0,61.53857400000015,95.0,127.17968800000017,139.7436520000001,127.69238299999961,131.9228520000006,109.35888699999941,124.74365200000011,109.23095699999976,-17.69238299999961,56.53857400000015
369,70.64111300000059,-273.20507799999996,76.0258789999998,50.51269500000035,51.2822270000006,119.10253900000043,128.20507799999996,113.7177729999994,118.3334960000002,108.0771479999994,108.7177729999994,104.23095699999976,-33.846190999999635,41.153809000000365
370,60.0,-281.923096,68.46142599999985,41.153809000000365,15.384765999999217,110.76904300000024,120.76904300000024,101.6665039999998,104.74365200000011,109.61523400000078,94.61523400000078,99.10253900000043,-48.20507799999996,31.410155999999915
371,56.79492200000004,-283.20507799999996,66.15380900000036,37.56396500000028,14.871581999999762,107.05126999999993,120.25634799999989,96.6665039999998,96.2822270000006,113.20507799999996,88.9741210000002,96.53857400000015,-53.846190999999635,31.410155999999915
372,61.025878999999804,-278.33325200000036,70.0,40.0,47.30761700000039,109.35888699999941,124.48730499999965,98.84619099999964,93.46142599999985,115.38476599999922,92.30761700000039,97.30761700000039,-50.51293900000019,38.7177729999994
373,69.23095699999976,-271.41015600000037,77.69238299999961,47.05126999999993,84.74365200000011,114.87158199999976,129.61523400000078,105.25634799999989,95.12841800000024,114.61523400000078,101.2822270000006,100.38476599999922,-42.30761700000039,47.82031300000017
374,78.7177729999994,-264.7436520000001,85.51269500000035,57.17968800000017,98.7177729999994,119.48730499999965,133.3334960000002,113.20507799999996,100.76904300000024,113.0771479999994,111.41015599999992,104.35888699999941,-33.33325200000036,55.12841800000024
375,86.9228520000006,-257.6923829999996,90.12841800000024,68.0771479999994,84.48730499999965,120.89746099999957,135.51269500000035,121.15380900000036,110.89746099999957,114.61523400000078,119.61523400000078,107.56396500000028,-25.89746100000002,60.64111300000059
376,91.6665039999998,-249.4870609999998,90.0,75.51269500000035,61.666503999999804,119.48730499999965,137.05126999999993,127.30761700000039,123.46142599999985,119.35888699999941,123.58984400000008,108.7177729999994,-21.153809000000365,64.74365200000011
377,91.2822270000006,-242.43579099999943,85.64111300000059,74.87158199999976,56.79492200000004,117.56396500000028,137.05126999999993,129.48730499999965,132.6923829999996,122.82031300000017,121.6665039999998,107.43603499999972,-20.25634799999989,66.9228520000006
378,85.89746099999957,-241.28198199999997,79.35888699999941,63.974121000000196,77.56396500000028,117.05126999999993,134.10253900000043,125.76904300000024,131.9228520000006,119.10253900000043,113.84619099999964,104.35888699999941,-24.487060999999812,64.87158199999976
379,76.9228520000006,-249.10253899999998,73.3334960000002,44.87158199999976,105.0,117.82031300000017,127.30761700000039,115.51269500000035,118.84619099999964,107.17968800000017,101.9228520000006,100.76904300000024,-34.23071300000038,56.53857400000015
380,66.2822270000006,-263.46142599999985,68.46142599999985,23.589844000000085,109.48730499999965,118.46142599999985,118.3334960000002,101.2822270000006,98.58984400000008,91.53857400000015,88.58984400000008,97.94873000000007,-47.30761700000039,42.94873000000007
381,57.43603499999972,-276.79492200000004,65.38476599999922,8.461425999999847,79.23095699999976,117.43603499999972,111.53857400000015,88.84619099999964,81.41015599999992,79.61523400000078,78.58984400000008,96.53857400000015,-58.46142599999985,29.74365200000011
382,55.0,-280.5129390000002,65.0,6.538574000000153,33.20507799999996,115.76904300000024,111.53857400000015,85.38476599999922,76.15380900000036,76.2822270000006,76.79492200000004,96.9228520000006,-60.76928699999962,24.48730499999965
383,61.153809000000365,-271.79492200000004,67.69238299999961,18.205077999999958,3.846190999999635,115.38476599999922,118.9741210000002,92.69238299999961,84.35888699999941,80.64111300000059,83.84619099999964,99.23095699999976,-51.92309599999999,30.641113000000587
