,EEG.AF3,EEG.F7,EEG.F3,EEG.FC5,EEG.T7,EEG.P7,EEG.O1,EEG.O2,EEG.P8,EEG.T8,EEG.FC6,EEG.F4,EEG.F8,EEG.AF4
0,115.51269500000035,104.74365200000011,124.48730499999965,376.0258789999998,116.9228520000006,118.58984400000008,114.23095699999976,117.30761700000039,121.79492200000004,102.56396500000028,170.2563479999999,115.25634799999989,115.76904300000024,114.23095699999976
1,118.46142599999985,104.61523400000078,127.05126999999993,378.20507799999996,120.38476599999922,119.23095699999976,116.15380900000036,119.61523400000078,126.79492200000004,102.94873000000007,176.41015599999992,117.56396500000028,121.15380900000036,117.82031300000017
2,120.0,100.51269500000035,124.87158199999976,379.3588869999994,121.53857400000015,117.69238299999961,115.64111300000059,119.35888699999941,125.64111300000059,99.35888699999941,178.46142599999985,118.0771479999994,123.7177729999994,116.79492200000004
3,117.82031300000017,93.0771479999994,117.94873000000007,377.94873000000007,116.79492200000004,115.76904300000024,111.9228520000006,115.76904300000024,118.20507799999996,92.05126999999993,174.48730499999965,115.51269500000035,121.53857400000015,111.41015599999992
4,113.20507799999996,85.89746099999957,109.74365200000011,375.12841800000024,107.94873000000007,115.25634799999989,106.53857400000015,110.12841800000024,109.23095699999976,84.61523400000078,167.3076170000004,110.89746099999957,116.53857400000015,105.38476599999922
5,109.74365200000011,82.69238299999961,105.25634799999989,373.46142599999985,100.25634799999989,116.41015599999992,102.05126999999993,105.25634799999989,103.84619099999964,81.6665039999998,161.53857400000015,106.6665039999998,112.94873000000007,103.0771479999994
6,110.0,84.74365200000011,106.6665039999998,374.23095699999976,97.69238299999961,117.43603499999972,100.38476599999922,102.56396500000028,104.48730499999965,83.7177729999994,160.12841800000024,104.87158199999976,112.82031300000017,105.0
7,112.56396500000028,89.23095699999976,111.79492200000004,376.53857400000015,99.61523400000078,116.15380900000036,101.53857400000015,102.05126999999993,108.20507799999996,86.6665039999998,162.3076170000004,105.12841800000024,114.35888699999941,108.7177729999994
8,114.10253900000043,91.15380900000036,116.0258789999998,377.94873000000007,101.6665039999998,112.05126999999993,103.84619099999964,102.17968800000017,109.87158199999976,85.51269500000035,164.3588869999994,105.89746099999957,114.61523400000078,110.89746099999957
9,112.69238299999961,88.3334960000002,116.0258789999998,377.3076170000004,100.0,107.56396500000028,105.38476599999922,101.41015599999992,106.2822270000006,79.10253900000043,163.7177729999994,106.2822270000006,112.56396500000028,110.25634799999989
10,109.61523400000078,82.43603499999972,112.56396500000028,375.6411130000006,94.74365200000011,105.38476599999922,105.0,100.25634799999989,100.0,71.2822270000006,160.76904300000024,106.15380900000036,110.0,108.20507799999996
11,107.56396500000028,77.69238299999961,109.48730499999965,374.23095699999976,88.9741210000002,107.05126999999993,103.7177729999994,99.61523400000078,95.76904300000024,66.6665039999998,158.7177729999994,105.64111300000059,109.74365200000011,107.05126999999993
12,108.7177729999994,76.6665039999998,109.61523400000078,374.10253900000043,86.41015599999992,111.53857400000015,102.56396500000028,100.12841800000024,97.05126999999993,66.9228520000006,159.7436520000001,104.74365200000011,112.82031300000017,108.3334960000002
13,112.94873000000007,78.7177729999994,112.69238299999961,374.87158199999976,88.46142599999985,115.89746099999957,102.56396500000028,101.53857400000015,103.0771479999994,70.12841800000024,163.9741210000002,103.7177729999994,117.56396500000028,110.89746099999957
14,117.69238299999961,80.64111300000059,115.64111300000059,375.51269500000035,93.9741210000002,117.69238299999961,103.9741210000002,102.69238299999961,109.61523400000078,74.10253900000043,169.48730499999965,103.20507799999996,121.0258789999998,112.30761700000039
15,119.23095699999976,80.51269500000035,116.15380900000036,375.3847659999992,100.25634799999989,116.2822270000006,106.0258789999998,102.94873000000007,112.17968800000017,77.69238299999961,173.9741210000002,103.0771479999994,121.0258789999998,110.12841800000024
16,115.64111300000059,78.3334960000002,113.46142599999985,375.0,104.23095699999976,113.9741210000002,107.17968800000017,102.17968800000017,109.61523400000078,80.12841800000024,175.76904300000024,102.43603499999972,117.69238299999961,104.74365200000011
17,109.23095699999976,76.2822270000006,109.10253900000043,375.3847659999992,103.84619099999964,112.82031300000017,106.41015599999992,100.51269500000035,103.9741210000002,80.64111300000059,175.0,100.76904300000024,113.84619099999964,98.9741210000002
18,105.0,76.6665039999998,105.76904300000024,377.6923829999996,99.61523400000078,113.84619099999964,103.58984400000008,98.9741210000002,98.9741210000002,77.69238299999961,172.94873000000007,98.7177729999994,113.0771479999994,97.17968800000017
19,108.3334960000002,80.38476599999922,106.2822270000006,382.82031300000017,95.0,116.2822270000006,100.76904300000024,98.0771479999994,97.30761700000039,72.43603499999972,172.3076170000004,98.46142599999985,117.94873000000007,101.6665039999998
20,120.25634799999989,86.79492200000004,111.53857400000015,390.89746099999957,93.9741210000002,118.46142599999985,100.25634799999989,98.20507799999996,100.0,68.9741210000002,175.76904300000024,101.15380900000036,128.7177729999994,111.53857400000015
21,136.6665039999998,93.58984400000008,119.74365200000011,400.89746099999957,98.3334960000002,119.10253900000043,102.94873000000007,99.10253900000043,105.76904300000024,71.0258789999998,184.3588869999994,106.41015599999992,143.20507799999996,121.9228520000006
22,151.0258789999998,98.46142599999985,127.56396500000028,410.2563479999999,106.2822270000006,118.46142599999985,107.30761700000039,100.89746099999957,111.79492200000004,77.94873000000007,195.89746099999957,112.56396500000028,157.6923829999996,128.58984400000008
23,159.3588869999994,100.25634799999989,132.05126999999993,416.6665039999998,113.7177729999994,117.43603499999972,110.38476599999922,102.82031300000017,113.9741210000002,84.35888699999941,206.0258789999998,117.69238299999961,168.46142599999985,130.51269500000035
24,162.43603499999972,100.38476599999922,132.82031300000017,420.12841800000024,117.43603499999972,117.05126999999993,110.0,104.10253900000043,111.15380900000036,84.10253900000043,211.0258789999998,119.87158199999976,174.61523400000078,130.2563479999999
25,164.48730499999965,101.53857400000015,131.6665039999998,422.05126999999993,117.82031300000017,117.30761700000039,107.05126999999993,103.58984400000008,105.51269500000035,76.2822270000006,211.2822270000006,118.7177729999994,178.20507799999996,130.76904300000024
26,169.3588869999994,104.87158199999976,131.41015599999992,424.6152340000008,117.69238299999961,117.94873000000007,103.84619099999964,100.76904300000024,101.15380900000036,65.89746099999957,210.89746099999957,115.89746099999957,183.3334960000002,133.84619099999964
27,179.61523400000078,110.12841800000024,133.7177729999994,429.48730499999965,120.12841800000024,118.58984400000008,101.9228520000006,96.0258789999998,99.87158199999976,59.61523400000078,215.2563479999999,114.35888699999941,193.58984400000008,139.3588869999994
28,194.23095699999976,115.51269500000035,138.7177729999994,436.15380900000036,126.53857400000015,118.84619099999964,101.53857400000015,90.89746099999957,100.12841800000024,60.51269500000035,226.53857400000015,115.89746099999957,210.38476599999922,146.2822270000006
29,210.0,120.51269500000035,145.0,443.20507799999996,135.38476599999922,119.10253900000043,100.89746099999957,86.9228520000006,99.74365200000011,66.2822270000006,242.94873000000007,119.61523400000078,230.6411130000006,152.6923829999996
30,222.05126999999993,124.23095699999976,149.61523400000078,447.3076170000004,144.23095699999976,119.23095699999976,98.3334960000002,85.12841800000024,97.05126999999993,70.64111300000059,258.9741210000002,122.56396500000028,249.10253900000043,156.6665039999998
31,228.0771479999994,125.38476599999922,150.76904300000024,446.6665039999998,151.41015599999992,118.9741210000002,93.3334960000002,85.0,92.17968800000017,68.3334960000002,269.3588869999994,122.17968800000017,261.15380900000036,158.20507799999996
32,230.12841800000024,123.0771479999994,148.84619099999964,442.5639650000003,157.3076170000004,117.94873000000007,87.43603499999972,84.35888699999941,86.6665039999998,59.23095699999976,273.46142599999985,119.10253900000043,266.9228520000006,158.84619099999964
33,233.0771479999994,118.9741210000002,146.9228520000006,438.9741210000002,163.9741210000002,117.05126999999993,83.3334960000002,81.53857400000015,81.9228520000006,48.974121000000196,275.89746099999957,116.41015599999992,271.0258789999998,161.0258789999998
34,240.2563479999999,116.9228520000006,148.0771479999994,440.0,173.3334960000002,117.05126999999993,82.94873000000007,77.43603499999972,78.84619099999964,44.23095699999976,283.84619099999964,116.53857400000015,279.23095699999976,165.6411130000006
35,250.51269500000035,118.84619099999964,151.9228520000006,445.3847659999992,185.0,118.9741210000002,85.25634799999989,73.46142599999985,76.6665039999998,47.56396500000028,300.2563479999999,119.35888699999941,293.5898440000001,171.2822270000006
36,259.23095699999976,122.56396500000028,155.6411130000006,450.76904300000024,196.41015599999992,121.9228520000006,87.05126999999993,70.51269500000035,73.9741210000002,55.38476599999922,321.2822270000006,122.94873000000007,310.51269500000035,175.6411130000006
37,262.6923829999996,123.84619099999964,156.0258789999998,451.2822270000006,204.7436520000001,125.12841800000024,85.38476599999922,68.7177729999994,70.76904300000024,62.17968800000017,339.23095699999976,124.48730499999965,323.5898440000001,176.9228520000006
38,260.89746099999957,120.89746099999957,153.58984400000008,446.9228520000006,209.87158199999976,127.30761700000039,80.0,66.9228520000006,68.20507799999996,65.25634799999989,348.20507799999996,122.82031300000017,328.84619099999964,175.12841800000024
39,257.5639650000003,115.64111300000059,150.6411130000006,441.79492200000004,214.10253900000043,128.46142599999985,73.58984400000008,64.87158199999976,67.56396500000028,66.15380900000036,348.5898440000001,119.23095699999976,327.4360349999997,171.9228520000006
40,255.76904300000024,111.41015599999992,149.10253900000043,439.7436520000001,219.48730499999965,129.23095699999976,69.74365200000011,62.94873000000007,68.3334960000002,68.3334960000002,344.87158199999976,116.0258789999998,323.3334960000002,169.3588869999994
41,255.12841800000024,108.46142599999985,148.58984400000008,440.2563479999999,226.0258789999998,130.51269500000035,69.23095699999976,61.2822270000006,67.94873000000007,72.43603499999972,341.53857400000015,115.25634799999989,319.23095699999976,167.94873000000007
42,252.6923829999996,104.10253900000043,146.6665039999998,439.6152340000008,231.79492200000004,132.17968800000017,70.38476599999922,59.23095699999976,63.46142599999985,76.6665039999998,340.0,115.76904300000024,315.3847659999992,166.9228520000006
43,247.17968800000017,96.79492200000004,142.17968800000017,435.2563479999999,235.12841800000024,133.84619099999964,71.0258789999998,56.025878999999804,55.76904300000024,79.23095699999976,339.7436520000001,115.38476599999922,310.6411130000006,165.38476599999922
44,241.15380900000036,88.20507799999996,137.17968800000017,429.48730499999965,235.89746099999957,134.61523400000078,70.38476599999922,52.69238299999961,49.102539000000434,81.6665039999998,340.6411130000006,112.82031300000017,305.76904300000024,163.84619099999964
45,240.0,83.46142599999985,135.6411130000006,427.17968800000017,236.53857400000015,134.3588869999994,69.87158199999976,51.666503999999804,48.589844000000085,87.30761700000039,343.84619099999964,110.25634799999989,303.5898440000001,163.58984400000008
46,246.6665039999998,86.41015599999992,139.7436520000001,431.6665039999998,240.0,133.3334960000002,71.2822270000006,54.74365200000011,54.87158199999976,97.43603499999972,349.87158199999976,110.51269500000035,305.51269500000035,165.38476599999922
47,257.5639650000003,96.9228520000006,147.82031300000017,441.6665039999998,247.94873000000007,132.6923829999996,74.87158199999976,61.153809000000365,63.589844000000085,109.23095699999976,356.6665039999998,113.9741210000002,309.23095699999976,167.6923829999996
48,264.7436520000001,109.10253900000043,155.12841800000024,451.53857400000015,258.9741210000002,133.0771479999994,79.10253900000043,67.56396500000028,69.35888699999941,117.69238299999961,360.0,117.56396500000028,309.10253900000043,168.0771479999994
49,261.9228520000006,115.64111300000059,156.79492200000004,455.3847659999992,268.7177729999994,134.10253900000043,81.6665039999998,70.12841800000024,68.7177729999994,118.9741210000002,356.2822270000006,118.20507799999996,300.6411130000006,164.48730499999965
50,249.48730499999965,112.17968800000017,151.15380900000036,451.2822270000006,272.05126999999993,134.48730499999965,80.76904300000024,66.6665039999998,62.17968800000017,113.0771479999994,345.51269500000035,114.74365200000011,283.7177729999994,157.56396500000028
51,234.23095699999976,100.12841800000024,140.89746099999957,442.5639650000003,267.5639650000003,133.7177729999994,76.15380900000036,59.102539000000434,53.0771479999994,103.3334960000002,331.53857400000015,108.84619099999964,263.84619099999964,150.38476599999922
52,223.58984400000008,86.41015599999992,131.9228520000006,435.3847659999992,259.23095699999976,132.94873000000007,70.64111300000059,51.9228520000006,46.025878999999804,96.2822270000006,319.6152340000008,103.9741210000002,247.6923829999996,145.76904300000024
53,220.6411130000006,78.3334960000002,128.7177729999994,434.3588869999994,254.10253900000043,134.87158199999976,67.82031300000017,50.0,45.12841800000024,97.69238299999961,314.23095699999976,102.56396500000028,238.84619099999964,144.7436520000001
54,222.3076170000004,79.10253900000043,131.6665039999998,439.10253900000043,257.3076170000004,139.87158199999976,69.48730499999965,54.35888699999941,50.25634799999989,108.0771479999994,315.51269500000035,105.12841800000024,235.89746099999957,145.12841800000024
55,223.20507799999996,85.12841800000024,136.41015599999992,444.6152340000008,268.0771479999994,145.6411130000006,73.46142599999985,60.897460999999566,57.17968800000017,121.2822270000006,318.46142599999985,108.84619099999964,233.9741210000002,143.84619099999964
56,219.10253900000043,89.35888699999941,138.3334960000002,445.51269500000035,280.12841800000024,148.20507799999996,76.53857400000015,63.46142599999985,60.12841800000024,128.58984400000008,316.79492200000004,110.12841800000024,227.43603499999972,139.7436520000001
57,210.38476599999922,87.69238299999961,136.0258789999998,440.12841800000024,287.5639650000003,146.2822270000006,76.9228520000006,60.0,56.9228520000006,126.41015599999992,308.20507799999996,108.0771479999994,215.0,134.61523400000078
58,201.15380900000036,81.15380900000036,131.79492200000004,430.89746099999957,289.6152340000008,142.05126999999993,76.0258789999998,54.48730499999965,50.897460999999566,119.23095699999976,296.6665039999998,104.35888699999941,200.2563479999999,130.76904300000024
59,195.51269500000035,74.61523400000078,129.23095699999976,421.53857400000015,290.76904300000024,138.58984400000008,76.6665039999998,53.589844000000085,48.333496000000196,116.0258789999998,288.20507799999996,102.30761700000039,188.84619099999964,129.61523400000078
60,194.61523400000078,71.0258789999998,130.12841800000024,414.48730499999965,295.6411130000006,137.43603499999972,80.38476599999922,60.0,52.69238299999961,121.6665039999998,286.2822270000006,103.46142599999985,183.3334960000002,130.0
61,195.51269500000035,70.0,133.46142599999985,408.7177729999994,303.9741210000002,137.94873000000007,85.51269500000035,69.74365200000011,61.2822270000006,133.58984400000008,288.9741210000002,106.41015599999992,181.6665039999998,130.12841800000024
62,194.10253900000043,69.23095699999976,135.76904300000024,401.79492200000004,310.89746099999957,138.84619099999964,88.84619099999964,75.51269500000035,67.94873000000007,143.46142599999985,291.4101559999999,108.3334960000002,179.10253900000043,128.20507799999996
63,187.6923829999996,66.53857400000015,134.10253900000043,392.05126999999993,310.2563479999999,139.3588869999994,87.94873000000007,73.0771479999994,67.56396500000028,144.48730499999965,289.7436520000001,107.30761700000039,172.3076170000004,124.35888699999941
64,176.6665039999998,61.153809000000365,127.82031300000017,379.48730499999965,301.4101559999999,139.3588869999994,83.7177729999994,64.35888699999941,59.87158199999976,136.53857400000015,283.3334960000002,103.3334960000002,161.6665039999998,119.61523400000078
65,164.61523400000078,54.23095699999976,119.48730499999965,365.6411130000006,290.3847659999992,139.23095699999976,79.61523400000078,55.76904300000024,50.12841800000024,126.6665039999998,274.48730499999965,98.84619099999964,150.38476599999922,115.25634799999989
66,156.0258789999998,48.333496000000196,113.9741210000002,354.10253900000043,286.6665039999998,140.38476599999922,79.35888699999941,53.589844000000085,46.025878999999804,124.35888699999941,267.4360349999997,95.64111300000059,142.56396500000028,112.94873000000007
67,153.3334960000002,46.2822270000006,114.74365200000011,347.6923829999996,296.2822270000006,143.58984400000008,84.10253900000043,59.87158199999976,51.9228520000006,133.9741210000002,265.51269500000035,95.25634799999989,140.51269500000035,113.9741210000002
68,155.89746099999957,48.974121000000196,121.0258789999998,346.53857400000015,315.76904300000024,147.43603499999972,90.64111300000059,70.76904300000024,65.25634799999989,151.0258789999998,268.7177729999994,97.43603499999972,142.43603499999972,117.17968800000017
69,159.87158199999976,53.589844000000085,128.20507799999996,346.15380900000036,334.6152340000008,149.3588869999994,93.9741210000002,79.23095699999976,76.9228520000006,165.76904300000024,273.0771479999994,100.76904300000024,144.48730499999965,120.0
70,160.38476599999922,55.51269500000035,130.76904300000024,341.15380900000036,342.6923829999996,147.6923829999996,90.51269500000035,80.38476599999922,78.84619099999964,170.0,273.9741210000002,102.94873000000007,142.94873000000007,119.48730499999965
71,155.51269500000035,52.30761700000039,127.56396500000028,330.0,337.82031300000017,143.0771479999994,82.05126999999993,74.61523400000078,70.0,163.7177729999994,269.6152340000008,102.30761700000039,137.56396500000028,116.15380900000036
72,147.6923829999996,45.51269500000035,121.41015599999992,316.79492200000004,326.53857400000015,138.20507799999996,73.7177729999994,67.30761700000039,57.56396500000028,153.9741210000002,262.5639650000003,99.61523400000078,131.15380900000036,112.56396500000028
73,141.41015599999992,39.48730499999965,116.9228520000006,307.5639650000003,319.10253900000043,135.0,71.0258789999998,63.846190999999635,51.2822270000006,150.12841800000024,257.6923829999996,97.43603499999972,127.05126999999993,111.15380900000036
74,139.7436520000001,37.56396500000028,116.53857400000015,305.0,321.15380900000036,134.23095699999976,75.12841800000024,65.51269500000035,55.12841800000024,155.6411130000006,257.5639650000003,97.69238299999961,126.41015599999992,111.79492200000004
75,141.9228520000006,39.48730499999965,119.61523400000078,306.53857400000015,330.2563479999999,136.0258789999998,82.30761700000039,69.87158199999976,65.64111300000059,166.41015599999992,260.3847659999992,99.61523400000078,127.30761700000039,112.43603499999972
76,144.61523400000078,42.17968800000017,123.20507799999996,307.94873000000007,339.3588869999994,139.87158199999976,87.82031300000017,73.3334960000002,75.25634799999989,175.2563479999999,262.82031300000017,101.41015599999992,126.9228520000006,111.2822270000006
77,145.6411130000006,42.69238299999961,124.74365200000011,306.53857400000015,342.5639650000003,144.23095699999976,89.23095699999976,74.48730499999965,79.10253900000043,177.43603499999972,262.5639650000003,101.79492200000004,123.9741210000002,108.84619099999964
78,144.61523400000078,40.12841800000024,123.9741210000002,302.3076170000004,339.3588869999994,146.79492200000004,88.0771479999994,74.61523400000078,76.79492200000004,173.58984400000008,259.48730499999965,100.89746099999957,119.74365200000011,106.9228520000006
79,142.17968800000017,35.897460999999566,122.05126999999993,296.6665039999998,333.46142599999985,146.15380900000036,86.9228520000006,75.0,72.05126999999993,167.56396500000028,254.10253900000043,99.74365200000011,114.87158199999976,106.53857400000015
80,138.84619099999964,31.410155999999915,120.0,291.2822270000006,328.84619099999964,142.82031300000017,87.17968800000017,75.12841800000024,68.58984400000008,162.6923829999996,246.79492200000004,99.10253900000043,108.3334960000002,106.79492200000004
81,134.61523400000078,28.077147999999397,117.69238299999961,287.05126999999993,327.05126999999993,139.3588869999994,87.94873000000007,73.84619099999964,67.69238299999961,160.6411130000006,238.9741210000002,98.84619099999964,98.9741210000002,105.89746099999957
82,130.38476599999922,26.666503999999804,115.0,284.10253900000043,326.6665039999998,137.82031300000017,87.94873000000007,71.41015599999992,68.0771479999994,160.51269500000035,232.94873000000007,98.58984400000008,88.46142599999985,103.3334960000002
83,127.56396500000028,27.05126999999993,112.43603499999972,281.6665039999998,325.6411130000006,138.0771479999994,86.9228520000006,69.23095699999976,68.20507799999996,161.15380900000036,230.6411130000006,97.43603499999972,81.15380900000036,100.64111300000059
84,126.0258789999998,28.077147999999397,110.51269500000035,279.48730499999965,323.5898440000001,139.61523400000078,86.53857400000015,69.35888699999941,68.0771479999994,162.17968800000017,232.17968800000017,95.0,80.51269500000035,99.87158199999976
85,124.48730499999965,28.077147999999397,109.10253900000043,277.5639650000003,320.76904300000024,141.0258789999998,88.46142599999985,73.0771479999994,69.23095699999976,163.84619099999964,235.2563479999999,91.2822270000006,85.25634799999989,101.41015599999992
86,120.89746099999957,26.410155999999915,107.05126999999993,276.0258789999998,318.0771479999994,142.17968800000017,92.43603499999972,79.48730499999965,72.43603499999972,165.6411130000006,236.41015599999992,87.17968800000017,89.23095699999976,102.69238299999961
87,114.74365200000011,23.717772999999397,104.10253900000043,274.7436520000001,316.0258789999998,143.3334960000002,96.15380900000036,85.64111300000059,76.79492200000004,165.89746099999957,233.20507799999996,84.10253900000043,87.17968800000017,100.76904300000024
88,108.3334960000002,22.05126999999993,101.0258789999998,273.9741210000002,314.87158199999976,144.7436520000001,97.69238299999961,88.58984400000008,80.38476599999922,164.3588869999994,226.6665039999998,82.43603499999972,79.48730499999965,95.38476599999922
89,105.64111300000059,23.077147999999397,99.74365200000011,275.2563479999999,314.7436520000001,146.2822270000006,97.56396500000028,87.56396500000028,82.43603499999972,162.6923829999996,221.15380900000036,82.30761700000039,72.17968800000017,89.35888699999941
90,108.46142599999985,26.794922000000042,102.05126999999993,279.7436520000001,314.7436520000001,147.43603499999972,97.56396500000028,85.0,83.9741210000002,162.82031300000017,220.89746099999957,83.46142599999985,71.41015599999992,87.43603499999972
91,114.48730499999965,30.641113000000587,106.79492200000004,286.79492200000004,313.20507799999996,147.17968800000017,98.58984400000008,83.46142599999985,85.38476599999922,164.7436520000001,226.0258789999998,85.51269500000035,77.43603499999972,91.6665039999998
92,118.9741210000002,31.666503999999804,110.51269500000035,293.3334960000002,308.9741210000002,145.2563479999999,99.35888699999941,83.58984400000008,85.64111300000059,166.0258789999998,231.6665039999998,87.05126999999993,84.74365200000011,98.46142599999985
93,118.0771479999994,28.461425999999847,109.61523400000078,295.51269500000035,303.20507799999996,142.17968800000017,98.20507799999996,84.23095699999976,83.20507799999996,164.23095699999976,232.17968800000017,87.17968800000017,86.53857400000015,102.05126999999993
94,112.43603499999972,23.589844000000085,104.61523400000078,293.0771479999994,298.9741210000002,139.48730499999965,94.74365200000011,84.35888699999941,77.94873000000007,158.58984400000008,225.76904300000024,86.0258789999998,81.0258789999998,99.23095699999976
95,105.76904300000024,20.769043000000238,99.48730499999965,288.46142599999985,298.20507799999996,138.46142599999985,90.0,83.46142599999985,71.79492200000004,150.38476599999922,216.53857400000015,85.12841800000024,71.9228520000006,92.43603499999972
96,101.53857400000015,21.410155999999915,98.46142599999985,284.87158199999976,299.6152340000008,138.7177729999994,86.2822270000006,81.41015599999992,67.43603499999972,143.20507799999996,210.0,86.0258789999998,65.0,87.17968800000017
97,100.12841800000024,23.333496000000196,101.15380900000036,283.0771479999994,299.10253900000043,138.58984400000008,85.0,77.94873000000007,66.53857400000015,140.12841800000024,208.7177729999994,87.69238299999961,62.82031300000017,86.6665039999998
98,98.58984400000008,22.82031300000017,103.3334960000002,282.17968800000017,293.3334960000002,137.05126999999993,86.0258789999998,73.9741210000002,68.3334960000002,142.17968800000017,210.38476599999922,87.43603499999972,63.333496000000196,89.87158199999976
99,94.10253900000043,17.56396500000028,101.0258789999998,281.53857400000015,283.3334960000002,134.87158199999976,87.56396500000028,70.76904300000024,70.64111300000059,147.05126999999993,210.2563479999999,83.84619099999964,62.56396500000028,93.0771479999994
100,86.6665039999998,9.102539000000434,94.23095699999976,281.79492200000004,274.10253900000043,133.0771479999994,87.82031300000017,70.25634799999989,71.15380900000036,150.0,205.76904300000024,77.94873000000007,58.0771479999994,93.58984400000008
101,80.0,1.9228520000006029,86.9228520000006,284.23095699999976,271.0258789999998,132.3076170000004,86.6665039999998,72.17968800000017,69.23095699999976,148.3334960000002,198.3334960000002,72.82031300000017,51.53857400000015,91.15380900000036
102,77.82031300000017,0.38476599999921746,83.7177729999994,288.46142599999985,275.51269500000035,132.94873000000007,86.0258789999998,75.51269500000035,67.05126999999993,142.43603499999972,192.3076170000004,70.76904300000024,46.666503999999804,87.82031300000017
103,80.76904300000024,4.871581999999762,86.53857400000015,293.46142599999985,283.84619099999964,134.61523400000078,87.05126999999993,78.0771479999994,66.9228520000006,135.89746099999957,190.38476599999922,71.6665039999998,46.025878999999804,85.76904300000024
104,84.74365200000011,11.538574000000153,92.82031300000017,298.20507799999996,289.87158199999976,136.2822270000006,88.84619099999964,78.7177729999994,68.84619099999964,131.6665039999998,192.3076170000004,73.84619099999964,48.20507799999996,86.0258789999998
105,84.87158199999976,15.384765999999217,98.0771479999994,301.79492200000004,289.3588869999994,136.6665039999998,89.23095699999976,77.05126999999993,70.64111300000059,130.6411130000006,195.12841800000024,75.38476599999922,50.64111300000059,87.94873000000007
106,80.0,14.358886999999413,98.7177729999994,303.3334960000002,282.3076170000004,135.2563479999999,87.43603499999972,74.23095699999976,70.12841800000024,130.89746099999957,196.15380900000036,75.51269500000035,51.410155999999915,89.61523400000078
107,73.58984400000008,11.282227000000603,96.15380900000036,304.10253900000043,272.82031300000017,133.3334960000002,85.38476599999922,73.0771479999994,68.3334960000002,131.41015599999992,195.12841800000024,75.64111300000059,51.2822270000006,90.25634799999989
108,70.76904300000024,10.897460999999566,94.35888699999941,306.15380900000036,265.76904300000024,132.3076170000004,86.2822270000006,76.15380900000036,68.3334960000002,132.17968800000017,194.48730499999965,77.17968800000017,52.05126999999993,90.12841800000024
109,74.35888699999941,15.384765999999217,96.0258789999998,311.15380900000036,262.82031300000017,132.43603499999972,91.53857400000015,83.46142599999985,72.56396500000028,133.7177729999994,195.76904300000024,80.64111300000059,53.974121000000196,90.38476599999922
110,81.53857400000015,22.43603499999972,99.87158199999976,317.6923829999996,262.3076170000004,132.82031300000017,98.9741210000002,91.2822270000006,79.87158199999976,135.12841800000024,198.20507799999996,83.84619099999964,55.25634799999989,90.89746099999957
111,86.9228520000006,27.17968800000017,102.69238299999961,323.3334960000002,262.05126999999993,132.6923829999996,104.10253900000043,95.38476599999922,86.15380900000036,134.87158199999976,198.84619099999964,84.35888699999941,54.102539000000434,90.64111300000059
112,87.30761700000039,26.538574000000153,102.30761700000039,326.2822270000006,261.9228520000006,132.6923829999996,103.9741210000002,94.48730499999965,87.94873000000007,133.20507799999996,196.0258789999998,82.43603499999972,50.64111300000059,89.48730499999965
113,84.23095699999976,22.17968800000017,100.12841800000024,327.6923829999996,263.9741210000002,133.3334960000002,100.25634799999989,91.53857400000015,85.64111300000059,132.56396500000028,192.05126999999993,80.25634799999989,47.94873000000007,88.7177729999994
114,81.79492200000004,19.74365200000011,99.35888699999941,329.87158199999976,269.10253900000043,134.10253900000043,96.53857400000015,91.53857400000015,83.3334960000002,135.6411130000006,191.15380900000036,80.89746099999957,49.23095699999976,89.87158199999976
115,82.69238299999961,22.30761700000039,101.0258789999998,333.46142599999985,275.0,134.61523400000078,95.89746099999957,95.76904300000024,84.35888699999941,142.17968800000017,195.2563479999999,84.23095699999976,54.48730499999965,92.82031300000017
116,85.12841800000024,27.56396500000028,102.94873000000007,336.2822270000006,276.4101559999999,134.61523400000078,97.69238299999961,100.89746099999957,88.20507799999996,148.20507799999996,201.15380900000036,87.43603499999972,59.74365200000011,95.51269500000035
117,84.74365200000011,28.717772999999397,102.05126999999993,334.87158199999976,268.9741210000002,133.7177729999994,98.84619099999964,101.53857400000015,90.51269500000035,148.20507799999996,202.82031300000017,87.30761700000039,60.12841800000024,95.0
118,79.35888699999941,21.282227000000603,96.79492200000004,328.0771479999994,252.6923829999996,132.3076170000004,96.6665039999998,95.76904300000024,88.0771479999994,139.87158199999976,196.79492200000004,83.58984400000008,53.846190999999635,91.0258789999998
119,70.89746099999957,7.43603499999972,89.61523400000078,318.7177729999994,232.6923829999996,131.15380900000036,91.79492200000004,86.2822270000006,81.41015599999992,125.89746099999957,185.2563479999999,79.48730499999965,43.974121000000196,85.89746099999957
120,64.35888699999941,-4.487060999999812,84.23095699999976,312.82031300000017,218.3334960000002,131.0258789999998,87.56396500000028,79.23095699999976,74.35888699999941,113.58984400000008,174.61523400000078,78.3334960000002,35.897460999999566,83.0771479999994
121,64.61523400000078,-5.769286999999622,83.9741210000002,316.4101559999999,217.43603499999972,132.56396500000028,87.82031300000017,79.35888699999941,71.53857400000015,109.23095699999976,171.2822270000006,80.89746099999957,33.974121000000196,85.25634799999989
122,72.56396500000028,6.538574000000153,89.35888699999941,331.0258789999998,231.2822270000006,135.0,93.20507799999996,87.43603499999972,75.12841800000024,114.23095699999976,177.17968800000017,85.12841800000024,39.61523400000078,92.30761700000039
123,84.23095699999976,27.82031300000017,97.82031300000017,351.2822270000006,252.82031300000017,136.2822270000006,100.76904300000024,98.9741210000002,83.84619099999964,124.74365200000011,188.9741210000002,88.3334960000002,50.12841800000024,100.89746099999957
124,93.3334960000002,46.9228520000006,104.87158199999976,366.0258789999998,269.6152340000008,135.12841800000024,105.51269500000035,107.17968800000017,93.0771479999994,133.84619099999964,199.87158199999976,89.23095699999976,60.12841800000024,106.15380900000036
125,95.12841800000024,54.23095699999976,107.05126999999993,366.9228520000006,271.0258789999998,132.43603499999972,104.61523400000078,107.05126999999993,97.30761700000039,136.15380900000036,203.20507799999996,87.82031300000017,64.10253900000043,104.61523400000078
126,88.9741210000002,47.43603499999972,103.9741210000002,355.76904300000024,255.51269500000035,130.89746099999957,99.74365200000011,99.10253900000043,93.7177729999994,130.76904300000024,197.6923829999996,85.12841800000024,60.25634799999989,97.56396500000028
127,78.84619099999964,32.69238299999961,98.3334960000002,343.20507799999996,230.89746099999957,131.15380900000036,94.35888699999941,88.7177729999994,84.48730499999965,120.76904300000024,187.56396500000028,83.0771479999994,51.410155999999915,90.0
128,70.0,19.230956999999762,92.94873000000007,339.10253900000043,209.10253900000043,131.41015599999992,91.15380900000036,81.6665039999998,74.48730499999965,111.2822270000006,179.61523400000078,82.56396500000028,42.56396500000028,86.9228520000006
129,65.51269500000035,13.205077999999958,89.23095699999976,345.3847659999992,197.6923829999996,129.87158199999976,89.87158199999976,79.87158199999976,68.46142599999985,104.87158199999976,177.43603499999972,83.46142599999985,37.43603499999972,89.35888699999941
130,65.12841800000024,14.871581999999762,87.69238299999961,355.0,195.51269500000035,126.9228520000006,88.84619099999964,82.30761700000039,68.9741210000002,101.6665039999998,179.23095699999976,84.61523400000078,37.30761700000039,94.23095699999976
131,66.6665039999998,20.128418000000238,87.94873000000007,359.6152340000008,195.76904300000024,123.9741210000002,87.69238299999961,86.0258789999998,75.12841800000024,100.25634799999989,181.9228520000006,84.87158199999976,40.64111300000059,96.9228520000006
132,68.20507799999996,26.025878999999804,90.0,356.79492200000004,192.56396500000028,122.05126999999993,86.9228520000006,88.7177729999994,82.82031300000017,99.48730499999965,184.23095699999976,84.74365200000011,45.0,96.15380900000036
133,69.35888699999941,30.897460999999566,93.20507799999996,351.4101559999999,184.87158199999976,121.41015599999992,88.3334960000002,89.10253900000043,88.20507799999996,99.10253900000043,188.0771479999994,85.0,48.846190999999635,93.20507799999996
134,70.25634799999989,34.102539000000434,96.2822270000006,350.51269500000035,176.15380900000036,121.41015599999992,92.17968800000017,87.56396500000028,88.84619099999964,99.10253900000043,194.48730499999965,86.2822270000006,51.666503999999804,91.15380900000036
135,71.6665039999998,35.25634799999989,97.30761700000039,357.17968800000017,171.0258789999998,122.30761700000039,97.17968800000017,86.15380900000036,86.2822270000006,100.0,201.53857400000015,88.0771479999994,53.846190999999635,91.2822270000006
136,73.58984400000008,35.0,95.64111300000059,368.20507799999996,170.89746099999957,124.10253900000043,101.15380900000036,86.6665039999998,83.7177729999994,101.53857400000015,205.0,89.48730499999965,56.025878999999804,93.46142599999985
137,76.6665039999998,35.51269500000035,92.43603499999972,377.05126999999993,173.7177729999994,126.53857400000015,102.43603499999972,89.61523400000078,84.61523400000078,102.69238299999961,201.79492200000004,89.87158199999976,59.102539000000434,96.79492200000004
138,80.89746099999957,39.102539000000434,90.0,379.48730499999965,175.38476599999922,129.23095699999976,100.76904300000024,94.23095699999976,89.61523400000078,102.56396500000028,193.46142599999985,88.9741210000002,63.46142599999985,99.74365200000011
139,85.38476599999922,45.12841800000024,89.61523400000078,377.3076170000004,172.6923829999996,131.2822270000006,97.43603499999972,98.0771479999994,95.76904300000024,100.0,185.12841800000024,87.30761700000039,68.46142599999985,101.41015599999992
140,87.43603499999972,50.64111300000059,90.38476599999922,375.6411130000006,164.87158199999976,131.15380900000036,93.46142599999985,98.46142599999985,98.58984400000008,95.38476599999922,182.43603499999972,85.89746099999957,72.43603499999972,101.41015599999992
141,84.61523400000078,52.56396500000028,90.51269500000035,377.82031300000017,152.6923829999996,127.43603499999972,89.87158199999976,94.74365200000011,95.76904300000024,90.38476599999922,187.17968800000017,85.51269500000035,73.3334960000002,100.38476599999922
142,77.82031300000017,50.0,88.9741210000002,382.17968800000017,138.46142599999985,121.41015599999992,86.79492200000004,88.84619099999964,88.84619099999964,87.30761700000039,196.0258789999998,85.89746099999957,71.2822270000006,99.35888699999941
143,70.76904300000024,45.25634799999989,86.41015599999992,385.3847659999992,125.25634799999989,116.15380900000036,84.35888699999941,83.84619099999964,82.30761700000039,86.53857400000015,202.43603499999972,86.15380900000036,68.20507799999996,98.58984400000008
144,67.82031300000017,41.79492200000004,84.35888699999941,386.4101559999999,115.89746099999957,115.25634799999989,83.46142599999985,82.17968800000017,79.35888699999941,85.89746099999957,201.2822270000006,85.38476599999922,66.41015599999992,98.20507799999996
145,71.2822270000006,41.53857400000015,85.25634799999989,388.0771479999994,111.2822270000006,119.74365200000011,85.38476599999922,83.7177729999994,80.89746099999957,83.0771479999994,192.94873000000007,83.9741210000002,67.82031300000017,98.58984400000008
146,79.48730499999965,43.7177729999994,90.76904300000024,393.46142599999985,109.74365200000011,126.41015599999992,90.64111300000059,86.6665039999998,85.25634799999989,77.94873000000007,182.94873000000007,83.20507799999996,72.82031300000017,100.38476599999922
147,87.56396500000028,45.51269500000035,99.10253900000043,400.51269500000035,107.94873000000007,130.12841800000024,96.9228520000006,88.84619099999964,89.23095699999976,72.69238299999961,177.56396500000028,84.61523400000078,79.87158199999976,103.58984400000008
148,89.87158199999976,44.102539000000434,105.38476599999922,403.5898440000001,102.82031300000017,128.3334960000002,100.38476599999922,88.7177729999994,89.35888699999941,69.35888699999941,178.46142599999985,87.82031300000017,84.61523400000078,105.76904300000024
149,83.84619099999964,38.20507799999996,105.38476599999922,398.46142599999985,92.82031300000017,122.43603499999972,98.7177729999994,86.41015599999992,84.48730499999965,67.69238299999961,182.17968800000017,89.87158199999976,83.20507799999996,104.61523400000078
150,71.9228520000006,30.25634799999989,99.23095699999976,387.4360349999997,79.61523400000078,116.15380900000036,92.82031300000017,82.69238299999961,76.6665039999998,65.0,182.94873000000007,88.7177729999994,74.35888699999941,100.12841800000024
151,60.51269500000035,23.077147999999397,90.89746099999957,377.6923829999996,67.30761700000039,112.69238299999961,86.9228520000006,79.35888699999941,70.51269500000035,59.61523400000078,179.10253900000043,84.74365200000011,62.05126999999993,94.23095699999976
152,55.51269500000035,19.230956999999762,85.38476599999922,375.3847659999992,60.897460999999566,112.56396500000028,85.76904300000024,77.82031300000017,69.74365200000011,53.0771479999994,173.58984400000008,81.0258789999998,52.05126999999993,90.12841800000024
153,58.589844000000085,19.48730499999965,86.15380900000036,381.4101559999999,62.69238299999961,115.0,90.64111300000059,79.23095699999976,75.0,48.7177729999994,171.41015599999992,80.76904300000024,48.974121000000196,89.74365200000011
154,66.2822270000006,23.077147999999397,92.17968800000017,390.0,70.38476599999922,118.3334960000002,98.84619099999964,83.3334960000002,83.0771479999994,48.974121000000196,174.87158199999976,84.61523400000078,52.82031300000017,93.20507799999996
155,73.3334960000002,28.717772999999397,99.74365200000011,395.12841800000024,78.9741210000002,120.89746099999957,104.74365200000011,88.20507799999996,89.61523400000078,52.82031300000017,181.15380900000036,90.76904300000024,60.38476599999922,97.94873000000007
156,76.2822270000006,34.87158199999976,104.61523400000078,394.87158199999976,83.58984400000008,121.15380900000036,104.74365200000011,91.2822270000006,91.53857400000015,56.53857400000015,185.2563479999999,95.64111300000059,67.30761700000039,101.2822270000006
157,74.48730499999965,39.23095699999976,104.61523400000078,391.6665039999998,81.2822270000006,119.10253900000043,99.23095699999976,90.89746099999957,88.9741210000002,56.153809000000365,182.43603499999972,96.41015599999992,71.15380900000036,101.2822270000006
158,69.61523400000078,39.74365200000011,100.64111300000059,388.84619099999964,71.15380900000036,116.15380900000036,92.17968800000017,87.30761700000039,84.10253900000043,50.38476599999922,172.3076170000004,92.30761700000039,71.53857400000015,98.46142599999985
159,65.0,37.17968800000017,96.15380900000036,387.17968800000017,56.025878999999804,113.84619099999964,87.94873000000007,83.3334960000002,80.12841800000024,41.9228520000006,160.0,85.89746099999957,69.61523400000078,95.0
160,63.974121000000196,35.0,94.74365200000011,385.3847659999992,42.05126999999993,113.46142599999985,89.23095699999976,82.82031300000017,79.74365200000011,36.2822270000006,152.94873000000007,82.05126999999993,67.69238299999961,93.9741210000002
161,68.20507799999996,37.17968800000017,97.82031300000017,382.6923829999996,35.897460999999566,114.87158199999976,95.38476599999922,88.46142599999985,84.10253900000043,37.30761700000039,154.61523400000078,83.7177729999994,67.82031300000017,96.2822270000006
162,74.87158199999976,43.0771479999994,103.0771479999994,380.6411130000006,37.94873000000007,116.6665039999998,103.0771479999994,98.20507799999996,90.76904300000024,42.94873000000007,160.51269500000035,89.74365200000011,70.38476599999922,99.87158199999976
163,77.69238299999961,47.30761700000039,105.51269500000035,381.4101559999999,41.666503999999804,117.05126999999993,107.69238299999961,105.25634799999989,94.74365200000011,46.79492200000004,161.2822270000006,95.51269500000035,73.20507799999996,100.51269500000035
164,71.53857400000015,43.974121000000196,101.6665039999998,385.2563479999999,38.846190999999635,115.12841800000024,106.2822270000006,103.20507799999996,91.6665039999998,42.82031300000017,151.15380900000036,96.41015599999992,72.30761700000039,96.41015599999992
165,57.82031300000017,33.333496000000196,91.9228520000006,389.10253900000043,26.794922000000042,111.53857400000015,99.61523400000078,91.41015599999992,82.05126999999993,31.025878999999804,133.0771479999994,91.41015599999992,66.0258789999998,89.35888699999941
166,44.102539000000434,22.17968800000017,81.2822270000006,388.3334960000002,10.0,108.84619099999964,91.2822270000006,76.9228520000006,71.6665039999998,17.94873000000007,116.6665039999998,83.58984400000008,57.05126999999993,83.46142599999985
167,38.46142599999985,18.333496000000196,75.38476599999922,381.6665039999998,-2.3076170000003913,109.10253900000043,85.89746099999957,69.35888699999941,67.94873000000007,11.666503999999804,110.12841800000024,78.20507799999996,51.2822270000006,82.56396500000028
168,43.589844000000085,24.871581999999762,77.05126999999993,373.46142599999985,-3.717772999999397,112.17968800000017,85.64111300000059,73.84619099999964,73.9741210000002,15.512695000000349,113.9741210000002,78.3334960000002,51.9228520000006,86.6665039999998
169,55.897460999999566,37.94873000000007,84.23095699999976,371.0258789999998,6.025878999999804,115.76904300000024,90.0,86.79492200000004,86.15380900000036,26.538574000000153,121.41015599999992,82.94873000000007,58.20507799999996,93.3334960000002
170,68.20507799999996,50.76904300000024,91.79492200000004,378.84619099999964,20.897460999999566,117.43603499999972,95.89746099999957,100.12841800000024,97.56396500000028,38.333496000000196,124.61523400000078,88.46142599999985,67.05126999999993,98.7177729999994
171,74.48730499999965,58.46142599999985,95.12841800000024,393.7177729999994,32.56396500000028,116.53857400000015,100.51269500000035,107.69238299999961,103.58984400000008,45.76904300000024,121.53857400000015,91.15380900000036,75.0,100.64111300000059
172,72.94873000000007,60.897460999999566,93.20507799999996,406.9228520000006,35.12841800000024,114.61523400000078,102.17968800000017,108.3334960000002,104.35888699999941,47.43603499999972,116.6665039999998,90.12841800000024,79.35888699999941,99.10253900000043
173,66.6665039999998,60.64111300000059,88.46142599999985,411.0258789999998,26.922852000000603,113.7177729999994,100.64111300000059,105.25634799999989,102.56396500000028,44.48730499999965,114.74365200000011,87.05126999999993,78.7177729999994,95.64111300000059
174,60.25634799999989,59.61523400000078,84.48730499999965,405.3847659999992,11.025878999999804,114.23095699999976,96.79492200000004,101.41015599999992,100.38476599999922,38.333496000000196,115.64111300000059,84.61523400000078,73.84619099999964,91.79492200000004
175,56.53857400000015,57.56396500000028,83.3334960000002,396.0258789999998,-6.153809000000365,114.87158199999976,92.56396500000028,97.94873000000007,97.56396500000028,30.51269500000035,114.74365200000011,84.10253900000043,66.9228520000006,88.0771479999994
176,54.35888699999941,51.666503999999804,84.10253900000043,389.48730499999965,-18.846190999999635,114.48730499999965,89.74365200000011,93.84619099999964,93.20507799999996,23.333496000000196,107.82031300000017,84.61523400000078,60.76904300000024,85.12841800000024
177,51.666503999999804,41.666503999999804,85.12841800000024,387.82031300000017,-23.333252000000357,113.0771479999994,89.48730499999965,89.10253900000043,88.3334960000002,19.48730499999965,96.0258789999998,84.48730499999965,57.30761700000039,84.10253900000043
178,48.333496000000196,32.56396500000028,85.64111300000059,388.84619099999964,-18.71801800000003,112.17968800000017,92.56396500000028,86.53857400000015,86.41015599999992,21.153809000000365,85.76904300000024,83.58984400000008,58.46142599999985,85.51269500000035
179,47.82031300000017,32.82031300000017,86.9228520000006,391.15380900000036,-7.307617000000391,112.94873000000007,98.58984400000008,89.61523400000078,90.64111300000059,28.974121000000196,83.46142599999985,83.9741210000002,64.61523400000078,89.61523400000078
180,52.82031300000017,46.666503999999804,90.76904300000024,395.2563479999999,4.487304999999651,114.61523400000078,105.25634799999989,98.7177729999994,100.51269500000035,40.0,90.51269500000035,87.56396500000028,73.46142599999985,94.74365200000011
181,61.53857400000015,67.56396500000028,96.53857400000015,400.3847659999992,8.333496000000196,115.12841800000024,108.9741210000002,108.3334960000002,109.23095699999976,47.69238299999961,100.76904300000024,92.43603499999972,79.23095699999976,98.7177729999994
182,69.10253900000043,83.0771479999994,101.15380900000036,404.6152340000008,-1.4101559999999154,112.69238299999961,106.6665039999998,110.25634799999989,108.84619099999964,45.897460999999566,105.25634799999989,94.61523400000078,76.9228520000006,98.9741210000002
183,71.41015599999992,85.64111300000059,101.6665039999998,406.4101559999999,-21.025634999999966,107.69238299999961,99.10253900000043,101.53857400000015,97.56396500000028,34.74365200000011,99.61523400000078,92.17968800000017,66.53857400000015,96.0258789999998
184,69.48730499999965,79.48730499999965,98.46142599999985,406.6665039999998,-39.48706099999981,102.43603499999972,91.6665039999998,87.69238299999961,82.05126999999993,21.282227000000603,88.20507799999996,87.17968800000017,55.25634799999989,93.0771479999994
185,67.69238299999961,75.12841800000024,95.64111300000059,408.46142599999985,-46.53857400000015,99.87158199999976,89.74365200000011,78.7177729999994,73.20507799999996,13.846190999999635,80.12841800000024,83.9741210000002,51.153809000000365,93.58984400000008
186,69.10253900000043,79.61523400000078,96.6665039999998,412.4360349999997,-39.8718259999996,100.64111300000059,94.48730499999965,80.76904300000024,76.6665039999998,16.410155999999915,80.51269500000035,85.76904300000024,57.17968800000017,97.82031300000017
187,73.58984400000008,91.15380900000036,101.41015599999992,416.6665039999998,-25.641113000000132,103.7177729999994,102.30761700000039,91.6665039999998,89.23095699999976,24.871581999999762,87.17968800000017,91.9228520000006,67.43603499999972,102.94873000000007
188,78.46142599999985,100.89746099999957,106.53857400000015,417.94873000000007,-13.58984399999963,107.17968800000017,107.82031300000017,103.20507799999996,101.9228520000006,32.05126999999993,92.56396500000028,98.9741210000002,73.46142599999985,105.38476599999922
189,80.89746099999957,102.17968800000017,108.58984400000008,414.48730499999965,-10.256347999999889,110.12841800000024,108.20507799999996,107.94873000000007,106.41015599999992,32.69238299999961,90.12841800000024,102.94873000000007,71.2822270000006,103.9741210000002
190,80.51269500000035,95.64111300000059,107.17968800000017,408.3334960000002,-15.641113000000132,112.69238299999961,104.61523400000078,104.87158199999976,102.17968800000017,27.30761700000039,79.87158199999976,102.43603499999972,64.87158199999976,100.51269500000035
191,79.74365200000011,89.87158199999976,105.12841800000024,404.48730499999965,-22.820557000000008,114.74365200000011,100.89746099999957,98.58984400000008,95.25634799999989,21.025878999999804,69.10253900000043,99.48730499999965,62.43603499999972,97.94873000000007
192,81.9228520000006,93.84619099999964,106.0258789999998,407.5639650000003,-24.358886999999868,115.64111300000059,100.25634799999989,95.89746099999957,92.43603499999972,18.974121000000196,66.6665039999998,97.82031300000017,68.46142599999985,98.7177729999994
193,87.94873000000007,108.9741210000002,110.25634799999989,417.4360349999997,-18.461425999999847,114.48730499999965,102.94873000000007,99.23095699999976,95.76904300000024,22.17968800000017,74.61523400000078,99.87158199999976,79.48730499999965,102.17968800000017
194,93.7177729999994,125.51269500000035,113.84619099999964,427.05126999999993,-12.179442999999992,110.76904300000024,106.0258789999998,104.74365200000011,100.76904300000024,26.666503999999804,86.79492200000004,104.23095699999976,87.05126999999993,104.87158199999976
195,93.20507799999996,130.12841800000024,112.43603499999972,428.20507799999996,-14.358886999999868,105.51269500000035,105.51269500000035,106.79492200000004,101.41015599999992,27.30761700000039,93.3334960000002,106.6665039999998,83.3334960000002,104.23095699999976
196,84.48730499999965,117.43603499999972,105.64111300000059,418.9741210000002,-27.30761700000039,100.89746099999957,100.76904300000024,102.69238299999961,96.0258789999998,22.56396500000028,88.84619099999964,104.61523400000078,68.9741210000002,100.25634799999989
197,73.20507799999996,95.89746099999957,98.7177729999994,407.17968800000017,-42.69238299999961,99.74365200000011,95.51269500000035,95.89746099999957,88.58984400000008,16.666503999999804,76.79492200000004,100.12841800000024,52.94873000000007,95.89746099999957
198,68.20507799999996,82.82031300000017,97.56396500000028,403.0771479999994,-48.71801800000003,103.20507799999996,95.25634799999989,93.7177729999994,86.79492200000004,16.922852000000603,67.43603499999972,97.56396500000028,46.79492200000004,94.35888699999941
199,73.9741210000002,89.23095699999976,104.10253900000043,409.7436520000001,-39.61547900000005,109.74365200000011,101.79492200000004,100.25634799999989,94.74365200000011,27.30761700000039,68.3334960000002,99.74365200000011,55.25634799999989,96.6665039999998
200,86.41015599999992,111.2822270000006,113.7177729999994,420.12841800000024,-21.794922000000042,115.76904300000024,112.17968800000017,113.0771479999994,109.35888699999941,44.102539000000434,78.46142599999985,105.51269500000035,72.94873000000007,101.0258789999998
201,96.79492200000004,133.7177729999994,119.61523400000078,423.20507799999996,-7.820557000000008,118.3334960000002,120.38476599999922,124.48730499999965,122.05126999999993,57.56396500000028,88.20507799999996,110.38476599999922,88.58984400000008,104.35888699999941
202,98.58984400000008,142.94873000000007,117.82031300000017,413.5898440000001,-6.025634999999966,117.05126999999993,122.43603499999972,127.43603499999972,126.15380900000036,59.35888699999941,87.56396500000028,110.89746099999957,94.35888699999941,104.61523400000078
203,92.17968800000017,137.05126999999993,110.12841800000024,396.9228520000006,-14.102538999999979,114.10253900000043,118.58984400000008,121.79492200000004,121.2822270000006,50.12841800000024,74.87158199999976,106.9228520000006,90.25634799999989,102.94873000000007
204,83.7177729999994,123.9741210000002,102.43603499999972,383.9741210000002,-23.71801800000003,112.17968800000017,113.0771479999994,113.9741210000002,113.9741210000002,38.46142599999985,58.0771479999994,101.6665039999998,82.43603499999972,101.79492200000004
205,79.35888699999941,113.0771479999994,100.0,381.53857400000015,-27.948729999999614,112.17968800000017,110.38476599999922,110.89746099999957,110.64111300000059,32.94873000000007,48.20507799999996,98.7177729999994,78.0771479999994,102.69238299999961
206,81.15380900000036,109.48730499999965,103.3334960000002,387.4360349999997,-27.179442999999992,113.20507799999996,112.17968800000017,115.0,113.58984400000008,36.410155999999915,50.12841800000024,100.0,79.74365200000011,105.25634799999989
207,85.89746099999957,112.43603499999972,108.0771479999994,393.7177729999994,-25.769286999999622,113.20507799999996,116.41015599999992,122.94873000000007,120.0,43.846190999999635,59.61523400000078,103.46142599999985,84.87158199999976,106.9228520000006
208,88.58984400000008,118.0771479999994,109.48730499999965,394.10253900000043,-27.820557000000008,111.0258789999998,119.48730499999965,128.7177729999994,124.74365200000011,48.0771479999994,68.46142599999985,106.0258789999998,88.58984400000008,106.41015599999992
209,87.17968800000017,122.43603499999972,106.53857400000015,388.7177729999994,-32.69238299999961,107.43603499999972,119.23095699999976,128.46142599999985,124.87158199999976,45.76904300000024,71.41015599999992,105.51269500000035,88.3334960000002,103.84619099999964
210,83.84619099999964,124.10253900000043,102.30761700000039,382.3076170000004,-35.76928699999962,104.10253900000043,116.41015599999992,122.94873000000007,121.15380900000036,40.38476599999922,69.35888699999941,102.82031300000017,85.38476599999922,101.53857400000015
211,83.20507799999996,124.87158199999976,100.64111300000059,380.2563479999999,-32.435790999999426,102.30761700000039,113.46142599999985,116.6665039999998,117.17968800000017,38.0771479999994,67.30761700000039,101.2822270000006,83.20507799999996,101.41015599999992
212,87.05126999999993,127.05126999999993,102.82031300000017,383.9741210000002,-23.461425999999847,101.9228520000006,112.30761700000039,113.84619099999964,115.89746099999957,42.82031300000017,68.0771479999994,102.94873000000007,84.10253900000043,103.84619099999964
213,93.3334960000002,131.41015599999992,107.56396500000028,390.89746099999957,-14.743652000000111,102.69238299999961,113.0771479999994,115.25634799999989,117.56396500000028,51.9228520000006,70.76904300000024,107.43603499999972,88.7177729999994,107.94873000000007
214,98.58984400000008,136.53857400000015,112.30761700000039,396.2822270000006,-12.948729999999614,103.9741210000002,115.0,118.84619099999964,121.0258789999998,59.102539000000434,72.30761700000039,112.30761700000039,95.0,112.05126999999993
215,101.2822270000006,141.0258789999998,115.51269500000035,397.5639650000003,-18.71801800000003,105.89746099999957,117.43603499999972,122.94873000000007,125.25634799999989,60.0,71.41015599999992,115.38476599999922,101.0258789999998,114.74365200000011
216,102.43603499999972,144.7436520000001,117.17968800000017,395.3847659999992,-26.28198199999997,108.0771479999994,119.87158199999976,126.9228520000006,130.0,55.897460999999566,69.35888699999941,116.41015599999992,105.89746099999957,115.25634799999989
217,104.48730499999965,148.46142599999985,117.82031300000017,393.0771479999994,-28.58984399999963,109.48730499999965,121.9228520000006,130.89746099999957,134.3588869999994,51.9228520000006,68.9741210000002,116.2822270000006,109.61523400000078,114.48730499999965
218,108.7177729999994,151.6665039999998,118.3334960000002,393.0771479999994,-22.948729999999614,108.9741210000002,123.0771479999994,133.20507799999996,136.2822270000006,52.17968800000017,71.0258789999998,116.15380900000036,112.82031300000017,113.9741210000002
219,114.61523400000078,153.46142599999985,118.9741210000002,394.87158199999976,-13.461425999999847,106.79492200000004,122.82031300000017,132.17968800000017,134.10253900000043,56.025878999999804,74.48730499999965,116.53857400000015,115.12841800000024,114.87158199999976
220,120.0,152.43603499999972,119.61523400000078,395.12841800000024,-6.666747999999643,103.84619099999964,121.41015599999992,127.82031300000017,128.20507799999996,58.7177729999994,77.05126999999993,117.17968800000017,115.76904300000024,116.53857400000015
221,121.9228520000006,148.20507799999996,118.84619099999964,391.2822270000006,-6.794922000000042,101.41015599999992,119.61523400000078,121.9228520000006,120.89746099999957,55.64111300000059,77.17968800000017,116.79492200000004,113.0771479999994,116.53857400000015
222,118.46142599999985,141.9228520000006,115.89746099999957,383.46142599999985,-13.461425999999847,100.38476599999922,117.30761700000039,116.6665039999998,115.12841800000024,46.9228520000006,74.74365200000011,115.25634799999989,106.53857400000015,113.84619099999964
223,111.41015599999992,135.89746099999957,111.9228520000006,376.0258789999998,-21.538574000000153,100.51269500000035,115.12841800000024,113.84619099999964,112.30761700000039,37.82031300000017,71.0258789999998,113.20507799999996,98.7177729999994,109.61523400000078
224,104.48730499999965,132.6923829999996,109.87158199999976,374.23095699999976,-26.025634999999966,101.6665039999998,113.84619099999964,113.58984400000008,112.82031300000017,34.87158199999976,68.20507799999996,112.69238299999961,94.23095699999976,106.53857400000015
225,101.6665039999998,132.82031300000017,111.9228520000006,379.87158199999976,-25.25634799999989,103.58984400000008,114.74365200000011,114.87158199999976,115.38476599999922,40.76904300000024,68.3334960000002,114.35888699999941,96.0258789999998,106.9228520000006
226,102.82031300000017,133.9741210000002,116.53857400000015,388.46142599999985,-21.923095999999987,105.89746099999957,117.56396500000028,115.89746099999957,117.82031300000017,50.897460999999566,70.76904300000024,116.6665039999998,101.9228520000006,110.0
227,104.10253900000043,133.7177729999994,119.74365200000011,392.82031300000017,-20.25634799999989,107.69238299999961,120.12841800000024,115.0,117.69238299999961,56.53857400000015,72.43603499999972,117.17968800000017,105.64111300000059,112.69238299999961
228,101.79492200000004,131.6665039999998,117.82031300000017,388.3334960000002,-22.69238299999961,107.56396500000028,119.87158199999976,112.82031300000017,114.35888699999941,52.43603499999972,71.0258789999998,114.74365200000011,102.69238299999961,112.43603499999972
229,96.0258789999998,131.0258789999998,111.53857400000015,377.5639650000003,-27.30761700000039,105.25634799999989,116.53857400000015,111.9228520000006,110.38476599999922,41.2822270000006,67.05126999999993,110.64111300000059,95.12841800000024,109.10253900000043
230,91.79492200000004,135.89746099999957,105.64111300000059,369.10253900000043,-29.10253899999998,102.43603499999972,113.0771479999994,115.0,109.87158199999976,32.43603499999972,64.74365200000011,107.82031300000017,90.12841800000024,105.89746099999957
231,93.84619099999964,146.53857400000015,105.64111300000059,370.89746099999957,-23.974365000000034,101.2822270000006,113.7177729999994,122.05126999999993,115.38476599999922,33.333496000000196,67.43603499999972,108.46142599999985,92.56396500000028,106.53857400000015
232,101.6665039999998,157.3076170000004,112.56396500000028,383.20507799999996,-13.461425999999847,102.69238299999961,119.35888699999941,129.48730499999965,124.35888699999941,42.94873000000007,74.48730499999965,112.43603499999972,100.25634799999989,111.53857400000015
233,110.0,160.38476599999922,122.05126999999993,396.9228520000006,-4.487060999999812,104.87158199999976,126.15380900000036,132.17968800000017,130.38476599999922,52.82031300000017,80.76904300000024,117.17968800000017,106.79492200000004,116.9228520000006
234,113.84619099999964,153.3334960000002,127.05126999999993,400.0,-2.8203119999998307,105.38476599999922,129.10253900000043,128.58984400000008,128.84619099999964,54.48730499999965,81.0258789999998,119.48730499999965,107.17968800000017,118.3334960000002
235,111.79492200000004,141.41015599999992,123.9741210000002,386.79492200000004,-7.435790999999426,103.9741210000002,126.0258789999998,122.05126999999993,120.38476599999922,47.30761700000039,73.9741210000002,118.0771479999994,101.41015599999992,114.48730499999965
236,106.79492200000004,134.23095699999976,114.74365200000011,362.3076170000004,-12.179442999999992,103.20507799999996,119.61523400000078,119.10253900000043,111.41015599999992,38.333496000000196,62.82031300000017,114.10253900000043,93.84619099999964,108.46142599999985
237,102.56396500000028,137.05126999999993,105.25634799999989,337.3076170000004,-11.794922000000042,105.38476599999922,115.64111300000059,122.94873000000007,108.7177729999994,35.76904300000024,53.846190999999635,109.61523400000078,88.20507799999996,103.9741210000002
238,100.38476599999922,145.6411130000006,100.38476599999922,320.2563479999999,-7.564209000000574,109.87158199999976,117.43603499999972,131.0258789999998,113.58984400000008,41.410155999999915,50.897460999999566,106.6665039999998,85.12841800000024,102.56396500000028
239,98.3334960000002,150.76904300000024,100.76904300000024,311.79492200000004,-4.487060999999812,113.3334960000002,122.94873000000007,136.53857400000015,120.76904300000024,49.48730499999965,53.333496000000196,104.87158199999976,82.17968800000017,102.69238299999961
240,93.46142599999985,146.41015599999992,103.0771479999994,306.53857400000015,-6.538574000000153,112.82031300000017,126.9228520000006,134.23095699999976,122.82031300000017,51.53857400000015,56.79492200000004,103.0771479999994,77.56396500000028,102.43603499999972
241,86.79492200000004,134.48730499999965,103.0771479999994,299.3588869999994,-12.564209000000574,108.7177729999994,125.25634799999989,124.87158199999976,116.79492200000004,45.0,56.666503999999804,100.51269500000035,73.20507799999996,101.41015599999992
242,82.56396500000028,124.10253900000043,100.25634799999989,289.3588869999994,-17.948729999999614,104.35888699999941,120.0,115.12841800000024,107.05126999999993,35.25634799999989,53.846190999999635,98.58984400000008,74.74365200000011,101.2822270000006
243,84.87158199999976,122.56396500000028,97.69238299999961,278.3334960000002,-18.461425999999847,103.3334960000002,116.41015599999992,111.9228520000006,102.43603499999972,30.51269500000035,53.589844000000085,99.74365200000011,87.05126999999993,104.23095699999976
244,93.46142599999985,129.48730499999965,98.9741210000002,268.46142599999985,-13.205077999999958,106.53857400000015,118.9741210000002,117.94873000000007,108.3334960000002,34.87158199999976,60.12841800000024,105.0,108.7177729999994,110.51269500000035
245,102.94873000000007,136.2822270000006,104.23095699999976,260.76904300000024,-5.897461000000021,111.15380900000036,126.41015599999992,129.48730499999965,122.69238299999961,45.64111300000059,72.43603499999972,111.79492200000004,131.2822270000006,117.56396500000028
246,107.82031300000017,134.61523400000078,110.64111300000059,254.87158199999976,-1.5385740000001533,112.69238299999961,133.3334960000002,139.23095699999976,136.53857400000015,56.2822270000006,83.58984400000008,115.89746099999957,145.51269500000035,121.79492200000004
247,105.76904300000024,122.56396500000028,114.23095699999976,251.41015599999992,-3.3334960000001956,109.23095699999976,134.48730499999965,142.05126999999993,141.53857400000015,61.410155999999915,87.17968800000017,114.87158199999976,148.0771479999994,120.89746099999957
248,100.0,106.9228520000006,113.0771479999994,250.51269500000035,-10.769286999999622,103.0771479999994,128.9741210000002,137.94873000000007,135.89746099999957,60.12841800000024,82.82031300000017,109.87158199999976,142.56396500000028,115.76904300000024
249,95.64111300000059,96.79492200000004,108.20507799999996,251.6665039999998,-19.487060999999812,98.46142599999985,120.76904300000024,130.76904300000024,124.35888699999941,54.61523400000078,75.89746099999957,104.48730499999965,135.51269500000035,109.87158199999976
250,95.0,96.79492200000004,102.30761700000039,252.43603499999972,-24.61547900000005,97.94873000000007,114.48730499999965,124.23095699999976,114.10253900000043,47.43603499999972,71.53857400000015,101.9228520000006,130.89746099999957,106.9228520000006
251,97.30761700000039,104.74365200000011,98.3334960000002,249.87158199999976,-23.71801800000003,100.51269500000035,112.43603499999972,119.87158199999976,109.61523400000078,40.38476599999922,70.89746099999957,103.20507799999996,128.46142599999985,107.69238299999961
252,99.87158199999976,114.48730499999965,97.82031300000017,242.94873000000007,-18.076904000000013,103.0771479999994,113.58984400000008,117.30761700000039,111.53857400000015,35.51269500000035,72.05126999999993,106.6665039999998,126.53857400000015,110.38476599999922
253,101.15380900000036,120.76904300000024,100.38476599999922,233.84619099999964,-12.051270000000386,104.23095699999976,115.51269500000035,116.41015599999992,116.9228520000006,34.48730499999965,72.94873000000007,109.23095699999976,124.87158199999976,112.82031300000017
254,101.79492200000004,122.17968800000017,103.58984400000008,226.2822270000006,-9.230713000000378,104.35888699999941,116.41015599999992,117.17968800000017,121.15380900000036,38.0771479999994,73.46142599999985,108.84619099999964,123.7177729999994,113.20507799999996
255,102.43603499999972,120.12841800000024,105.25634799999989,222.94873000000007,-11.28198199999997,104.48730499999965,116.0258789999998,118.7177729999994,120.89746099999957,43.333496000000196,73.3334960000002,106.0258789999998,122.17968800000017,111.0258789999998
256,102.56396500000028,117.17968800000017,103.9741210000002,222.56396500000028,-17.051270000000386,104.74365200000011,114.35888699999941,119.10253900000043,115.64111300000059,45.897460999999566,71.6665039999998,102.43603499999972,119.35888699999941,106.9228520000006
257,101.2822270000006,115.0,100.38476599999922,221.6665039999998,-23.71801800000003,104.74365200000011,112.43603499999972,117.69238299999961,108.7177729999994,43.7177729999994,67.43603499999972,100.0,115.76904300000024,103.46142599999985
258,98.9741210000002,114.61523400000078,96.79492200000004,218.46142599999985,-27.820557000000008,104.61523400000078,111.79492200000004,116.2822270000006,104.10253900000043,39.102539000000434,61.025878999999804,98.9741210000002,113.3334960000002,102.43603499999972
259,97.05126999999993,115.38476599999922,95.76904300000024,214.87158199999976,-26.41015600000037,104.87158199999976,113.46142599999985,117.30761700000039,104.87158199999976,36.153809000000365,55.12841800000024,99.10253900000043,114.10253900000043,104.10253900000043
260,97.69238299999961,116.53857400000015,98.20507799999996,214.7436520000001,-19.230713000000378,106.15380900000036,116.79492200000004,121.41015599999992,110.38476599999922,37.56396500000028,53.46142599999985,100.12841800000024,118.0771479999994,106.79492200000004
261,101.6665039999998,117.56396500000028,102.82031300000017,220.12841800000024,-9.230713000000378,107.82031300000017,120.12841800000024,126.2822270000006,117.30761700000039,42.69238299999961,57.94873000000007,101.9228520000006,123.84619099999964,108.58984400000008
262,107.69238299999961,119.10253900000043,106.6665039999998,228.84619099999964,0.12841800000023795,109.10253900000043,121.53857400000015,128.20507799999996,121.41015599999992,48.333496000000196,66.9228520000006,103.3334960000002,129.23095699999976,108.9741210000002
263,113.3334960000002,121.9228520000006,107.56396500000028,236.0258789999998,6.282227000000603,109.35888699999941,120.64111300000059,125.89746099999957,120.38476599999922,52.17968800000017,75.89746099999957,103.20507799999996,131.9228520000006,108.7177729999994
264,116.79492200000004,126.0258789999998,105.64111300000059,237.82031300000017,8.717772999999397,109.10253900000043,118.0771479999994,121.2822270000006,116.2822270000006,53.846190999999635,79.87158199999976,102.05126999999993,131.0258789999998,109.23095699999976
265,118.0771479999994,129.87158199999976,102.94873000000007,234.3588869999994,8.077147999999397,108.9741210000002,115.64111300000059,117.69238299999961,112.56396500000028,54.61523400000078,78.0771479999994,100.89746099999957,127.43603499999972,110.12841800000024
266,117.82031300000017,131.79492200000004,101.53857400000015,229.7436520000001,6.025878999999804,108.46142599999985,114.74365200000011,116.79492200000004,111.9228520000006,55.38476599999922,73.3334960000002,101.2822270000006,123.20507799999996,109.87158199999976
267,116.79492200000004,131.15380900000036,101.6665039999998,227.43603499999972,4.230956999999762,106.9228520000006,115.64111300000059,117.82031300000017,114.10253900000043,55.12841800000024,69.23095699999976,103.0771479999994,120.51269500000035,107.30761700000039
268,115.38476599999922,127.69238299999961,101.79492200000004,227.82031300000017,3.717772999999397,104.61523400000078,117.17968800000017,119.10253900000043,116.41015599999992,52.43603499999972,66.9228520000006,104.35888699999941,118.84619099999964,103.84619099999964
269,112.43603499999972,121.53857400000015,100.76904300000024,228.7177729999994,3.5898440000000846,102.43603499999972,118.0771479999994,119.48730499999965,115.76904300000024,46.9228520000006,65.0,103.46142599999985,116.53857400000015,101.15380900000036
270,107.43603499999972,113.7177729999994,98.3334960000002,228.58984400000008,1.2822270000006029,101.41015599999992,117.82031300000017,118.0771479999994,111.15380900000036,40.64111300000059,61.9228520000006,100.0,112.17968800000017,99.61523400000078
271,101.0258789999998,105.89746099999957,95.25634799999989,227.3076170000004,-5.641113000000132,101.53857400000015,116.41015599999992,115.25634799999989,104.35888699999941,36.410155999999915,57.82031300000017,95.76904300000024,106.53857400000015,98.58984400000008
272,95.64111300000059,100.25634799999989,93.0771479999994,226.53857400000015,-15.1281740000004,101.9228520000006,114.10253900000043,111.79492200000004,98.84619099999964,35.64111300000059,54.87158199999976,92.82031300000017,101.9228520000006,98.3334960000002
273,94.23095699999976,99.35888699999941,92.69238299999961,227.43603499999972,-20.38452099999995,102.30761700000039,111.6665039999998,109.87158199999976,97.94873000000007,38.0771479999994,55.76904300000024,92.69238299999961,101.15380900000036,99.61523400000078
274,98.3334960000002,104.87158199999976,95.25634799999989,230.2563479999999,-14.102538999999979,102.69238299999961,111.2822270000006,111.9228520000006,102.94873000000007,42.82031300000017,61.153809000000365,96.15380900000036,106.41015599999992,103.20507799999996
275,107.17968800000017,115.89746099999957,100.51269500000035,234.48730499999965,4.102539000000434,103.58984400000008,114.87158199999976,119.23095699999976,113.0771479999994,49.61523400000078,69.48730499999965,101.6665039999998,116.9228520000006,108.58984400000008
276,117.43603499999972,129.23095699999976,107.30761700000039,240.2563479999999,27.05126999999993,105.38476599999922,122.56396500000028,130.6411130000006,125.89746099999957,58.589844000000085,78.0771479999994,107.30761700000039,129.3588869999994,114.61523400000078
277,124.74365200000011,139.48730499999965,113.46142599999985,247.05126999999993,43.589844000000085,107.69238299999961,131.2822270000006,142.43603499999972,137.43603499999972,67.69238299999961,84.48730499999965,111.41015599999992,139.10253900000043,119.23095699999976
278,125.89746099999957,142.43603499999972,116.79492200000004,252.82031300000017,46.153809000000365,109.23095699999976,136.2822270000006,148.9741210000002,142.56396500000028,73.7177729999994,86.9228520000006,112.94873000000007,141.53857400000015,119.87158199999976
279,120.25634799999989,136.0258789999998,115.0,254.3588869999994,34.102539000000434,107.82031300000017,134.23095699999976,146.0258789999998,137.94873000000007,73.0771479999994,84.23095699999976,111.2822270000006,134.61523400000078,115.12841800000024
280,110.12841800000024,123.3334960000002,108.20507799999996,249.61523400000078,15.641113000000587,103.9741210000002,125.64111300000059,134.7436520000001,125.51269500000035,65.25634799999989,76.0258789999998,106.6665039999998,120.89746099999957,106.6665039999998
281,100.25634799999989,111.0258789999998,99.23095699999976,239.87158199999976,2.1796880000001693,100.0,115.64111300000059,121.53857400000015,111.9228520000006,54.102539000000434,64.48730499999965,100.64111300000059,106.53857400000015,98.9741210000002
282,95.12841800000024,106.15380900000036,92.82031300000017,229.48730499999965,0.512695000000349,98.9741210000002,110.12841800000024,113.58984400000008,104.48730499999965,45.51269500000035,54.23095699999976,96.2822270000006,97.94873000000007,96.2822270000006
283,96.6665039999998,110.25634799999989,91.79492200000004,222.6923829999996,7.948730000000069,101.15380900000036,111.2822270000006,113.3334960000002,105.25634799999989,43.20507799999996,49.87158199999976,95.76904300000024,97.30761700000039,99.23095699999976
284,102.17968800000017,118.20507799999996,94.23095699999976,221.41015599999992,13.974121000000196,103.9741210000002,115.51269500000035,116.6665039999998,110.51269500000035,46.2822270000006,52.43603499999972,98.7177729999994,101.6665039999998,103.84619099999964
285,106.15380900000036,121.41015599999992,96.0258789999998,224.3588869999994,11.153809000000365,104.74365200000011,117.43603499999972,116.9228520000006,113.20507799999996,50.76904300000024,57.69238299999961,101.53857400000015,105.25634799999989,105.64111300000059
286,104.23095699999976,116.0258789999998,94.10253900000043,228.58984400000008,1.6665039999998044,102.82031300000017,114.35888699999941,111.79492200000004,110.0,53.46142599999985,59.74365200000011,100.89746099999957,104.35888699999941,102.94873000000007
287,97.94873000000007,106.41015599999992,90.51269500000035,231.6665039999998,-2.9487300000000687,100.89746099999957,109.35888699999941,105.64111300000059,104.23095699999976,53.589844000000085,56.79492200000004,97.17968800000017,100.89746099999957,98.84619099999964
288,94.23095699999976,102.82031300000017,90.0,233.46142599999985,7.051269999999931,101.79492200000004,108.58984400000008,105.64111300000059,103.20507799999996,54.102539000000434,53.846190999999635,95.12841800000024,101.15380900000036,98.3334960000002
289,98.84619099999964,112.69238299999961,96.41015599999992,236.0258789999998,30.25634799999989,106.53857400000015,115.64111300000059,115.64111300000059,111.6665039999998,58.589844000000085,58.46142599999985,98.7177729999994,109.35888699999941,103.9741210000002
290,110.25634799999989,132.82031300000017,108.0771479999994,240.2563479999999,53.846190999999635,112.56396500000028,127.69238299999961,130.76904300000024,126.79492200000004,66.9228520000006,72.30761700000039,107.82031300000017,122.82031300000017,112.94873000000007
291,120.12841800000024,150.38476599999922,118.58984400000008,244.7436520000001,62.94873000000007,115.89746099999957,136.2822270000006,141.53857400000015,139.3588869999994,74.87158199999976,87.94873000000007,116.79492200000004,133.20507799999996,119.35888699999941
292,120.51269500000035,152.43603499999972,121.15380900000036,246.6665039999998,52.69238299999961,114.35888699999941,134.7436520000001,141.2822270000006,141.53857400000015,77.05126999999993,95.0,119.61523400000078,133.20507799999996,118.7177729999994
293,110.76904300000024,137.05126999999993,114.35888699999941,244.61523400000078,31.666503999999804,109.23095699999976,122.94873000000007,131.15380900000036,132.82031300000017,72.17968800000017,89.10253900000043,115.0,122.43603499999972,111.41015599999992
294,97.82031300000017,114.87158199999976,102.69238299999961,240.0,15.128418000000238,103.7177729999994,108.58984400000008,118.9741210000002,119.61523400000078,63.46142599999985,74.61523400000078,106.53857400000015,108.3334960000002,102.17968800000017
295,89.61523400000078,100.0,92.94873000000007,234.48730499999965,11.922852000000603,100.64111300000059,100.0,111.9228520000006,110.51269500000035,55.897460999999566,60.25634799999989,99.48730499999965,99.23095699999976,96.41015599999992
296,88.7177729999994,98.84619099999964,88.84619099999964,229.23095699999976,18.974121000000196,100.64111300000059,100.38476599999922,111.0258789999998,108.58984400000008,51.2822270000006,52.43603499999972,96.79492200000004,98.46142599999985,96.2822270000006
297,92.17968800000017,106.2822270000006,90.12841800000024,224.3588869999994,25.384765999999217,102.05126999999993,105.76904300000024,112.30761700000039,110.89746099999957,49.102539000000434,52.30761700000039,97.43603499999972,102.82031300000017,99.48730499999965
298,94.74365200000011,111.6665039999998,93.9741210000002,220.76904300000024,23.846190999999635,103.3334960000002,109.87158199999976,111.0258789999998,111.6665039999998,47.82031300000017,56.666503999999804,98.20507799999996,106.6665039999998,102.69238299999961
299,94.10253900000043,109.35888699999941,97.56396500000028,220.12841800000024,16.025878999999804,103.58984400000008,109.10253900000043,106.41015599999992,107.94873000000007,47.17968800000017,60.76904300000024,97.17968800000017,106.0258789999998,103.7177729999994
300,91.53857400000015,102.56396500000028,99.61523400000078,223.7177729999994,10.769043000000238,103.0771479999994,104.87158199999976,102.05126999999993,101.53857400000015,47.69238299999961,62.30761700000039,95.25634799999989,101.41015599999992,102.43603499999972
301,90.38476599999922,98.7177729999994,100.38476599999922,230.38476599999922,15.128418000000238,102.43603499999972,101.41015599999992,101.9228520000006,96.79492200000004,49.35888699999941,61.9228520000006,93.84619099999964,96.53857400000015,100.12841800000024
302,92.82031300000017,102.43603499999972,100.51269500000035,236.6665039999998,27.43603499999972,102.30761700000039,101.9228520000006,106.41015599999992,96.0258789999998,51.2822270000006,62.05126999999993,94.61523400000078,95.51269500000035,98.58984400000008
303,97.82031300000017,111.15380900000036,100.51269500000035,239.48730499999965,39.35888699999941,102.82031300000017,105.76904300000024,112.30761700000039,99.10253900000043,51.666503999999804,63.589844000000085,97.05126999999993,99.74365200000011,98.58984400000008
304,102.94873000000007,119.10253900000043,100.76904300000024,240.0,43.20507799999996,104.10253900000043,110.51269500000035,115.64111300000059,104.23095699999976,50.38476599999922,65.51269500000035,99.87158199999976,107.17968800000017,100.89746099999957
305,107.17968800000017,122.94873000000007,102.30761700000039,241.6665039999998,39.74365200000011,105.76904300000024,114.61523400000078,115.64111300000059,109.61523400000078,49.61523400000078,66.9228520000006,102.30761700000039,114.10253900000043,105.38476599999922
306,111.0258789999998,123.9741210000002,106.0258789999998,246.9228520000006,34.74365200000011,107.30761700000039,117.69238299999961,115.0,114.10253900000043,51.79492200000004,68.58984400000008,105.0,118.0771479999994,110.89746099999957
307,115.12841800000024,125.12841800000024,111.0258789999998,253.58984400000008,32.94873000000007,108.20507799999996,119.74365200000011,116.6665039999998,116.2822270000006,56.9228520000006,71.79492200000004,108.0771479999994,118.0771479999994,115.25634799999989
308,117.30761700000039,127.30761700000039,113.7177729999994,256.6665039999998,33.46142599999985,107.82031300000017,119.48730499999965,120.12841800000024,114.61523400000078,62.05126999999993,76.0258789999998,110.51269500000035,114.10253900000043,115.25634799999989
309,114.61523400000078,127.17968800000017,111.2822270000006,252.82031300000017,31.666503999999804,105.76904300000024,116.0258789999998,121.41015599999992,108.46142599999985,62.82031300000017,78.3334960000002,109.35888699999941,106.9228520000006,109.74365200000011
310,106.6665039999998,121.79492200000004,104.23095699999976,243.84619099999964,25.641113000000587,102.69238299999961,109.74365200000011,118.0771479999994,100.0,57.69238299999961,76.0258789999998,103.9741210000002,99.10253900000043,101.53857400000015
311,98.3334960000002,112.17968800000017,97.17968800000017,235.89746099999957,19.230956999999762,100.25634799999989,103.46142599999985,112.05126999999993,94.23095699999976,50.25634799999989,70.25634799999989,97.05126999999993,94.48730499999965,95.76904300000024
312,96.41015599999992,104.35888699999941,95.76904300000024,235.12841800000024,18.077147999999397,100.51269500000035,101.41015599999992,109.10253900000043,95.51269500000035,46.9228520000006,66.53857400000015,93.3334960000002,96.0258789999998,97.30761700000039
313,103.46142599999985,105.0,101.41015599999992,243.20507799999996,25.25634799999989,103.46142599999985,105.38476599999922,113.3334960000002,103.84619099999964,52.17968800000017,70.0,95.89746099999957,103.46142599999985,105.25634799999989
314,114.74365200000011,114.87158199999976,110.76904300000024,255.89746099999957,37.05126999999993,107.56396500000028,113.0771479999994,123.20507799999996,114.48730499999965,64.23095699999976,80.12841800000024,103.20507799999996,113.46142599999985,114.87158199999976
315,122.56396500000028,128.3334960000002,118.20507799999996,265.89746099999957,46.666503999999804,110.64111300000059,119.35888699999941,133.0771479999994,121.53857400000015,76.2822270000006,90.76904300000024,110.12841800000024,121.41015599999992,120.12841800000024
316,122.30761700000039,137.43603499999972,119.35888699999941,268.20507799999996,48.333496000000196,111.9228520000006,120.89746099999957,137.82031300000017,122.17968800000017,81.0258789999998,94.87158199999976,111.9228520000006,124.74365200000011,118.84619099999964
317,115.76904300000024,137.56396500000028,113.84619099999964,262.6923829999996,42.69238299999961,112.43603499999972,117.82031300000017,135.89746099999957,118.46142599999985,76.9228520000006,89.61523400000078,107.94873000000007,123.3334960000002,113.3334960000002
318,108.3334960000002,131.0258789999998,105.0,254.48730499999965,34.87158199999976,112.82031300000017,113.7177729999994,130.51269500000035,114.35888699999941,68.20507799999996,78.9741210000002,101.2822270000006,119.23095699999976,107.82031300000017
319,104.87158199999976,123.7177729999994,98.46142599999985,249.87158199999976,31.410155999999915,113.20507799999996,111.79492200000004,126.9228520000006,113.20507799999996,62.30761700000039,69.87158199999976,96.53857400000015,115.38476599999922,106.0258789999998
320,107.69238299999961,120.89746099999957,98.0771479999994,252.43603499999972,35.38476599999922,113.20507799999996,113.46142599999985,128.20507799999996,115.38476599999922,64.35888699999941,68.20507799999996,96.53857400000015,114.87158199999976,109.23095699999976
321,115.0,124.48730499999965,103.3334960000002,260.6411130000006,44.87158199999976,111.9228520000006,116.53857400000015,133.46142599999985,119.48730499999965,74.10253900000043,75.0,100.38476599999922,118.3334960000002,115.0
322,122.17968800000017,131.6665039999998,109.87158199999976,269.23095699999976,53.589844000000085,109.23095699999976,118.58984400000008,137.56396500000028,122.82031300000017,84.74365200000011,85.38476599999922,104.35888699999941,124.10253900000043,118.84619099999964
323,124.48730499999965,137.82031300000017,112.30761700000039,272.5639650000003,55.25634799999989,105.89746099999957,117.94873000000007,136.41015599999992,122.56396500000028,88.46142599999985,92.43603499999972,105.38476599999922,128.3334960000002,117.82031300000017
324,120.12841800000024,139.23095699999976,108.9741210000002,269.6152340000008,48.20507799999996,103.20507799999996,115.38476599999922,129.61523400000078,117.69238299999961,81.41015599999992,91.53857400000015,102.82031300000017,128.0771479999994,112.30761700000039
325,112.05126999999993,135.6411130000006,102.94873000000007,263.84619099999964,37.94873000000007,102.43603499999972,112.69238299999961,121.2822270000006,111.0258789999998,67.69238299999961,84.74365200000011,99.61523400000078,123.9741210000002,105.89746099999957
326,105.89746099999957,131.0258789999998,99.35888699999941,260.2563479999999,33.20507799999996,102.94873000000007,111.79492200000004,117.43603499999972,107.94873000000007,56.79492200000004,78.84619099999964,99.35888699999941,120.25634799999989,103.0771479999994
327,105.76904300000024,130.12841800000024,101.41015599999992,261.53857400000015,38.20507799999996,103.84619099999964,113.20507799999996,120.64111300000059,111.6665039999998,56.79492200000004,80.64111300000059,103.46142599999985,120.89746099999957,105.51269500000035
328,111.15380900000036,133.3334960000002,107.69238299999961,265.51269500000035,48.589844000000085,103.7177729999994,115.64111300000059,128.3334960000002,120.0,67.82031300000017,90.25634799999989,109.48730499999965,125.89746099999957,110.64111300000059
329,117.05126999999993,136.41015599999992,113.3334960000002,267.4360349999997,55.0,102.56396500000028,117.69238299999961,135.38476599999922,127.05126999999993,82.43603499999972,101.0258789999998,113.0771479999994,131.53857400000015,114.35888699999941
330,119.48730499999965,135.6411130000006,114.48730499999965,264.7436520000001,52.17968800000017,102.05126999999993,118.20507799999996,138.20507799999996,128.7177729999994,91.15380900000036,105.76904300000024,111.53857400000015,134.23095699999976,114.61523400000078
331,117.94873000000007,132.3076170000004,111.15380900000036,259.10253900000043,43.7177729999994,103.84619099999964,117.82031300000017,137.3076170000004,126.2822270000006,90.12841800000024,102.43603499999972,106.15380900000036,133.84619099999964,113.0771479999994
332,115.51269500000035,131.15380900000036,107.43603499999972,255.0,38.46142599999985,107.94873000000007,117.69238299999961,135.76904300000024,123.7177729999994,82.82031300000017,95.25634799999989,101.15380900000036,132.43603499999972,112.30761700000039
333,114.74365200000011,135.12841800000024,106.9228520000006,256.4101559999999,41.79492200000004,112.82031300000017,118.0771479999994,135.2563479999999,123.84619099999964,76.15380900000036,89.48730499999965,99.35888699999941,131.2822270000006,113.20507799999996
334,115.25634799999989,142.3076170000004,110.0,262.17968800000017,51.025878999999804,116.6665039999998,118.0771479999994,135.2563479999999,125.76904300000024,74.74365200000011,86.9228520000006,101.0258789999998,129.7436520000001,114.23095699999976
335,115.0,147.43603499999972,113.9741210000002,267.82031300000017,58.7177729999994,118.0771479999994,116.6665039999998,134.3588869999994,126.79492200000004,78.3334960000002,86.15380900000036,104.10253900000043,126.9228520000006,113.58984400000008
336,112.82031300000017,146.53857400000015,115.89746099999957,269.48730499999965,60.0,117.17968800000017,114.74365200000011,132.56396500000028,125.76904300000024,83.46142599999985,85.38476599999922,106.0258789999998,123.46142599999985,111.6665039999998
337,109.23095699999976,140.51269500000035,115.12841800000024,267.6923829999996,56.53857400000015,115.0,114.23095699999976,131.79492200000004,123.84619099999964,87.43603499999972,85.38476599999922,106.15380900000036,121.0258789999998,110.38476599999922
338,106.53857400000015,133.9741210000002,113.3334960000002,266.79492200000004,54.102539000000434,112.82031300000017,116.2822270000006,134.23095699999976,123.3334960000002,89.74365200000011,88.0771479999994,105.38476599999922,121.41015599999992,111.15380900000036
339,106.2822270000006,131.15380900000036,112.43603499999972,269.87158199999976,56.2822270000006,111.15380900000036,119.87158199999976,139.61523400000078,125.12841800000024,91.0258789999998,93.58984400000008,105.0,123.9741210000002,112.56396500000028
340,106.53857400000015,131.79492200000004,111.79492200000004,275.12841800000024,60.25634799999989,109.23095699999976,121.15380900000036,143.9741210000002,126.9228520000006,90.89746099999957,97.69238299999961,105.0,125.51269500000035,111.9228520000006
341,103.84619099999964,131.41015599999992,109.74365200000011,277.17968800000017,59.23095699999976,107.30761700000039,117.56396500000028,141.41015599999992,124.61523400000078,87.56396500000028,95.76904300000024,104.23095699999976,121.79492200000004,107.30761700000039
342,96.15380900000036,126.2822270000006,105.89746099999957,271.9228520000006,50.51269500000035,106.41015599999992,110.0,131.0258789999998,116.2822270000006,80.38476599999922,86.6665039999998,101.53857400000015,112.05126999999993,100.76904300000024
343,87.05126999999993,117.30761700000039,102.05126999999993,261.4101559999999,38.7177729999994,107.30761700000039,102.94873000000007,118.3334960000002,105.64111300000059,72.05126999999993,75.64111300000059,97.69238299999961,100.64111300000059,96.9228520000006
344,82.56396500000028,110.38476599999922,100.89746099999957,252.56396500000028,32.56396500000028,109.23095699999976,100.76904300000024,111.41015599999992,99.61523400000078,67.17968800000017,69.61523400000078,95.38476599999922,94.35888699999941,98.3334960000002
345,86.79492200000004,111.0258789999998,103.3334960000002,251.6665039999998,37.05126999999993,110.64111300000059,104.23095699999976,114.23095699999976,102.82031300000017,68.46142599999985,71.41015599999992,96.41015599999992,96.6665039999998,103.7177729999994
346,96.9228520000006,119.35888699999941,107.43603499999972,258.9741210000002,48.7177729999994,110.25634799999989,109.48730499999965,123.46142599999985,112.05126999999993,74.23095699999976,78.46142599999985,100.12841800000024,105.76904300000024,108.3334960000002
347,105.89746099999957,129.87158199999976,110.25634799999989,269.23095699999976,58.7177729999994,108.46142599999985,111.9228520000006,131.2822270000006,119.35888699999941,78.9741210000002,84.48730499999965,103.3334960000002,115.64111300000059,109.35888699999941
348,107.43603499999972,135.2563479999999,110.38476599999922,275.76904300000024,60.897460999999566,106.6665039999998,109.87158199999976,131.9228520000006,119.10253900000043,78.3334960000002,85.51269500000035,103.58984400000008,120.38476599999922,107.30761700000039
349,102.30761700000039,133.46142599999985,109.87158199999976,276.0258789999998,56.153809000000365,106.79492200000004,106.0258789999998,125.38476599999922,112.17968800000017,72.56396500000028,82.30761700000039,101.41015599999992,118.46142599999985,105.64111300000059
350,97.05126999999993,128.20507799999996,111.15380900000036,272.5639650000003,51.153809000000365,109.35888699999941,104.48730499999965,117.56396500000028,105.38476599999922,66.53857400000015,79.87158199999976,99.48730499999965,113.7177729999994,107.82031300000017
351,97.82031300000017,125.76904300000024,115.12841800000024,269.87158199999976,51.666503999999804,113.46142599999985,107.30761700000039,114.74365200000011,104.10253900000043,65.51269500000035,82.05126999999993,100.25634799999989,111.9228520000006,113.3334960000002
352,105.0,128.58984400000008,118.9741210000002,270.0,57.94873000000007,116.53857400000015,112.30761700000039,117.94873000000007,107.82031300000017,70.25634799999989,88.0771479999994,103.9741210000002,114.61523400000078,118.58984400000008
353,113.3334960000002,134.23095699999976,119.48730499999965,271.6665039999998,65.76904300000024,116.41015599999992,115.64111300000059,122.94873000000007,111.9228520000006,76.53857400000015,93.20507799999996,107.82031300000017,118.84619099999964,119.61523400000078
354,116.79492200000004,138.46142599999985,115.12841800000024,272.82031300000017,70.38476599999922,113.0771479999994,115.51269500000035,125.12841800000024,112.94873000000007,79.35888699999941,93.20507799999996,109.35888699999941,120.0,115.76904300000024
355,113.58984400000008,139.3588869999994,107.94873000000007,272.5639650000003,70.38476599999922,108.46142599999985,113.46142599999985,122.82031300000017,111.6665039999998,77.17968800000017,88.3334960000002,107.30761700000039,116.6665039999998,109.74365200000011
356,106.41015599999992,137.05126999999993,101.41015599999992,270.89746099999957,67.17968800000017,105.25634799999989,112.17968800000017,118.20507799999996,110.38476599999922,72.82031300000017,82.17968800000017,102.43603499999972,110.38476599999922,105.38476599999922
357,100.12841800000024,133.0771479999994,98.0771479999994,268.84619099999964,63.333496000000196,105.76904300000024,113.46142599999985,114.87158199999976,110.76904300000024,70.12841800000024,78.0771479999994,97.43603499999972,104.35888699999941,104.10253900000043
358,98.3334960000002,129.3588869999994,98.46142599999985,268.3334960000002,61.53857400000015,109.74365200000011,116.0258789999998,114.61523400000078,112.43603499999972,71.79492200000004,77.82031300000017,95.38476599999922,101.79492200000004,105.89746099999957
359,101.41015599999992,127.56396500000028,101.15380900000036,271.79492200000004,63.46142599999985,114.35888699999941,117.94873000000007,117.30761700000039,113.84619099999964,76.53857400000015,81.0258789999998,97.69238299999961,104.61523400000078,109.10253900000043
360,106.79492200000004,128.20507799999996,104.61523400000078,279.23095699999976,68.0771479999994,116.9228520000006,117.94873000000007,121.0258789999998,113.84619099999964,81.2822270000006,86.53857400000015,102.43603499999972,112.43603499999972,112.56396500000028
361,112.05126999999993,131.0258789999998,108.46142599999985,288.46142599999985,72.30761700000039,116.53857400000015,117.05126999999993,124.10253900000043,112.94873000000007,83.0771479999994,92.69238299999961,106.53857400000015,122.56396500000028,115.64111300000059
362,116.6665039999998,135.2563479999999,112.43603499999972,295.76904300000024,73.3334960000002,114.74365200000011,116.9228520000006,126.2822270000006,112.82031300000017,82.17968800000017,97.82031300000017,108.3334960000002,130.76904300000024,117.69238299999961
363,120.38476599999922,140.38476599999922,116.15380900000036,298.20507799999996,71.2822270000006,113.20507799999996,118.20507799999996,128.20507799999996,115.25634799999989,81.15380900000036,100.51269500000035,108.3334960000002,134.10253900000043,118.3334960000002
364,122.17968800000017,145.76904300000024,118.84619099999964,296.2822270000006,69.61523400000078,112.69238299999961,119.87158199999976,130.12841800000024,118.84619099999964,82.56396500000028,100.38476599999922,107.30761700000039,132.17968800000017,117.17968800000017
365,120.76904300000024,150.12841800000024,119.35888699999941,292.6923829999996,72.17968800000017,113.46142599999985,119.74365200000011,131.2822270000006,120.89746099999957,85.51269500000035,99.48730499999965,105.76904300000024,126.53857400000015,115.25634799999989
366,116.41015599999992,151.79492200000004,117.82031300000017,290.3847659999992,79.48730499999965,115.0,117.43603499999972,130.89746099999957,119.35888699999941,87.69238299999961,100.38476599999922,104.35888699999941,120.12841800000024,113.58984400000008
367,112.56396500000028,149.7436520000001,115.25634799999989,291.2822270000006,87.05126999999993,116.0258789999998,114.35888699999941,129.7436520000001,115.89746099999957,87.05126999999993,103.9741210000002,103.7177729999994,115.76904300000024,113.0771479999994
368,113.46142599999985,144.87158199999976,113.58984400000008,294.87158199999976,89.23095699999976,115.12841800000024,112.82031300000017,129.61523400000078,114.87158199999976,85.25634799999989,109.10253900000043,104.87158199999976,116.15380900000036,113.58984400000008
369,120.25634799999989,139.61523400000078,114.74365200000011,299.10253900000043,84.61523400000078,113.0771479999994,114.35888699999941,131.0258789999998,119.48730499999965,86.41015599999992,113.58984400000008,108.46142599999985,122.17968800000017,114.87158199999976
370,129.3588869999994,136.79492200000004,118.7177729999994,301.2822270000006,77.30761700000039,111.79492200000004,118.0771479999994,133.46142599999985,127.82031300000017,93.0771479999994,114.87158199999976,113.20507799999996,131.6665039999998,116.9228520000006
371,134.87158199999976,136.9228520000006,123.20507799999996,300.6411130000006,72.69238299999961,112.69238299999961,120.89746099999957,134.61523400000078,134.3588869999994,102.43603499999972,112.05126999999993,116.41015599999992,139.87158199999976,118.9741210000002
372,132.82031300000017,138.0771479999994,124.61523400000078,298.20507799999996,72.43603499999972,114.74365200000011,119.61523400000078,131.9228520000006,133.46142599999985,107.56396500000028,105.12841800000024,115.89746099999957,141.53857400000015,119.61523400000078
373,123.84619099999964,137.05126999999993,121.15380900000036,296.4101559999999,73.20507799999996,115.89746099999957,113.58984400000008,125.12841800000024,124.61523400000078,101.9228520000006,95.64111300000059,110.89746099999957,134.87158199999976,117.56396500000028
374,113.0771479999994,133.20507799999996,114.35888699999941,295.6411130000006,71.53857400000015,114.87158199999976,105.0,116.2822270000006,112.05126999999993,86.41015599999992,86.0258789999998,103.84619099999964,122.56396500000028,113.3334960000002
375,106.2822270000006,129.48730499999965,108.20507799999996,294.87158199999976,67.43603499999972,112.05126999999993,98.58984400000008,109.48730499999965,102.30761700000039,69.48730499999965,80.25634799999989,98.46142599999985,111.2822270000006,109.23095699999976
376,107.05126999999993,129.10253900000043,106.41015599999992,293.7177729999994,65.0,109.10253900000043,98.3334960000002,108.7177729999994,100.76904300000024,62.17968800000017,82.17968800000017,97.82031300000017,107.05126999999993,107.94873000000007
377,113.58984400000008,133.20507799999996,110.89746099999957,293.9741210000002,67.94873000000007,108.3334960000002,104.87158199999976,114.74365200000011,107.30761700000039,69.74365200000011,92.17968800000017,102.43603499999972,111.41015599999992,110.76904300000024
378,120.76904300000024,140.12841800000024,118.9741210000002,297.6923829999996,75.89746099999957,110.0,114.35888699999941,123.9741210000002,117.30761700000039,87.43603499999972,105.89746099999957,109.35888699999941,120.25634799999989,115.89746099999957
379,123.3334960000002,146.41015599999992,126.2822270000006,303.84619099999964,84.61523400000078,112.94873000000007,121.41015599999992,130.76904300000024,124.35888699999941,103.3334960000002,116.15380900000036,114.35888699999941,127.30761700000039,119.74365200000011
380,119.48730499999965,148.0771479999994,128.58984400000008,308.9741210000002,87.82031300000017,115.0,122.30761700000039,130.89746099999957,124.23095699999976,107.17968800000017,116.6665039999998,114.48730499999965,127.56396500000028,119.48730499999965
381,111.0258789999998,142.3076170000004,124.61523400000078,309.6152340000008,81.9228520000006,114.87158199999976,117.56396500000028,123.7177729999994,116.6665039999998,96.15380900000036,106.41015599999992,110.0,120.51269500000035,114.87158199999976
382,101.6665039999998,129.87158199999976,116.41015599999992,305.51269500000035,68.84619099999964,113.3334960000002,110.51269500000035,113.0771479999994,105.12841800000024,77.43603499999972,91.0258789999998,103.0771479999994,109.48730499999965,108.58984400000008
383,94.87158199999976,117.05126999999993,108.7177729999994,299.87158199999976,56.666503999999804,111.79492200000004,105.76904300000024,104.74365200000011,94.87158199999976,62.30761700000039,78.58984400000008,97.43603499999972,100.0,104.48730499999965
